 texplosion  fnickel    Pspin  log(Bfield)      Mns  thetaPB   mejecta    kappa  kappagamma     vejecta  temperature    alpha  cutoff_wavelength  log(nhhost)      A_V         MJD0   kenergy  mnickel            TSD   log(L0)  Peak_mag     Peak_MJD  log(E_rad)  log(Peak_lum)  Rise_Time    E_fold  tau_1  delta_m15     r_peak     frac 
   -82.7064  0.06375  0.91469     13.98492  1.79931  1.49804  56.93745  0.04464     0.01809  3902.61823    7859.2745  2.25698         3536.41746      16.6067    2e-05   52480.0936   5.17294  3.62953   149837.93059  47.42579  19.16188  52565.90351    51.50153       44.47896   42.66761  87.27466   93.0    0.03952  -21.70476  0.98568 
  -92.24292  0.04971  1.53959     13.88989  1.76264  1.41134  78.01757  0.02901     0.10239  3678.86002   6399.17988  3.91967         3368.55661     17.64557  0.00025  52470.55708   6.29863  3.87815   644170.53549   46.3312  19.10764      52562.8     51.4685       44.42199   58.18311  81.45635  102.5    0.04365  -21.73173  0.95484 
  -82.77523  0.00347  1.63366     13.96387  1.89972   1.0429  58.16434  0.03899     0.04237  3755.44609   8755.44123  2.50453         3572.24404     18.54572  0.00195  52480.02477   4.89336   0.2017   556005.58651  46.37613  19.08046  52552.66394    51.57407       44.55348   42.66761  87.27466   87.5    0.04657  -21.69944  0.99753 
  -79.35146  0.17604  0.88845     14.12861  1.65773  0.71581  17.36184  0.18813     0.24518  4870.79907   9370.23121  3.21237          3323.8305      19.4356  0.01515  52483.44854    2.4571  3.05636     67202.4331  47.76371  19.13499  52563.25559    51.50899       44.48549    52.3648  81.45635   84.5    0.04685  -21.78775  0.98712 
  -92.44526   0.1046  1.97659     14.00159  1.78441  0.73026  28.33733  0.07762     0.06828  3834.34028   6933.12773  4.93422         3249.09737     17.22208    9e-05  52470.35474   2.48523  2.96409   642644.44162  46.12054  19.09293  52555.31185     51.4444       44.39478   50.42536  91.15353  102.0    0.04694  -21.74169  0.94431 
  -82.32158  0.05175  1.04571      13.9643  1.68484  0.96083  19.63833   0.1575     0.18158  4370.03525   8074.49009  4.09673         3163.44829     20.08166  0.06705  52480.47842   2.23718  1.01622    201645.1132    47.152  19.11111  52550.01603    51.49074       44.42961    52.3648  93.09297   91.5    0.04314   -21.8181  0.99399 
  -89.50217  0.07976  0.80001     14.27181  1.88573  0.51067  37.99245  0.07868     0.08316  4369.66937   7666.83125  1.45069         3493.06995      20.0515  0.06255  52473.29783   4.32735  3.03029    32052.86338  48.23226  19.14567      52562.8    51.45451       44.40693   50.42536   89.2141   89.0    0.04567  -21.78404  0.99149 
  -81.61803  0.00161  1.22857     13.96647  1.91358  1.35406  52.76492  0.03836     0.10457   3205.1416   7429.22023  2.23045         3791.55611     17.60399  0.00022  52481.18197   3.23346  0.08514   312990.53951  46.87636  19.12606      52562.8    51.54682       44.51362   46.54649  87.27466   92.0    0.04847    -21.685  0.99942 
  -94.74246  0.05877   1.2185     14.05887  1.74592  0.68524  30.82476  0.08247     0.06438  3984.43214   7664.71396  2.30934         3381.73748     17.73095   0.0003  52468.05754   2.91917  1.81169   183548.94454  47.07547  19.19504  52571.19933    51.54135       44.51332   48.48592  87.27466   94.0    0.04457  -21.64539  0.98621 
  -92.45171  0.01302  1.57831     13.85262  1.34305  0.55559  47.05306  0.03467     0.01251  3319.37978   5985.87812  2.49053         3637.20142     16.86165    4e-05  52470.34829   3.09264  0.61284   612414.03566  46.21351  19.19167  52565.90351    51.45198        44.3968    52.3648  91.15353  100.5    0.04942  -21.72566  0.98819 
  -96.73244  0.00481  2.04755     13.82233  1.90725  1.32446  19.29554  0.11566     0.01268   3716.1624   6762.57511  4.38179         3228.49196     16.64705    2e-05  52466.06756   1.58955  0.09282  1682785.65514  45.70075  19.15919  52560.60768    51.45615       44.38232   58.18311  95.03241   99.0    0.04553  -21.68504   0.9982 
  -76.09196  0.12941  1.84051     14.13408  1.71308  0.64497  43.23788  0.04109     0.01108  3649.24005   7553.51307  3.69833         3460.78273     16.38338    1e-05  52486.70804   3.43476  5.59545    290606.5349  46.50944  19.14589  52571.19933    51.55002       44.53539   50.42536  79.51691   99.5    0.05165   -21.6881  0.90748 
  -98.30825  0.00632  1.27635     13.83335  1.46644  0.86866  62.52111  0.03618     0.13162  3122.63647   7433.55153  4.15151         3399.76061        16.45    2e-05  52464.49175   3.63661  0.39531   477870.17278  46.54386  19.19454  52571.19933    51.41103       44.39502   50.42536  83.96706  103.5    0.03999  -21.56929  0.99565 
  -99.37153  0.05157  0.80658     13.95948  1.71616  1.32743  99.92906  0.02893     0.28077  3806.27918   6639.66558  3.35794         3398.77155      17.3991  0.00014  52463.42847   8.63615  5.15315   124941.49383   47.5934  19.06401  52563.25559    51.65399       44.66433   40.72817  79.51691  107.0    0.03572  -21.39787  0.98329 
  -66.99666  0.01282  1.67912     13.98261  1.77474  0.96938  22.80291  0.11155     0.04502  4477.73283   8632.60466  3.16224         3484.46538     17.05607    6e-05  52495.80334   2.72731  0.29224   503362.59364  46.36594  19.13864  52568.55142    51.49899       44.50109   44.60705  79.51691   81.0    0.05358  -21.71155  0.99582 
  -80.18298   0.0208  1.06402     13.97282  1.47904  0.72092  58.34167  0.05062     0.07149  4316.17541   7429.07014  2.64961         3432.72181     16.52865    2e-05  52482.61702   6.48342  1.21368   176218.21373  47.13887  19.11026  52555.31185    51.47064       44.39445   58.18311  91.15353   91.0     0.0473  -21.73646  0.99095 
  -83.46222  0.03299  1.04597     13.92914   1.7506  1.34609  80.51891  0.03162     0.42081  3911.02933   7856.35535   1.7473         3739.42881     17.03606    6e-05  52479.33778   7.34695  2.65629   246470.30616  47.08123   19.1235  52560.60768    51.47472        44.4319    52.3648  87.27466   92.0    0.04498  -21.70157  0.98534 
  -92.20222  0.00473  1.71942     13.86362  1.39584  0.57386  49.84627  0.03798     0.02851  3666.10295   7164.68203  3.30607         3428.35252     17.14681    8e-05  52470.59778    3.9964  0.23581   718074.74851  46.08675  19.17778  52565.90351     51.5863       44.56616   42.66761   89.2141   98.0    0.05085  -21.72906  0.99487 
  -91.93766   0.0012  1.30979     13.96037  1.57294  0.72537  45.20788  0.04814     0.11512  3110.58104    7762.3483   4.4309         3391.28682     19.15891  0.00801  52470.86234    2.6093  0.05417   300746.31381  46.75295   19.1539  52568.55142    51.48948       44.49375   40.72817  83.39579   98.5    0.04106  -21.70978  0.99943 
  -86.97188  0.04931  1.22078      14.2207  1.71417  0.48653  53.73435  0.05454     0.03071  3993.52226   7098.51772  3.64666         3384.47626     16.19416    1e-05  52475.82812   5.11201  2.64955    85852.54291  47.39587   19.1252      52562.8    51.43633       44.39649   48.48592   89.2141   99.0    0.03862  -21.75576  0.97939 
  -75.59104  0.00392   2.5681     14.03991  2.05797  0.73878  26.55373  0.05936     0.03666  4002.61871   6086.19176  3.26587         3400.05965     18.18088  0.00084  52487.20896   2.53771  0.10413  1048701.96792  45.74241  19.09804  52550.01603    51.47062        44.4064   48.48592  96.97184   92.5    0.05875  -21.70776  0.99716 
  -84.10709  0.00399   1.7699     13.84446  1.84354  1.32425  17.13067  0.12228     0.23341  4071.14464   7708.43307  2.31488          3448.8502     19.86678  0.04088  52478.69291   1.69369   0.0683  1097599.17846  45.99816  19.08173  52550.01603    51.45571       44.40649   48.48592  93.09297   88.0    0.05181  -21.75138  0.99897 
  -96.82282  0.01518  1.37998     13.84581   1.6143  1.02206   23.7824  0.11398     0.30031  3527.69869   7717.78623  4.60289          3339.1846     19.13293  0.00754  52465.97718   1.76549  0.36096    580647.1894  46.43317  19.13128      52562.8    51.55735       44.51662   50.42536   89.2141  101.5    0.04044  -21.62958  0.99598 
  -82.96763  0.01138  1.40832     13.69409  1.30961  1.07395  26.46995  0.08886     0.02985  3889.60425   7197.09863  4.24088         3316.05237     17.18544    9e-05  52479.83237   2.38886  0.30127   986702.00579   46.0944  19.14248  52552.66394    51.47701       44.39604    52.3648  98.91128   94.0    0.04679  -21.73955   0.9952 
   -96.0442  0.00394  1.36473       13.753  1.54508  1.16883  23.02123  0.10989     0.03568  3737.09454    8032.3045  3.33771         3373.78469     19.91632  0.04582   52466.7558   1.91789  0.09067    833394.0441  46.26685  19.11405  52565.90351    51.57356       44.54794   50.42536  83.39579   97.0    0.04235  -21.71138  0.99894 
  -92.67212  0.14781  0.96707     14.02529  1.50678  0.67041  32.83409  0.06512      0.0682  3591.37376   7232.59838  2.67427         3359.36672     19.45903  0.01599  52470.12788   2.52623  4.85329   116468.78971  47.40977  19.07868  52552.66394    51.45806       44.41511   48.48592  91.15353  101.5     0.0416  -21.66194  0.97167 
   -85.5026  0.20299  1.42661     13.94893  1.70106  1.39289  42.65288  0.04167     0.24143  3783.17324   6570.25116   2.3914          3549.5118     16.26446    1e-05   52477.2974   3.64156  8.65793   406710.03241  46.58167  19.19898  52565.90351    51.52849       44.51421   40.72817  85.33522  106.0    0.04661  -21.71695  0.91316 
  -78.94304  0.06078  1.75861     13.88071  1.79944  1.55325  33.98257  0.06506     0.01989  3777.23308   6835.55931  4.46054         3332.52636     19.83361  0.03787  52483.85696   2.89222  2.06538   895119.02564  46.08176  19.13139      52562.8    51.47247       44.42178   58.18311  87.27466   96.5    0.04696  -21.74277  0.96903 
  -79.05638  0.10706  0.73365     14.07565  1.94426  1.30596  35.37571  0.06174     0.11293  3729.27285   8450.28854  1.50804         3951.77762     17.05688    6e-05  52483.74362   2.93481  3.78726    68587.72339  47.99037  19.10789  52550.01603    51.49697       44.44852   40.72817  95.03241   85.0     0.0501  -21.69148  0.99217 
  -92.69445  0.08454  0.95369     13.92165  1.61413  1.53623  73.68033  0.03422     0.02163   3758.7547   6645.17623  4.68069         3336.33217     16.60657    2e-05  52470.10555   6.20964  6.22907    195557.2021   47.2267    19.149      52562.8    51.45273       44.39892    52.3648  91.15353  106.5    0.03835  -21.68771  0.96869 
  -83.32269  0.00105  1.60746     13.86123  1.57728  0.91296  33.59104  0.05806     0.04853  3449.14286   8043.81526  3.28588         3460.23698     16.41169    1e-05  52479.47731   2.38382  0.03533   717051.01121  46.19892  19.13005  52563.25559    51.41464       44.37661   44.60705   89.2141   93.0    0.04818  -21.69084  0.99944 
  -99.67726   0.0069  1.26622     13.86476  1.83353   1.2276  54.78629  0.04913     0.03412  3653.48598   7817.08769  2.60036         3431.04467     19.99621  0.05507  52463.12274   4.36228  0.37821   508860.46195  46.62052   19.1092  52555.31185    51.50693       44.43858   44.60705  98.91128   98.0    0.03946   -21.6093  0.99707 
  -81.93611  0.17996  1.01393     14.26781  1.70522  0.52142   33.3129  0.08117     0.03811  4283.03442   6755.08002  3.02717         3457.15627     17.07428    7e-05  52480.86389   3.64538  5.99499    47423.15095  47.81262  19.10491  52557.95977    51.45984       44.38773   58.18311  89.78538   99.0    0.04263  -21.77917  0.96863 
  -87.91365  0.23889  2.13913     13.89711  1.66347  0.81697  18.24557  0.10691     0.07932  4167.96036   5723.07558  3.29534         3419.79217     18.36053  0.00127  52474.88635   1.89074   4.3586  1135244.13974   45.7743   19.0719  52552.66394    51.55256       44.49324   46.54649  95.03241  101.0    0.05071  -21.76296  0.89813 
  -94.40809  0.00733  1.48049      13.8854  1.88208  1.45862  52.55838  0.04883     0.20198  3454.06838    7234.2798   3.6307         3446.00305     19.68389  0.02683  52468.39191   3.74051   0.3851   649320.07674  46.39022  19.14006  52560.60768    51.51421       44.47684   54.30423  83.39579  101.5     0.0399  -21.67233  0.99608 
  -88.19604  0.00259  0.73027     14.06098  2.01166  1.15785  46.81153  0.05462     0.07287  3363.14312   8460.78042  1.90126          3796.5494     17.59951  0.00022  52474.60396   3.15843  0.12129    75226.76831  47.96907  19.15737      52562.8    51.45212       44.38379   60.12254  91.15353   90.0    0.04234  -21.73314  0.99975 
   -99.2807  0.15905  0.93162     14.00957  1.83392   1.2862  50.94108  0.04972     0.03056  3673.03062   6643.59178  4.51528         3268.60126     20.03823  0.06067   52463.5193   4.09963  8.10233   141427.13786  47.44322  19.14752  52565.90351    51.47778       44.45284   46.54649   89.2141  115.0     0.0375  -21.51402  0.96828 
  -93.44509  0.00162   0.9339     13.78331  1.56081  1.52327  80.12954  0.02662     0.12786  3212.31552     8462.427  1.58368         4077.48418     18.13353  0.00076  52469.35491   4.93238  0.12963   342881.15981  46.98645  19.16087      52572.8    51.43751       44.42385    36.8493  85.33522   90.0    0.04198   -21.6366  0.99931 
  -83.49275  0.00538  1.10959      13.8625  1.51532    0.917  43.31535  0.05891     0.05231  4578.89095    8975.9656  0.99815         3971.96456     16.98292    5e-05  52479.30725   5.41738  0.23317   326325.03904  46.84538  19.10712  52550.01603    51.45737       44.41441   46.54649  93.09297   74.5    0.05162   -21.7421  0.99816 
  -77.51327  0.02036  1.44163     13.85763  1.48967  0.93723  25.40457  0.07145     0.46651  3121.43326   8571.60646  3.54318          3492.4987     17.24829   0.0001  52485.28673   1.47655  0.51728   553810.76332  46.38086   19.0677  52555.31185    51.50316       44.47585   48.48592  87.27466   92.5    0.04764  -21.65691  0.99292 
  -93.27868  0.11608  1.48138     14.39516   1.9534  0.41487   42.3659  0.04478      0.1404  3140.54192   7946.41809  4.69978         3365.67301     18.03082   0.0006  52469.52132    2.4926  4.91794    64508.98124  47.40868  19.11435      52574.7    51.44408       44.46455   46.54649   73.6986  103.5     0.0431  -21.66963   0.9548 
  -95.54151  0.01848  1.19766     13.86978  1.75104  1.25988  47.82774  0.05471     0.07147  3693.02844   7712.54139    2.031         3635.96703     16.13576    1e-05  52467.25849    3.8911  0.88368   424839.73709  46.72725  19.12928  52563.25559    51.48445        44.4604    52.3648  77.57748   95.0     0.0405  -21.60607  0.99348 
   -96.6324   0.0014  1.08447     13.88684   1.7737  0.98375  67.40076  0.02916      0.1646  3259.32375   8365.84867  2.09535         3524.19581     20.34303  0.12239   52466.1676   4.27117   0.0942   326175.51579  46.93384  19.17524  52568.55142      51.526       44.48975    52.3648  81.45635   94.0    0.04584  -21.70595  0.99944 
  -91.97316   0.0166  0.84997     14.08961  1.68359  0.71003  40.08503  0.05968     0.43774  2868.97993   7354.95563  4.30527         3408.19452     16.57926    2e-05  52470.82684   1.96818  0.66538    74755.32308  47.76263   19.1545  52557.95977     51.4859         44.463   38.78874  91.15353  103.0    0.03869  -21.59406  0.99744 
  -88.72423  0.00884   1.6738     13.95349  1.66079  0.74091  74.49205   0.0263      0.1955  3372.56972   7967.21322  3.98626         3401.82704     19.75315  0.03147  52474.07577   5.05428  0.65871   535248.53295   46.3132  19.10175  52557.95977    51.52817       44.50456   44.60705  87.27466   95.0     0.0476  -21.74945  0.98967 
  -68.10829  0.06917  0.80969     14.25428  1.48051  0.46894  57.62308  0.04767     0.04957   4814.4065   7700.86072  2.28352         3502.18305     18.02218  0.00058  52494.69171   7.96726  3.98551    27944.39572  48.17633  19.15442  52571.19933    51.40891       44.38377    52.3648  81.45635   86.0    0.04692   -21.7314  0.98381 
  -86.37357  0.04059  2.17427     13.76477  1.76289  1.18645  26.06536   0.0642     0.16613  3889.23743   6719.15879  3.07738         3404.23422     19.48551  0.01699  52476.42643    2.3519  1.05795   2286301.0007  45.48131  19.10543  52555.31185    51.52192        44.4937   42.66761  91.15353  100.5    0.05317  -21.77024  0.97447 
  -72.13699  0.00241  2.33528     13.91246  2.05861  1.46717  15.48583  0.12241     0.03899  3872.97677   7189.40417   3.9005         3355.83527     16.71808    3e-05  52490.66301   1.38564  0.03725  1560086.43783  45.65259  19.15571  52565.90351    51.53588       44.50411   54.30423  83.39579   90.5    0.05291  -21.69683  0.99916 
  -92.59651  0.00514  1.27958     13.90021  1.75723    1.203  77.18753  0.03189     0.20229  3604.33652    8204.3832   3.3691         3436.23007     16.66456    3e-05  52470.20349   5.98171  0.39677   423015.11978  46.67318  19.13683      52572.7      51.515       44.51976    52.3648  79.51691   93.0    0.04298  -21.71001  0.99666 
  -96.96813  0.00158  1.85042     13.74276  1.84123  1.21776  70.86366  0.02071      0.1288  3700.97076   6518.49816  1.10793          3935.0775     19.83136  0.03768  52465.83187   5.79005  0.11218  1914048.22192  45.71746  19.09259  52563.25559    51.56758       44.53988    52.3648  81.45635  106.0    0.05249  -21.72222  0.99813 
   -96.9421  0.01543  1.03556     13.78247  1.48679  1.28222   56.3737  0.05455      0.0529  3663.90755   7910.23265  3.52468         3371.95425     17.60629  0.00022   52465.8579   4.51432     0.87   403166.36752  46.80526  19.14066  52571.19933    51.41784       44.42269   42.66761  80.77942  100.0    0.03638  -21.52368  0.99388 
  -85.77478  0.00446  1.00995     14.14309  2.00553  0.83228  19.01779  0.18561     0.04446  4895.72084   9423.12133  2.12376         3536.12438     16.41433    1e-05  52477.02522   2.71907  0.08485    98278.95126  47.57001  19.09944  52557.95977    51.47752       44.39999   62.06198   89.2141   78.5     0.0408  -21.81655  0.99964 
  -96.50493  0.11764  0.74554     14.16977  1.14572  0.32527  50.73441  0.04537     0.02695  3384.03648   7588.96618  2.97135         3456.79788     16.68986    3e-05  52466.29507   3.46577  5.96862    27057.32049   48.1507  19.09456      52562.8    51.43874       44.38026   50.42536  91.15353  107.0    0.03615  -21.47089  0.96913 
  -80.52263  0.32292  1.38655     13.71512  1.19945  1.37513  23.99394  0.06931     0.09455  3759.22313   6082.18318  4.50969         3240.25464     16.13208    1e-05  52482.27737   2.02267  7.74812   795108.04387  46.16353  19.14052  52555.31185    51.50297       44.43548    52.3648  95.60369  105.0    0.04932  -21.72089  0.87985 
   -87.9849  0.08329  0.85433     14.04129  1.61768  0.76555  26.03494  0.10334     0.01577  3727.08291   7370.28472  2.44554         3513.23702     19.30246  0.01115   52474.8151   2.15736   2.1685    90653.71676   47.6571  19.14697  52579.14307    51.48371        44.5235    36.8493  77.57748   98.0    0.03469  -21.71235   0.9911 
  -87.67418  0.15946  1.02245     14.03027  1.86496  1.45036  28.89078  0.09184     0.02497  3420.89719   6404.43157  4.92909         3288.99118     16.53786    2e-05  52475.12582   2.01682  4.60689    157482.6523    47.323  19.14871  52560.60768    51.47373       44.39835   60.12254  91.72481  108.0    0.03321  -21.67196  0.97852 
  -79.88685  0.00573  1.41542     14.05195  1.83131  0.82252   73.5235  0.03147     0.39902  3655.47585   7982.63896  2.54184         3663.84253     18.93637   0.0048  52482.91315   5.86059  0.42128   268187.82186   46.8014  19.14096  52565.90351    51.55763       44.55137   40.72817  83.39579   89.0    0.04665  -21.69441  0.99593 
  -99.88824  0.01695  1.22826     13.77108  1.65704  1.54858  51.97676  0.05041     0.06801  3807.72405   7961.65925  2.77302         3361.09552     20.11647  0.07264  52462.91176   4.49539  0.88114   666130.58846  46.48604  19.14187  52557.95977    51.51641       44.47108   48.48592  91.15353   96.0    0.04176  -21.64656  0.99256 
  -90.00137  0.03027  1.61736     13.82814  1.72459  1.47305  46.73496  0.05113     0.07582  3723.64991   6754.58588  4.00216         3326.77776     19.04485  0.00616  52472.79863   3.86551  1.41462    924348.4778  46.12208  19.06178  52550.01603    51.63795       44.60482   42.66761   89.2141   99.0    0.04226  -21.74157  0.98065 
  -87.30667  0.10075    0.769     13.91487  1.70117  1.36117  39.12391  0.05763     0.02174  4137.17093   8528.24265  0.81274         4045.45004     18.22281  0.00093  52475.49333   3.99463  3.94192    138257.2186  47.58705  19.13496  52560.60768    51.54057       44.46322   62.06198  87.27466   81.0    0.04727  -21.70635  0.98808 
  -88.42324  0.00307  1.07518      13.8991  1.74117  1.25561  61.16681  0.03687     0.01506  3355.97257   7425.59983  1.86963         3826.78415     17.33528  0.00012  52474.37676   4.10941  0.18751   297447.51928  46.97331  19.17777  52568.55142    51.54816       44.54303   44.60705  83.39579   93.5    0.04574  -21.68903  0.99887 
  -93.01798  0.14307  1.28556     13.95898  1.54611  0.78224   27.3848  0.10307     0.03623   3997.1287   6811.54144  4.91651         3254.21789     19.47426  0.01656  52469.78202   2.60995  3.91807   286601.45566  46.78262  19.06233  52550.01603    51.47628       44.42247   44.60705  98.91128  104.5     0.0413  -21.72699  0.96111 
  -84.53768  0.06478  1.94631     13.89964  1.87982  1.49228   26.4769  0.06402     0.16137  3224.80849   6751.64807  4.95897         3329.76392     17.53607  0.00019  52478.26232   1.64249  1.71504   1049720.1112  45.94346  19.14932  52557.95977    51.56627       44.51925   44.60705  95.03241   95.5    0.05202  -21.72637   0.9704 
  -93.23517  0.17341  1.51835     13.94022   1.7888  1.21499  34.72268  0.06844     0.20176   3671.1201   7281.77657  3.77242         3401.86095     16.67162    3e-05  52469.56483    2.7915  6.02131   504301.90937  46.45597  19.09477  52552.66394    51.50219       44.43496   54.30423  95.03241  107.0    0.04183  -21.70098  0.93479 
  -93.24298  0.00286  1.50874     13.88403  1.91376   1.5043  58.78086  0.04636      0.1324  3918.08932   6835.91247  2.73029         3470.93085     18.66579  0.00257  52469.55702   5.38284  0.16835   690042.10772  46.35463  19.10098  52568.55142    51.58753       44.57639   48.48592  80.43913   97.0    0.04258  -21.71756  0.99826 
  -73.83827  0.03205  1.44705       14.086  1.78588  0.78827  60.83529  0.03852     0.16471  4006.07955   8216.43072  3.32862         3431.32959     18.89333  0.00435  52488.96173   5.82401  1.94996   233687.49511  46.83109  19.12396  52555.31185    51.47771       44.41399   56.24367  90.47661   89.5    0.05036  -21.70799  0.97989 
  -90.37453  0.00958  1.18932      13.8506  1.75196  1.41646  56.58998  0.04901     0.01246  3969.65053   7943.88319  1.58726         3806.98397     18.61287  0.00228  52472.42547   5.31951  0.54238   457862.85048  46.70104   19.1888  52576.49516    51.54002       44.52863   42.66761  85.33522   91.0     0.0436  -21.73982  0.99605 
  -72.65089  0.00269  2.21704     13.69493  1.86732  1.50679   56.0366   0.0203     0.02378  3945.50787   8027.71108  3.85904         3386.66519     20.72641   0.2959  52490.14911   5.20361  0.15086  3473086.16524   45.3078  19.18242  52565.90351     51.4768         44.416   60.12254  85.33522   94.0    0.07294  -22.07031  0.99643 
  -89.12258  0.00288  0.85001     13.93083  1.62214  0.95884  49.39796   0.0487     0.02003  3619.64522   9513.15876  1.39477         4059.76341     18.54348  0.00194  52473.67742   3.86072  0.14236    149656.6374  47.44499  19.18009      52562.8    51.49989       44.46944   42.66761  87.27466   82.5    0.04479  -21.72457  0.99941 
  -64.44503  0.00489   1.9769     13.80351  1.73029  1.25364  47.33312  0.02328     0.21731  3500.73457   7630.47819  1.43501         4170.26123     17.67908  0.00027  52498.35497   3.46028  0.23149  1551938.11721  45.72412  19.15845  52568.55142    51.42571       44.36818   63.66772  85.66892   87.5    0.06838  -21.67323  0.99519 
  -93.12239  0.03115  1.32921     14.26603  1.76083  0.41264  29.34145  0.09735     0.02003  3713.92316   7342.24596  3.74938         3351.01644     16.98782    5e-05  52469.67761   2.41421  0.91392    84849.77346  47.33872  19.11273  52568.55142    51.59388       44.58116   48.48592  80.43913  100.5    0.03761  -21.65179  0.99177 
  -80.75797  0.22139  0.70998     13.91577  1.31239  1.27799  44.98632  0.05302     0.08827   4500.1533   7035.00462  4.23857         3179.48496     19.24778  0.00983  52482.04203   5.43453  9.95932    90539.63906  47.72758  19.10208  52555.31185    51.47332       44.42554   44.60705  93.09297  105.0    0.04056  -21.76676  0.96545 
  -97.29944  0.02333  1.31456     13.93587  1.88603  1.54137   96.2067  0.02827     0.04088  3570.99949   6549.49959  4.53254         3229.53976     19.27503  0.01047  52465.50056   7.31833  2.24498   406620.33075  46.69764  19.21467  52581.79098    51.42288       44.44191   44.60705  74.96111  105.5    0.03764  -21.51901  0.98238 
  -95.04085  0.00769  0.94183     13.87212  1.67988  1.50751  48.53649  0.05526      0.2538   3464.1384   9420.12089  2.61584         3564.70083      19.0407   0.0061  52467.75915   3.47445  0.37304   249345.89634  47.14938  19.16751  52568.55142    51.45641       44.43642    52.3648  79.51691   90.5    0.03704  -21.51842   0.9982 
  -90.62846  0.00216    0.823     13.82546  1.43633  0.87437  33.71178   0.0798     0.02892  3727.19278   8329.25348  3.24997         3361.79573     20.54991  0.19708  52472.17154   2.79365   0.0729   201812.94599  47.29035  19.11818  52555.31185    51.59489       44.56657   46.54649   89.2141   94.5    0.04157  -21.94086  0.99966 
  -79.97063  0.00724  1.96009     13.87009   1.8943  1.50734  87.12611  0.01854     0.02561  3336.14063   8119.82551  2.86552            3511.67      19.1822  0.00845  52482.82937   5.78448  0.63062   1229247.4818   45.8721  19.12943  52555.31185     51.5065       44.46507   48.48592  91.15353   91.0    0.05476  -21.67894  0.98886 
  -63.34775  0.11638  0.81475     14.28371   1.8822  0.64803   23.2689  0.09605     0.02869  4252.63213   9139.70384  1.49035         4052.04885     16.72501    3e-05  52499.45225   2.51026  2.70803    31413.21672  48.22434  19.17563  52573.84725    51.41899       44.39681   54.30423  77.57748   75.0    0.05778  -21.72083  0.99253 
  -80.29056  0.03016  1.19527     13.99428  1.69136  0.95994  57.62492  0.04578     0.03183  3823.36337   6935.54703  3.78742         3451.25442     17.38831  0.00014  52482.50944   5.02491  1.73804    230372.6171  46.97972  19.18386  52568.55142    51.49584       44.47305    52.3648  79.51691   95.5    0.04346  -21.73476  0.98671 
  -93.88426  0.00673  0.95553     13.91661  1.75914  1.48864  39.57709  0.07908     0.07565  3538.94972   7865.83793  4.68573         3305.07597     17.06929    7e-05  52468.91574   2.95679  0.26641    218965.0363  47.21329  19.11019  52555.31185     51.4693       44.39167   56.24367  95.03241  101.0     0.0386  -21.55198  0.99877 
  -90.83299  0.00224  0.88935     14.05164  1.60121  0.70987  55.28834  0.05339     0.01329  3491.32965   8557.89311  4.68032         3352.17866     18.32346  0.00117  52471.96701   4.02015  0.12362     92709.0805  47.60803  19.14085  52565.90351    51.42954       44.38685   56.24367  85.33522   97.0    0.04024  -21.70569  0.99943 
  -97.78815  0.00118  1.15349     13.91405  1.87047  1.18911  37.40471  0.06566     0.30247  3393.25865   7408.70954  1.87852         3684.33359     16.71411    3e-05  52465.01185   2.56914  0.04424    343308.3563  46.88108  19.12528  52557.95977    51.50479       44.45062   56.24367   89.2141   98.5    0.04133  -21.52306  0.99973 
  -96.59558  0.02938   1.1445     14.06131  1.83132  0.81532  55.86408  0.05316     0.12582  3439.33946   7590.35407  4.18768          3337.4935     16.91318    5e-05  52466.20442   3.94194  1.64115   167950.48709   47.1892  19.10079  52555.31185    51.54867       44.52033   46.54649  85.33522  105.0    0.03654   -21.4857  0.98976 
  -91.61095  0.03537  1.21277     13.79227  1.55857  1.06983  37.79023  0.04829     0.03336  3116.89972   7697.88846  2.00204         3786.80664     20.01417   0.0574  52471.18905   2.19004  1.33649   554051.31591  46.55046   19.1348  52560.60768    51.51115        44.4756   46.54649  85.33522   98.0    0.04463  -21.75637  0.98798 
  -89.33575  0.00738  1.14063      13.8925  1.71411  1.37344  42.55672  0.06263      0.0222  3531.47145   7835.82183  4.40361         3352.94758     17.47284  0.00017  52473.46425   3.16597   0.3141   339735.31147  46.85745   19.1725  52568.55142    51.42894       44.38756    52.3648  87.27466   98.5    0.03873  -21.76122  0.99783 
  -80.84937  0.17926  0.99218     14.05645  1.68018  0.85234  29.86028  0.06815     0.12729  3678.98721   7463.98459  2.29828         3469.43155     19.95226  0.04977  52481.95063   2.41089  5.35272   118425.40458  47.42758  19.14401  52571.19933    51.54578       44.55534    36.8493  83.39579   98.0    0.04572  -21.70368  0.97236 
  -90.19169  0.00185  1.35581     13.80102  1.37661  0.77101  22.47079  0.11546     0.03014  3984.77249   7696.23311  4.40046         3221.69259     19.82932   0.0375  52472.60831    2.1284  0.04159   587461.21754  46.37428  19.01079  52547.36811    51.49601       44.43682   46.54649  95.03241   94.5    0.04284  -21.80015  0.99943 
  -89.40088  0.05885  0.77024     14.08553   1.6792  0.90407  98.89614  0.02372     0.02083  3437.94528   7730.12044   3.7734         3333.07118     16.49657    2e-05  52473.39912   6.97276  5.82013    62387.78091   47.9256   19.1588  52565.90351    51.44216       44.40894   54.30423  81.45635  103.5    0.03983  -21.71517  0.98285 
  -87.46779  0.00326  1.33886     13.89857  1.74324    1.203  73.52166     0.04     0.27291  4007.63307    7845.3136   3.3834          3429.6496     17.40135  0.00014  52475.33221   7.04398  0.23939   462920.53236  46.59123  19.11897  52557.95977    51.56087       44.50337    52.3648  91.15353   94.5    0.03955  -21.73984  0.99776 
  -71.89309  0.07114  1.26139     14.06251  1.82408  1.25281  71.18562  0.03032     0.03445  3684.85685   7289.61717   4.7202         3389.35813     17.99759  0.00055  52490.90691   5.76581  5.06442   202091.00455  47.02264  19.10158  52560.60768    51.48656       44.44125   46.54649  91.15353  100.0    0.04343  -21.70679  0.96283 
  -91.84335  0.09904   0.8038     14.13249  1.70986  0.70457  42.29784  0.07566     0.18717  3971.10774   6821.69106  3.38986         3364.18772     17.09214    7e-05  52470.95665   3.97895  4.18904    55729.46425  47.94542  19.14871  52568.55142    51.45931        44.3928   60.12254  87.27466  105.5    0.03605  -21.63777  0.98639 
  -94.54656  0.05302  1.77603     14.12663  1.77688  0.51449  21.84882  0.10605     0.42269  3598.76847   6663.15932  4.91626         3291.65644     16.77154    3e-05  52468.25344   1.68796   1.1585   290481.76154  46.55649  19.13194  52557.95977    51.48265       44.41598   54.30423  93.09297  101.5    0.04275   -21.7117  0.98166 
  -98.15659  0.12855  0.77519     14.22155  1.74526  0.54354  33.66827  0.09182     0.18554  3967.73808   7573.00823  2.67679         3443.53126      19.1826  0.00846  52464.64341    3.1618  4.32818    35107.30739  48.18649  19.12646  52560.60768    51.46831        44.4066    52.3648  93.09297  101.5    0.03608   -21.4525  0.98731 
  -76.52738   0.0249  0.79719     13.96336  1.70112  1.40978  79.49351  0.03838     0.01348  4813.94086   9331.30461  1.85796         3538.34536     17.42449  0.00015  52486.27262  10.98905   1.9797   118840.57411  47.62149  19.10605  52563.25559    51.55163       44.53709   40.72817   89.2141   77.5     0.0499  -21.74987  0.99364 
  -95.55626  0.00223  0.76194     14.09993  2.11157  1.01274  62.70411  0.04247     0.36908  3455.25565   7969.13115   1.2911         3973.43846     17.40473  0.00014  52467.24374   4.46564  0.13976    71845.34208  47.97321  19.08602  52555.31185    51.46258       44.41189    52.3648   89.2141   90.5    0.03995  -21.39674   0.9997 
  -91.79425  0.00159  1.48991     13.84828  1.77921  1.55094  30.49004  0.07015     0.05393  3265.14213    7243.0981   3.1343         3508.80256     17.38337  0.00013  52471.00575   1.93905  0.04855   737554.82074  46.30496  19.17612  52571.19933    51.51616       44.48853   44.60705  87.27466   97.0    0.04495  -21.68922  0.99945 
  -85.61579  0.05963  1.08187     14.20566  1.76903  0.50939  44.83726  0.05339     0.10786  3642.25858   8128.16453  2.76854         3542.16509     20.28425   0.1069  52477.18421    3.5482  2.67374    74571.94163  47.57566  19.09025  52555.31185    51.47737       44.41923   54.30423   89.2141   96.0    0.04367    -21.848   0.9844 
  -89.82628  0.04027   1.9039     13.83212  1.51435  0.77281  46.72485  0.03071     0.04336  3224.16076   6876.26307  3.39637         3490.57318      17.4964  0.00017  52472.97372    2.8974  1.88183  1104312.48772  45.84669  19.17442  52568.55142    51.46158       44.43073    52.3648  83.39579   99.5    0.05461  -21.72781  0.95724 
  -97.82144  0.07054  0.81953     14.25045  1.85596  0.55317  51.32496   0.0498     0.20495  3872.41051   8484.45889  1.93637         3554.99897     16.26373    1e-05  52464.97856   4.59112  3.62068    36527.48514  48.14766  19.13863  52560.60768    51.46464       44.43685   42.66761   89.2141   92.0    0.04149  -21.44898  0.98912 
  -89.88388  0.03607  1.61126     13.97931  1.89986  0.92371  23.45101  0.08967     0.38463  3785.84862   8106.23333   2.1021         3582.84933     16.42594    1e-05  52472.91612     2.005  0.84587   503792.51772  46.43098  19.12835  52560.60768    51.45388       44.38104   60.12254   89.2141   89.5    0.04829  -21.73092  0.98998 
  -88.94082  0.00143  1.25244     14.12402  1.65604  0.55124  26.94722    0.089     0.03749  3215.56365   7654.24213  4.81527         3363.45423     16.74289    3e-05  52473.85918   1.66209   0.0386   136258.21948  47.15804    19.147  52560.60768    51.49352       44.45986   46.54649   89.2141  100.0    0.04211  -21.73317  0.99966 
  -99.92648  0.02931  1.32591     14.00971  1.92796  1.00267   59.3175  0.04292     0.01468  3376.15037   7269.97004  4.32254         3233.52809     16.07065    1e-05  52462.87352   4.03324  1.73853   300971.41663  46.83039  19.19219  52568.55142    51.59684       44.57543   40.72817   89.2141  103.5     0.0392  -21.45903   0.9865 
  -84.01759   0.0819  1.50282     13.97088  1.92389  1.52576  39.22324  0.06696     0.03404  4101.60022   7241.41136  3.83458         3292.69802     16.65744    3e-05  52478.78241    3.9362   3.2124   461368.15938  46.53516  19.13696  52565.90351    51.48626       44.47791   44.60705  83.39579   97.5    0.04344  -21.73664  0.96841 
  -90.30732   0.0261  1.08173     13.86945  1.74486  1.33962  17.22673  0.17769     0.08867  4422.66272   7489.01752  1.37629         3538.31363     17.13609    8e-05  52472.49268   2.01001  0.44964   345874.43784  46.90345  19.11762  52557.95977    51.53326       44.50173   48.48592  85.33522   87.5    0.04473   -21.7214  0.99728 
  -98.16599  0.05856  1.51385     13.80464  1.52546    1.048  44.21218  0.05224     0.35149  3517.74311   7320.15165   4.8433          3273.0276     18.34533  0.00123  52464.63401    3.2636  2.58885   798188.41617  46.18997  19.11144  52565.90351    51.49625       44.45566   58.18311  83.39579  103.5    0.04406  -21.62649  0.96333 
  -81.27784  0.00113  1.30109     13.89908  1.74502  1.21716  35.06561  0.08362     0.09989  3875.42476   7722.15206  4.41649         3309.96378      20.0266  0.05906  52481.52216   3.14157  0.03949   436586.88743  46.64196  19.14739  52560.60768    51.44282        44.3926   62.06198  87.84594   96.5    0.03842  -21.75735  0.99965 
  -94.91207   0.0077  1.44227      14.0353  1.66613  0.61184  33.72357  0.08882     0.02364  3868.68265   7793.18654  4.11374         3305.88428       18.071  0.00065  52467.88793   3.01083  0.25967   273532.58618  46.73545  19.16631  52568.55142    51.41642       44.38164   50.42536  85.33522   99.0    0.04118  -21.65507  0.99698 
  -88.89693   0.0069   1.5578     13.78909  1.70724   1.2427  58.24325  0.02732     0.04961  3207.93253   6277.70222  1.42791         4124.52337     16.96732    5e-05  52473.90307   3.57539  0.40208  1016128.36021  46.10917  19.09191  52552.66394    51.47745       44.41149   56.24367  91.15353   95.0    0.04828  -21.69082  0.99474 
  -74.91637  0.04443  1.62551     13.90007  1.78693  1.48157   25.7033  0.09485     0.01776  4193.33093   8161.25103  3.34309         3349.48983     17.80537  0.00035  52487.88363   2.69609  1.14195   694637.83099  46.25722  19.05678  52547.36811    51.52763       44.46388   44.60705  96.97184   87.5    0.04708  -21.69618  0.98501 
  -91.75469  0.02641  0.83635     13.92976  1.70598  0.96444   78.4104  0.02132     0.20346  2909.85416   8899.46706  1.45348         4207.38174     20.01796   0.0579  52471.04531   3.96044  2.07066   153122.48505  47.47101  19.19373      52577.8    51.38814       44.37486   50.42536  81.45635   92.0     0.0448   -21.7335  0.99239 
  -80.91152  0.00496  1.33994     13.97198  1.87953  1.11155  43.69439  0.04796      0.2936  3706.28464    9521.8456  1.96275         3730.73758     19.19729  0.00875  52481.88848   3.58039  0.21669    356514.3447  46.73665  19.16306  52568.55142    51.47014       44.43403   48.48592  87.27466   80.0    0.04976  -21.72068  0.99819 
  -96.36958  0.01226  1.57349     13.82062  1.78973  1.42757  44.36135  0.04669     0.02239  3491.94448   7237.48787  2.61452         3387.01751     18.53656  0.00191  52466.43042   3.22676  0.54382   939927.58255  46.15481  19.14206  52565.90351    51.46576       44.40479   60.12254  83.39579   99.5    0.04506  -21.62779  0.99325 
  -93.61589  0.00298  1.84028     13.94642  1.86449  0.87152  28.14958  0.07866     0.02017  3306.70982    7869.6851    3.931         3398.45679     18.50333  0.00177  52469.18411   1.83608  0.08388    750430.6787  46.13432  19.12089  52552.66394    51.50051       44.41527    52.3648   100.215  100.5    0.04285  -21.67259  0.99865 
  -84.94171  0.00513  1.09649     13.97743  1.81794  1.09537  33.67518  0.10838     0.03245  5047.85116   9034.32615  2.22723         3413.70359     16.01436    1e-05  52477.85829   5.11859  0.17283    225184.1058  47.09588  19.03147  52542.07229    51.55416       44.48458   46.54649  96.97184   79.5    0.04292  -21.79217  0.99899 
  -59.03141  0.18435  0.71784     14.10639  1.72479  1.48348  36.62665  0.06774     0.35199  4712.76183   7295.64825   3.0045         3467.27622     16.42709    1e-05  52503.76859   4.85261  6.75219     50562.4634  48.08969  19.17532      52574.7    51.53565       44.54054   44.60705  79.51691   92.0     0.0591  -21.70073  0.98603 
   -97.2507  0.00101  1.27499     14.06856  2.09698  0.95507  71.89763  0.03713     0.09869   3558.0744    7629.2094  2.55714         3453.87789     16.33668    1e-05   52465.5493   5.42965   0.0729   230832.79662  47.01613  19.13806  52560.60768    51.46166       44.40153   56.24367   89.2141   97.0    0.04129  -21.50545  0.99954 
  -93.59949  0.18539  0.78631     14.06538  1.67736  0.71913  38.30323  0.06012     0.29557  3699.65187   7731.79566  3.16769         3361.10407     20.53368  0.18985  52469.20051   3.12741   7.1011    71263.06041  47.84942  19.18085      52572.8    51.61399       44.63416   38.78874  79.51691  104.5    0.03965  -21.80599  0.97711 
  -97.16893  0.02221  1.83135     13.66353  1.64616  1.43927   28.8178  0.06733     0.12241   3652.7108   5908.85351  4.44687         3245.54637     20.34534  0.12305  52465.63107   2.29361  0.63995  2414143.53813  45.57701  19.15162  52565.90351     51.5174       44.49996   46.54649  85.33522  105.0    0.04805  -21.84025  0.98772 
  -87.81843   0.0062  1.03366     13.94196  1.87719  1.34458  38.34931  0.05513     0.25343   3293.3178   7276.14532  1.63536         3875.13179      19.5734   0.0208  52474.98157   2.48114   0.2376   243309.00985  47.12744    19.113  52555.31185    51.47039       44.39825   54.30423  95.03241   90.5    0.04363  -21.68187  0.99883 
  -90.58551  0.01575  0.78773     14.20915  1.84888  0.63519  29.56344  0.10431     0.06064  3456.88694   7807.86302  4.49438         3377.94194     18.99291  0.00547  52472.21449   2.10743  0.46571    40662.22772   48.1338  19.09783  52560.60768    51.43027       44.39448   54.30423  82.71886  100.5    0.03938  -21.70819  0.99871 
   -98.0831  0.07722  0.71863     14.26814  1.64449   0.4259  42.74776  0.07437     0.41041  4144.33482   7238.22221  2.04628         3319.21825     17.34665  0.00012   52464.7169   4.37976  3.30097    22939.24875  48.41128  19.10724  52557.95977    51.48875       44.40929   54.30423  95.03241   98.5    0.03857  -21.41073  0.99088 
  -99.23692  0.09149  1.09334      13.7099  1.36458  1.28774  27.12754  0.09405     0.02364  3445.89547     7384.733  4.17485         3247.18484     17.55948   0.0002  52463.56308   1.92151  2.48184   576144.02598  46.56581  19.12064      52562.8    51.49893       44.44391   54.30423   89.2141  104.5     0.0379  -21.53968  0.97812 
  -92.87281  0.04087   1.3194      14.0829  1.77802  0.58453  35.79048  0.04862     0.25847  3214.29276   7090.73255  1.36262         4174.51608     18.38962  0.00136  52469.92719    2.2058  1.46273    196205.8406  46.98532  19.16589  52568.55142    51.42837       44.40599   48.48592  83.39579   95.5    0.04604  -21.69289  0.98724 
   -98.8603   0.0027  1.63798     13.84922  1.85457  1.53561   79.1406  0.03007     0.02261  3470.76111   7209.45953  3.77256          3350.4916     17.30212  0.00011   52463.9397    5.6869  0.21345   925214.31618  46.14223  19.15272  52571.19933    51.52869       44.49354   50.42536   89.2141  100.5    0.04254  -21.58988  0.99727 
  -83.13171   0.0134  0.85412     13.98485   1.7317   0.9951  72.07427  0.05423     0.06292  5739.53545   9626.81183  0.75187         3843.18675     19.17533  0.00832  52479.66829  14.16318  0.96544   125784.40316  47.54465   19.1347  52571.19933    51.57471       44.56344    52.3648   73.6986   67.0    0.05184  -21.81515  0.99641 
  -92.54233  0.01014  1.66179     13.72126  1.38017  0.84503  26.22026  0.07046     0.21021   3545.3286    6416.4719  3.10543         3383.20619     19.19622  0.00873  52470.25767   1.96597  0.26589  1277543.60391  45.86125  19.13538  52568.55142    51.55149       44.54851   42.66761  83.39579  100.0    0.04758  -21.68957  0.99451 
  -81.56485  0.13933  0.96184     13.97062  1.73312  1.47692  35.37325  0.06758     0.07552  3860.40269   7453.56295  2.90527         3364.87179     19.79515  0.03466  52481.23515   3.14461  4.92869    170455.5197  47.30986  19.15539   52584.4389     51.4935       44.53182   46.54649  65.94085   97.0    0.04471  -21.71243  0.97727 
  -87.31299  0.00116  2.18707     13.73886  1.70833  1.22213  17.97096  0.10114     0.02599   3717.8767   5674.28603  3.86786         3426.38585      17.8148  0.00036  52475.48701    1.4818  0.02083  2525825.78816  45.41929  19.15274  52557.95977    51.45983       44.39947   54.30423  93.66425  100.0    0.04967  -21.73254  0.99945 
  -94.31695  0.00448  1.42732     13.98149  2.09035  1.04723  55.81078  0.03155     0.04551  3066.43138   6031.51607  1.30972         4306.39618     18.71414  0.00288  52468.48305   3.13049  0.24979   430621.10445  46.64593  19.12363  52555.31185    51.48717        44.4375   40.72817  92.41604   97.0    0.04558   -21.6569  0.99798 
  -86.10093  0.07572  0.93207     13.95799   1.6646  1.23095  46.85106  0.05653     0.09968  3708.26412   7974.72591  4.02169         3375.04892     19.38812  0.01358  52476.69907   3.84315  3.54775   162945.02214  47.33921  19.14198  52550.01603    51.47929          44.41    52.3648  93.09297   99.0    0.03332  -21.75975  0.98353 
  -84.96622  0.18697  0.79924     14.21891  1.42838  0.41755   32.1317  0.06414     0.03107  3801.85689   7734.82479  1.66056         3686.48454     16.33587    1e-05  52477.83378   2.77046  6.00782    30916.65919  48.12815  19.11441  52555.31185     51.5639       44.51143    52.3648   89.2141   94.5    0.04501  -21.71023  0.97452 
   -62.4836   0.0025   1.3368     13.81991  1.41884  1.06718  53.13945  0.04547     0.33345  4974.63275   8853.61055  1.91684         3532.67664     17.58905  0.00022   52500.3164   7.84452  0.13263   539577.55155  46.43659  19.09004  52563.25559     51.5686       44.55173   46.54649  85.33522   72.0    0.06412  -21.70578  0.99831 
  -97.86598  0.00959  1.68704     13.93672  1.74529  0.79198  52.23927  0.04831     0.02651   3694.8529   6750.88155  3.73927         3331.04064     17.65409  0.00025  52464.93402   4.25421  0.50072   617306.01652  46.26596  19.17119  52568.55142    51.45013        44.4246   48.48592  85.33522  102.0    0.04182  -21.63802  0.99257 
  -93.61929  0.00152  1.05973     13.74447  1.49001    1.488  67.80583  0.04311     0.18242  3606.09521    7685.8726  4.71989         3279.49252     20.20178  0.08841  52469.18071   5.25979  0.10338   504022.88914  46.68919  19.15874  52560.60768    51.50112       44.47418   44.60705  91.15353  101.0    0.03844  -21.72351  0.99924 
  -89.68626  0.00806  0.87526     14.03006  1.71781   0.9231  49.42224  0.05387     0.45602  3262.84793   8462.00336  4.74591         3291.97001     16.99323    5e-05  52473.11374   3.13865  0.39841   106400.61329   47.5926  19.16559  52568.55142    51.42632       44.39822    52.3648  81.45635  100.0    0.03156  -21.71073  0.99843 
  -92.44499  0.06694  1.28784     13.98019  1.86148  1.08875  34.88584  0.06012      0.0148  3311.59818   8062.36452  2.99564          3547.8488     19.41725  0.01452  52470.35501   2.28219  2.33517   314054.28035  46.82198  19.04436  52547.36811    51.47473       44.42473   48.48592  91.15353   98.0    0.04392  -21.70623  0.98207 
  -68.89017  0.01539  1.35534     13.79718  1.34333  0.94347  34.23957  0.06096     0.44527  4647.21172   9403.18924  2.20611         3608.31414     18.42238  0.00147  52493.90983   4.41103  0.52699   583103.75945  46.36719    19.137      52562.8    51.53067       44.48388   50.42536  91.15353   73.0    0.06063  -21.77564  0.99256 
  -82.94488  0.27616  2.94611     13.79784  1.94792   1.4217  20.56453   0.0424     0.02697  3649.25247   5971.92427  3.00764         3351.17939      17.6663  0.00026  52479.85512   1.63363  5.67914  3982940.47986  45.01971  19.09789  52557.95977    51.64214       44.63186   46.54649  81.45635  117.5    0.06864  -21.71043  0.81622 
  -88.43655  0.17579  1.50112     13.74699  1.46256  1.20714  27.06743  0.07346     0.13486   4107.2657   5661.39656  1.72888         3571.41578     18.47861  0.00167  52474.36345   2.72383  4.75817   981267.63732  46.08934  19.06751  52550.01603    51.48204       44.43162   44.60705  95.03241   99.0    0.04851  -21.72127  0.93171 
  -83.74354  0.05196  0.78876     14.11072  1.94663  1.11118  53.27943  0.04133     0.02286  3123.55203   9034.92361  2.99582         3490.95497     18.38197  0.00134  52479.05646   3.10087   2.7684    67537.99523  47.93469   19.1331  52560.60768    51.46021       44.41312   54.30423  85.33522   94.0    0.04375    -21.661   0.9932 
  -88.78457   0.0087  0.93976     13.86381  1.64647  1.35646  86.76496  0.02544     0.01257  3158.76717   8193.96022  2.69674         3582.22462     19.82475  0.03711  52474.01543   5.16424  0.75455   252808.45739  47.13657  19.17424      52572.7    51.45655       44.45327   38.78874  83.39579   95.5     0.0383  -21.75685  0.99627 
  -73.91613   0.0405  1.75967     13.84892  1.66202  1.30717   28.4501  0.06347     0.10927  3464.75764   7726.77068  3.59919         3521.32497     16.52153    2e-05  52488.88387   2.03731  1.15217   958251.89634  46.01714  19.13355  52568.55142    51.48663       44.43195   58.18311  81.45635   91.5     0.0529  -21.68938  0.98027 
  -89.89017  0.24316  0.72626     13.88211  1.44631  1.20516  22.45931  0.10869     0.02202  3778.51833   7903.10461  2.58552         3464.42419     17.36629  0.00013  52472.90983   1.91279  5.46125   121908.83179  47.62089  19.18306      52576.8    51.39945       44.37418   56.24367  79.51691   98.0    0.04195  -21.73823  0.98154 
  -95.12315   0.0072  1.54934     13.88817  1.88553  1.13809  37.06259  0.06078     0.03424  3793.47747   6645.11935  1.65535         3690.37455     18.37897  0.00133  52467.67685   3.18154  0.26668    703393.3889  46.31678  19.07255  52555.31185    51.48602       44.44798   50.42536  87.27466   95.0    0.04395  -21.66199  0.99702 
  -85.60036  0.00149  1.82938     14.18145  2.13055  0.57034  24.38673  0.11343     0.01847  5348.21934   9638.64786   1.3437         3595.00478     19.90065   0.0442  52477.19964   4.16101  0.03639   287085.35569  46.61472  19.15804  52568.55142    51.61642       44.59525   54.30423  75.63804   71.0    0.05523  -21.87479  0.99953 
  -97.01453  0.00223  1.46403     13.76814   1.6058   1.0446  58.54489  0.02798     0.32425  3107.42049   6231.72875  1.69406         3932.69914     17.62186  0.00023  52465.78547   3.37222  0.13041   929682.67739   46.1751  19.14782  52555.31185    51.48495        44.4099    52.3648  96.97184  100.5    0.04756  -21.66031  0.99834 
  -67.68681  0.09209   1.2071     13.99776  1.57993  0.92826  28.24619   0.1031     0.04157   5422.5244   9207.53181  2.62474         3476.52861     16.19332    1e-05  52495.11319   4.95439  2.60114   215983.10876  46.96958  19.10321      52562.8    51.48901       44.47689   42.66761   89.2141   74.5    0.05401    -21.789  0.97776 
  -98.76222  0.00185  1.98611     13.79695    1.872  1.52386  28.75107  0.07469     0.26169  3550.18882   6625.17932  4.54276         3289.71793      16.8044    4e-05  52464.03778   2.16164  0.05317  1746738.58953  45.70292  19.12806  52552.66394    51.51631       44.45705   46.54649  95.03241  103.0    0.04597  -21.68719    0.999 
  -79.44944  0.08685  1.52181      13.9455  1.66041  1.27266  75.29156  0.03096     0.03437  4201.16366   6316.76831  4.81288         3357.85613     17.44718  0.00016  52483.35056   7.92707  6.53885   458928.07293   46.4626  19.12315  52560.60768    51.45324       44.41313   48.48592  85.33522  100.0    0.04701  -21.78505  0.92171 
  -98.04585  0.06531  0.91769     13.85435  1.58137  1.45602  54.08755  0.05775     0.27887  3661.95569   7025.09651  4.04092         3303.71601     17.03183    6e-05  52464.75415   4.32664  3.53221   241847.28486  47.15895  19.17303  52552.66394     51.4446       44.37336   48.48592  98.91128  108.5    0.03443  -21.44602  0.98264 
  -68.23151   0.0026  1.13138     13.80504  1.44699  1.40566   14.9578  0.17863     0.06703  4826.05888   9743.17089  2.99774          3301.0771     17.78641  0.00034  52494.56849   2.07817  0.03886   422104.17445  46.69667  19.13519  52571.19933     51.4279       44.44688   42.66761  79.51691   73.5    0.05242  -21.75998  0.99966 
