 texplosion  fnickel    Pspin  log(Bfield)      Mns  thetaPB   mejecta    kappa  kappagamma      vejecta  temperature    alpha  cutoff_wavelength  log(nhhost)      A_V         MJD0   kenergy  mnickel           TSD   log(L0)  Peak_mag     Peak_MJD  log(E_rad)  log(Peak_lum)  Rise_Time    E_fold  tau_1  delta_m15     r_peak     frac 
  -11.29547  0.00887  1.10632     14.29994  1.83534  1.20199     5.027  0.22435     0.05196  10064.31161   9366.24279  1.65941          3171.0375     19.38404  0.01345  59245.26697   3.03742  0.04458   52410.05225  47.72539  17.30563  59280.53944    51.28237       44.68633   14.31872  35.26129   32.0    0.23965  -21.50531  0.99978 
  -10.89674    0.004  1.39906     14.26513   1.6229  0.79285   5.05387  0.15684     0.03339    9856.6975    9470.0381  1.34754         3018.70347     17.41086  0.00014   59245.6657   2.92897  0.02022    87001.0614  47.24794  17.26529  59280.52956    51.44672       44.93364   12.49786  27.65708   31.0    0.28139  -21.67278  0.99978 
   -8.27885  0.33468  1.86281     14.24822  1.70865  1.14014   5.53658   0.1677      0.0135   9093.86203   9621.34404  2.54317         3414.30898     16.71824    3e-05  59248.28359   2.73127  1.85296  175535.93943   46.7168  17.27687  59280.53944    51.32161        44.7607   18.73897  29.24967   32.0    0.28083   -21.8209  0.96724 
   -6.70229  0.10798  0.72974     14.21781  1.61908  1.41953   7.01833  0.12619      0.0244  10162.02478   9213.61133  3.27303         2228.18622     19.33675  0.01206  59249.86015   4.32336  0.75782   29362.35064  48.28399  17.32247  59280.53944    51.35674       44.77554   13.38498   34.5651   33.5    0.23357  -21.90786  0.99864 
   -5.66163  0.00335  0.76853     14.34827  1.52809   0.8792   5.42412  0.21032     0.14111  11041.87262   9179.82873  4.93909         2429.59957     16.61661    2e-05  59250.90081   3.94495  0.01816   16855.48466  48.45493   17.2471   59279.0056    51.15617       44.57457   16.06198  32.12395   34.0    0.24321  -21.90811  0.99996 
   -5.13875  0.00446   1.2002     14.69413  2.10972  0.59039   6.88473  0.23659     0.18903  16502.64338   9318.64938  4.86677         2238.27918      18.4382  0.00152  59251.42369  11.18461   0.0307   11541.82376  48.37229  17.17915  59285.21623    51.33041       44.73242   16.06198  34.60366   26.5    0.24656  -22.01589  0.99988 
  -17.65382  0.01598     1.88     13.95877  1.68615  1.00469   3.76096  0.27743     0.01756  11297.60871   8885.00877  0.33282         2422.56728     19.37251   0.0131  59238.90862   2.86351  0.06012  669087.32164  46.12194  17.32854  59282.52937    51.23872       44.66769   13.38498  33.54972   29.0     0.3217  -21.81533  0.99883 
  -18.78398  0.40753  1.74178     14.08678  1.77232  0.84803   4.44331  0.26651     0.01369  10477.69426   9566.35326  0.53356         2348.83649     16.67976    3e-05  59237.77847   2.90981  1.81079  334795.19705  46.51062  17.22368  59280.52956    51.31446       44.79639   13.38498  26.76996   28.5    0.28625   -21.7043  0.97276 
   -5.16222  0.12001  0.76256     14.24529  1.48204  0.99592   6.56247  0.11585     0.02063   9315.39137   8831.20447  3.48414         2406.13679     19.37929  0.01331  59251.40022   3.39701  0.78754   25861.64537   48.2625   17.2538  59280.53944    51.11501       44.51507   21.41597  32.12395   34.0    0.28456  -21.90557  0.99807 
  -12.44487  0.06169  0.70812     14.44348   1.8119  0.79086   8.87542  0.14423     0.05102  12150.07015   8850.76004  1.36346         2485.74076     16.93754    5e-05  59244.11758   7.81581  0.54749   10944.72767  48.78756  17.34253   59279.0056    51.17534       44.58794   13.38498  34.80095   30.5    0.26449  -21.39891  0.99935 
   -9.37584   0.3433  1.42423     14.27859   1.6967  0.97384    5.4936  0.24354     0.03415  13727.70778   8743.92141  3.20816          2307.2717      17.9935  0.00055   59247.1866   6.17561  1.88597   88592.83559  47.24389  17.32618  59280.53944    51.40373       44.85886   13.38498  31.92667   28.5    0.28421  -21.83679  0.98071 
   -4.99108  0.00322  0.83966     14.26529  1.46598  0.84578     4.487  0.18433     0.06022  10095.23007   9782.11341  4.89817         2093.20462     16.06763    1e-05  59251.57137   2.72782  0.01446   28285.42056  48.13521  17.27515  59282.11092    51.27442       44.70848   18.73897  29.44696   32.5    0.23928  -21.80289  0.99995 
   -7.29123  0.02209  0.74015     14.78351  1.88522  0.38966  11.54943  0.11671     0.05618  13024.11581   9619.11255  4.01393          2172.9113     16.66785    3e-05  59249.27121   11.6865  0.25513    2598.96758  49.39077   17.2315  59280.53944    51.20774       44.64756   10.70798  33.51804   29.0    0.24664  -21.88467  0.99973 
   -6.41303  0.00841  1.10626     14.52405  1.79752  0.61797  22.93244   0.0434     0.02843  11274.77875   9483.60959  3.62163         2323.72931     16.72028    3e-05  59250.14941  17.38976  0.19287   18285.58498   48.1737  17.24642  59282.11092    51.32147       44.76029   16.06198  31.92667   31.0    0.27719   -21.8397  0.99907 
   -6.24191  0.01339  1.31819     14.19745   1.5656  1.25004  10.75147  0.08238      0.0271  10718.45771   9341.46098  3.80471         2487.52075     18.32254  0.00117  59250.32053   7.36817  0.14397  101753.75798  47.21602  17.26896  59282.11092    51.29813       44.74372   13.38498  31.92667   32.5    0.27918  -21.85297  0.99858 
  -12.79615  0.26288  0.88386     14.26353  1.71858   0.9255   5.21851  0.22145     0.02159  10403.42441   9278.61488  1.18235         2300.47225     16.84228    4e-05   59243.7663    3.3692  1.37182    37040.6085  48.04257  17.23078  59280.53944    51.37605       44.86956   10.70798  29.21111   29.0    0.27564  -21.51329  0.99543 
  -11.42154  0.34007  2.57639     14.09571  1.93747  1.15425   2.85197  0.28965     0.02015   9931.47187   9707.49802   3.5483         2365.72662     17.13466    8e-05  59245.14091   1.67803  0.96988  768531.30382  45.84839  17.29239  59282.53927    51.23774       44.62656   18.73897  34.80095   30.0    0.32264  -21.82352  0.97196 
  -15.10316  0.11977  0.86223     14.26299  1.34987  0.60002   5.56931  0.16127     0.01694   8176.16176     9359.586  0.94339         3580.24714     18.51448  0.00182  59241.45929   2.22089  0.66701   27756.64196  48.08452  17.29219   59279.0056    51.20304       44.64304   13.38498  30.84104   32.5    0.24851  -21.34839   0.9967 
   -8.08139  0.01307  0.76543     14.31798   1.9771  1.46804    4.5963  0.19085     0.07232  10356.86548   8690.81936  2.57503         2052.83346     18.11584  0.00073  59248.48106   2.94098  0.06009   24871.56525  48.40136  17.20798  59282.53927    51.45251       44.88457   20.53498  27.65095   32.5    0.24909   -21.6905  0.99992 
   -6.40274  0.00724  1.20472     14.39346  1.88019  1.08251   6.51624  0.18074     0.10605  12479.92613   9421.24455  3.97099         2509.99789     16.31383    1e-05   59250.1597   6.05408   0.0472    41388.2088   47.7644  17.25818  59282.11092    51.28291       44.69334   15.18099  33.00494   30.5    0.28058  -21.89229  0.99975 
  -14.79733  0.14352  0.92237     14.18974  1.49884   0.7723   5.59425  0.14843     0.02325   9759.56556   5283.96851   0.9337           2419.048     18.09991   0.0007  59241.76511   3.17856  0.80288   49419.76057  47.82088  17.25974  59282.53927    51.30239       44.70655   16.13235  34.53329   36.0    0.26808  -21.52728  0.99596 
   -5.50665  0.00176  0.85093     14.37934  1.58384   0.8604  13.46387  0.08307     0.07776   11764.9418   8240.27146  3.42028         2657.76952      16.9917    5e-05  59251.05579  11.11672  0.02371   18562.15675  48.34014  17.30561  59282.11092    51.26587       44.69288   16.06198  32.12395   33.0    0.25618  -21.84534  0.99994 
  -10.65451  0.44084  0.76311     14.23575  1.65839  1.21134   6.66931  0.19369     0.02045  12218.32326   9403.74575  2.40123         2007.43266     18.53848  0.00192  59245.90793   5.93925  2.94009   30281.73473  48.24218  17.26692  59280.53944    51.21596       44.64289   18.73897  30.75974   27.0    0.28648  -21.61539  0.99395 
   -8.67024  0.04911  0.94031     14.66677  1.92056  0.45997  11.76056   0.0897     0.01674  11631.53659   8300.11054  1.67785         2532.07097     16.19297    1e-05   59247.8922   9.49138  0.57756    7315.59293  48.74148  17.33206   59279.0056    51.30205       44.75551   13.38498  29.44696   30.5    0.28043  -21.70802  0.99843 
   -6.31955  0.03447  0.75468     14.24866  1.49482  1.13418   6.71774  0.18047     0.08724  13053.29777    8687.6301  4.95071         2113.12823     17.31545  0.00011  59250.24289   6.82795  0.23158   25154.28481  48.28729  17.26499  59280.53944    51.28992       44.72089   16.06198  31.92667   31.0    0.25518  -21.89404  0.99951 
   -3.64008  0.01121  0.72729     14.33453  1.41038  0.68458   6.92805  0.12048     0.06264  11049.90712   8715.68503  4.46595         2092.43124     16.03709    1e-05  59252.92237   5.04609  0.07766   14842.19245  48.52327  17.23919  59282.53927    51.24854       44.66883   13.38498  33.54972   32.0    0.29065  -21.94659  0.99981 
   -3.98478   0.0251  0.77936     14.13213  1.21829  1.33409   4.54658   0.1924     0.08762    9146.2222   7375.72152  4.44489         2969.37554     17.78273  0.00034  59252.57766    2.2688  0.11414   37391.66101  47.99835  17.26762  59282.11092     51.2209       44.64398   16.06198  30.87272   36.5     0.2611  -21.81011  0.99961 
   -6.29952  0.00225  1.15558     14.36937  1.53273   0.7631   7.69125  0.19497     0.10614  14337.28407   9365.84637  3.27437         2690.32705     18.22631  0.00094  59250.26292     9.431  0.01734   34685.49857  47.78856  17.28904  59282.11092    51.30859       44.74299   12.49786  32.81379   29.5    0.25211  -21.92845  0.99988 
   -14.5669  0.26909  1.94007     14.20038   1.7514  0.80025   4.67122  0.28023     0.01753   11292.0247   8085.05293  1.09097         3261.48269     17.63561  0.00024  59241.99554   3.55304  1.25697  243267.54592  46.55051  17.27618  59280.52956    51.32937        44.7899   13.38498  31.92667   31.0    0.31592  -21.76704   0.9761 
    -7.1401   0.0011  0.87291     14.32588  1.57442  0.88156   7.49181  0.13277     0.05507  10238.10077   8983.79106  3.51139         2478.42695     17.76825  0.00033  59249.42234   4.68438  0.00824   24837.49873  48.18892  17.22479  59282.53927    51.44551       44.88021   17.95019  30.23574   34.5    0.22539  -21.87026  0.99997 
    -3.0924  0.00217  0.90691     14.45429  1.75457   0.9288   6.01842  0.21238     0.23573  13443.33635   9042.60451  4.37152         2714.03389     18.31136  0.00114  59253.47004    6.4882  0.01308   16539.60796  48.37936  17.29193   59279.0056    51.22323       44.66693   13.38498  30.84104   31.0    0.30583  -22.10353  0.99997 
  -14.90439  0.15583  1.57321     14.30744  1.67399  0.61803   5.34738   0.2342     0.02327  11619.40473   8691.59043  1.33813         2291.98501     17.76932  0.00033  59241.65805   4.30662  0.83331    93379.4079  47.12878   17.3095  59282.53927    51.46788       44.90755   13.38498  32.12395   29.5    0.29722  -21.66189  0.98882 
  -11.42047  0.08294  1.81209     14.23334  1.84415  0.96546   4.02724  0.28323     0.03777  12355.75235   9263.69907  1.16976         2934.34761     19.60072  0.02215  59245.14197   3.66753  0.33401  191996.78068  46.73499  17.21519  59282.52937    51.31369       44.75013   18.73897  29.44696   28.0    0.30306  -21.85826  0.99482 
   -3.99223  0.00612  0.70491     14.26352  1.44706  0.97218   6.44339  0.14808     0.08977   10883.0584   8963.66475  4.98713         2221.35566     17.48466  0.00017  59252.57021   4.55243  0.03943   19839.63566  48.43553  17.29091  59280.53944     51.2042       44.62778   16.06198  30.87272   33.0    0.25081   -21.8056  0.99993 
    -4.8138  0.24495  0.79866     14.56349   1.6381  0.70376  10.51209  0.15115     0.01673  13672.28566   9155.98358  2.54841         3593.91019     18.36739  0.00129  59251.74865  11.72191  2.57494    7242.53132  48.81857  17.23212  59282.11092    51.38371       44.85901   11.64172  28.51322   30.5    0.28255  -21.96428  0.99637 
  -13.23015   0.0523  0.90662     14.26779  1.62914   0.8941   5.67109  0.22359     0.05568  12171.21475   9249.37142   0.9775          2437.2327     17.12179    7e-05  59243.33229   5.01143   0.2966   36228.98366  48.00689  17.29269   59279.0056    51.05712       44.44502   16.06198  34.74265   28.5    0.26169  -21.52994  0.99887 
   -7.50409  0.00261  0.85098     14.17474  1.33451  1.20296  13.41915  0.10538     0.06806  12819.10071    9011.8598  1.72067         3480.14285     16.35251    1e-05  59249.05835  13.15428  0.03505    40131.5666  47.93085  17.32705  59278.53505    51.19312       44.61291   16.06198  30.87272   31.0    0.27933  -21.86469  0.99986 
   -4.63382  0.00389  0.70913     14.21629  1.37773  1.32516   6.43272  0.14812     0.10224  10208.20091   9582.16618  2.10995         3515.93113      16.9739    5e-05  59251.92863   3.99871  0.02505   23760.74619   48.3307  17.28357  59280.52956    51.20867       44.64155   13.38498  32.12395   31.0    0.28825  -22.02548  0.99995 
   -5.42978  0.02346  0.74558     14.30728  1.56113  0.99086   7.98556  0.14963      0.0834  13244.83615   9322.05434  3.80558         2134.83705     16.23189    1e-05  59251.13266   8.35653  0.18731   19574.11934  48.42561  17.31549   59279.0056    51.29555        44.7621   10.70798  31.92667   28.5    0.29717  -21.88298  0.99965 
   -9.79242  0.22751   0.8985     14.35473  1.71927  0.98748  14.22955  0.15625     0.01663  17422.51949   9306.52963  2.18074         2063.47404     16.38752    1e-05  59246.77002   25.7656  3.23735   25161.03947  48.19643  17.28217  59282.53927     51.5328       44.97538    15.4534  31.95931   24.5     0.3374  -21.75718  0.99097 
   -4.50755  0.00227  0.96646     14.73526  2.01134  0.47295   5.57665  0.13027     0.10861   8707.03766   8574.95634  4.56373         2505.01505     16.95705    5e-05   59252.0549   2.52198  0.01267    5904.06218  48.83081  17.24135   59279.0056    51.24862       44.69376   10.70798  32.12395   35.5    0.26241  -21.80985  0.99997 
  -21.50925  0.00165  1.94952     14.04222   1.8641  0.93342   6.10818  0.22275      0.0102  10727.93076   8343.77309  0.94956         2063.24371     18.76725  0.00325  59235.05319   4.19344  0.01009  541615.52059  46.22577  17.29521  59282.11092    51.46994       44.92765   13.38498  29.44696   31.5    0.28511  -21.68038  0.99982 
   -6.15247  0.00559  0.70556     14.23686  1.50779  1.14721   7.16304   0.1396     0.04496  10290.10108   8735.49506  3.46155          2349.4412     18.60044  0.00221  59250.40997   4.52443  0.04005   23415.98061   48.3806  17.26012  59282.53927    51.30536       44.75816   13.38498  29.44696   35.5    0.20583  -21.88392  0.99993 
   -13.9383   0.1244  0.79117     14.08775  1.59725  1.28333   4.58589  0.17554     0.02616   9320.29396   9796.41228  1.19612         2293.88232      19.8846  0.04259  59242.62414   2.37635   0.5705   61978.23821  47.88343  17.26365  59282.11092    51.20978       44.64557   13.38498  30.87272   29.5    0.26134  -21.53588  0.99823 
   -7.56188  0.41385  1.67635     14.20109  1.53495  0.95966   3.90738  0.24778      0.0256  10160.99488   9304.18605  3.70668         2829.62208     17.04066    6e-05  59249.00056    2.4065  1.61708  158654.24032  46.80576   17.2305  59282.11092    51.21519       44.64024   16.06198  32.12395   32.0    0.26028  -21.89967   0.9726 
   -7.62839  0.01085  0.71791     14.32909  1.64271  1.06264  10.75256  0.15991     0.11722  14977.36579    9969.2849  1.62504          2742.0206     17.74038  0.00031  59248.93405  14.38831  0.11671   17271.96119  48.53492  17.30692  59278.53505    51.34208       44.81649   10.70798  29.44696   27.0    0.26866   -21.8632  0.99984 
   -5.31605  0.01733  0.72049     14.22197  1.35245  1.11414   8.08425  0.14337       0.065  11127.91936   9165.32488  2.96927         2912.48831     18.23695  0.00096   59251.2464   5.97166  0.14008   23455.32017  48.31447  17.24995   59279.0056    51.33956       44.82463   13.38498  26.76996   32.5    0.27195  -21.85882   0.9997 
   -6.32255  0.13833   0.9956     14.35154  1.89065   1.0302   4.91053  0.18045     0.01777   9124.39466   8854.13879  3.55769         2375.12558      17.8668  0.00041  59250.23989   2.43873  0.67926    34475.6614  48.01177  17.27378  59282.11092    51.15224       44.57088   13.38498  33.45806   34.5    0.21656  -21.85321  0.99765 
   -5.14366  0.00639  0.72145     14.37032  1.49024  0.77137   5.65881  0.23155     0.13929  12943.35328   8205.19941  3.84643         2373.63568     19.03564  0.00603  59251.41878   5.65517  0.03616   13087.33371  48.60883  17.31518  59282.11092    51.20747       44.63823   13.38498  32.12395   34.5    0.21417  -21.98737  0.99994 
   -12.0152   0.1856  0.73571     14.24443  1.71992  1.05949   8.50393  0.16237     0.02642  12849.33448   8469.19119  1.56603         2376.51993       20.547  0.19576  59244.54724   8.37545  1.57834   28045.96359  48.32307  17.27523  59280.53944    51.30735       44.75087   12.50399  32.80765   30.5    0.25984  -21.71522    0.997 
   -8.06345  0.05165  0.71007     14.18523  1.41599  1.11436   7.94846  0.15337     0.05589  12437.64637   9732.71052  3.17319         2139.99796     18.01287  0.00057  59248.49899   7.33477  0.41055   28250.10348  48.26629   17.3036  59280.52956    51.22273       44.64822   16.06198  30.87272   28.5    0.25072  -21.73078   0.9991 
   -4.93187  0.00702  0.74772     14.33311  1.62788   1.1308   8.86799  0.14694     0.11032  12672.35829   9320.84705   3.8132          2580.9068     17.63035  0.00024  59251.63057   8.49507  0.06227   18226.18637  48.47229  17.29113  59282.11092    51.33111       44.78868   13.38498  29.44696   30.0    0.22299   -21.8751  0.99991 
     -7.872  0.03299  1.02714     14.17192  1.49793  1.18364   8.03326  0.11395     0.02206   9724.68126   8978.13474   3.6344         2438.07075     18.03775  0.00061  59248.69044   4.53179  0.26501   66484.26902  47.59836  17.34031  59282.11092    51.21819       44.62629   16.06198  33.54972   34.0    0.24705  -21.74744  0.99843 
    -4.5215  0.00279  0.71541     14.22877  1.50386  1.34365   8.76404  0.16258     0.14558  14866.50707   9427.89972  4.08497         2145.70839     17.98257  0.00053  59252.04094  11.55446  0.02447   24922.46755  48.34035  17.25161  59282.53927    51.34639       44.76857   13.38498  32.12395   28.0    0.27102  -21.90614  0.99996 
   -6.11021  0.02536  0.73972     14.11182   1.3022  1.25941   8.73584   0.1174     0.04423   12583.9067   8236.46699  3.87813         2157.12877      17.9178  0.00046  59250.45224   8.25207  0.22155    39536.2624  48.04839  17.24358   59279.0056    51.18879       44.62445   16.06198  29.44696   32.5    0.25597  -21.97702  0.99934 
   -6.03695  0.00919  0.95903      14.5002  1.84542  0.73155   5.02539  0.18922     0.12583  10575.53215   9279.53162   3.4915         2535.99684     18.21522  0.00091   59250.5255   3.35275  0.04617   15746.11132  48.37411   17.2083  59282.11092    51.21299       44.66029   13.38498  29.44696   32.5    0.25705   -21.8444  0.99987 
  -11.54567  0.23518  0.74044     14.29791  1.70787  1.06229   6.91463  0.17881      0.0187  10913.97112   8843.53232  1.36803         2705.44516     18.86575  0.00408  59245.01677   4.91317  1.62617   22051.38756  48.41889  17.21611  59282.11092    51.28511       44.74056   13.38498  29.24967   29.5    0.27204  -21.46003  0.99726 
    -4.8614  0.00902  0.75846      14.3254  1.51202  1.03391  10.50671  0.14723     0.11043  14463.18943   9961.98969  2.73303         2924.10063      17.5613   0.0002  59251.70104  13.11059  0.09477   18048.61726  48.43209  17.27752   59279.0056    51.16657       44.58824   13.38498  32.12395   28.0    0.29133  -21.94594  0.99983 
   -5.78827  0.03037  0.70062     14.36347  1.90338  1.29207   4.22331  0.16613     0.06685   7859.10219   8546.45973  1.88933         3056.63246     18.53845  0.00192  59250.77417   1.55606  0.12828   16268.74772  48.64606  17.23869  59280.52956    51.29771       44.73765   13.38498  31.92667   35.5    0.24073  -21.82438  0.99988 
   -9.15001  0.01695  1.13375      14.2877  1.72673  1.01089  10.81428  0.10157     0.02697  11581.76772   8502.02135  3.21646         2228.65053     17.48046  0.00017  59247.41243   8.65315  0.18333   54786.09827  47.65837  17.30097  59282.53927    51.29829       44.71171   15.18099  33.00494   32.0     0.2498  -21.69929  0.99892 
   -4.55072  0.00256  0.92166     14.42482  1.42849   0.6197   7.09546  0.14945     0.10148  10745.73482   9133.90692  4.44414         2826.70317     16.21552    1e-05  59252.01172   4.88742  0.01818     15929.469  48.29238  17.26955  59280.53944    51.20201        44.6219   13.38498  33.54972   34.0    0.23114  -21.86989  0.99992 
   -7.84582  0.00753  0.70841     14.36176  1.75986  1.16516   5.49205  0.23149     0.14306  11388.52216   9844.47501  2.04773         2885.50004     18.66752  0.00258  59248.71662    4.2491  0.04134   15500.50712  48.62341  17.25495   59279.0056    51.29101       44.75244   10.70798  31.92667   30.5    0.25381  -21.66917  0.99996 
   -5.58025  0.15962  0.83472     14.15787   1.4955   1.5287   4.02491  0.19464     0.04518  10203.33976   9109.21549  3.73212         2161.69199     16.74722    3e-05   59250.9822   2.49958  0.64244   46767.69079   47.9306  17.26996  59282.53927    51.39637       44.82048   19.66642  30.96066   34.0     0.2548  -21.89194  0.99789 
  -11.99394  0.15524  1.25816     14.13417  1.62638  1.20022   8.70649  0.10633     0.01282  10272.20914   9622.63075  2.07438         2330.54292     17.99199  0.00055  59244.56851   5.48022  1.35155  128872.49264  47.17044   17.2888  59278.53505    51.30077       44.76951   13.38498  29.24967   29.5    0.27955  -21.64858  0.98829 
   -5.84756  0.00789  0.75065     14.30451  1.47799  0.82187   8.65357  0.10675     0.04868   10452.7362   8668.36484  4.69272         2173.10187     17.24129   0.0001  59250.71488   5.64004  0.06827   19025.49563   48.4083  17.20212  59280.52956    51.32007       44.78433   10.70798  29.44696   34.0    0.26641  -21.83787  0.99984 
   -5.66187  0.02423  0.75313     14.27468  1.64545  1.23489   7.03133  0.19642     0.17907  14712.40086    8750.1422  4.26941         2073.57576     20.19141  0.08633  59250.90058   9.07887  0.17037   24461.80697   48.3429   17.3492  59282.11092    51.36671       44.77844     17.946  32.68107   28.5    0.22404   -22.0798   0.9997 
   -10.0978  0.10312  0.82363      14.3121   1.6612  1.03254  12.01549  0.12124     0.01634  12937.14424   9829.38783  0.91664         3746.11331     16.99353    5e-05  59246.46464  11.99625  1.23902   24859.87055   48.2623  17.30527  59280.53944    51.26215       44.66065   21.41597  33.43674   26.5    0.29199  -21.66392  0.99707 
   -3.97695  0.01811  0.70695     14.26859  1.60269  1.25656   6.10598  0.19319     0.10942  12956.32253   8953.24685  4.40109         2275.90099        20.22   0.0922  59252.58549   6.11429  0.11057   21590.79424  48.44064  17.25498  59280.53944    51.32798       44.78352   13.38498  29.44696   30.5    0.24348  -21.93463  0.99984 
   -5.45569  0.01064  1.06085     14.38049  1.69074  0.88023   5.38864  0.23176     0.12851  13814.95549   8511.04963  2.79478         2534.64574     19.12736  0.00745  59251.10675   6.13486  0.05731   30634.74522   47.9594  17.30742   59279.0056    51.15056       44.56705   13.38498  33.45806   30.0    0.29232  -21.93837  0.99973 
  -15.49341  0.10168  1.47445     14.30896  1.85541   0.5994    5.1523  0.17805     0.01509  10229.41921   8179.56246   0.8371         2473.27269     19.94811   0.0493  59241.06904   3.21611  0.52389   90279.67399  47.24443  17.33782  59282.11092     51.3235       44.76109   15.17485  32.81379   31.5    0.30206  -21.75095  0.99467 
  -17.21249  0.10769  1.18269     14.32039  1.52226  0.53843  13.10648  0.08081     0.01086    10586.216   9650.67564  0.46755         3528.85004     17.11452    7e-05  59239.34995   8.76183  1.41148   45212.51519  47.65033  17.24022  59280.52956    51.13147       44.55532   13.38498  33.45806   29.0    0.28136  -21.58443  0.98797 
  -10.44616   0.1899  1.11524      14.1825  1.37514  0.86847   7.97384   0.1472     0.01435  10769.68997   8251.30161  1.73739          3103.6905      18.8704  0.00412  59246.11628   5.51698  1.51424   68534.26116  47.47655  17.28163  59282.52937    51.27402        44.7034   13.38498  32.12395   31.5    0.26771  -21.66491  0.98722 
   -6.66243  0.01022  1.32136     14.20804  1.56367  1.15941   4.46694  0.14786     0.03192   7549.11643   9935.78584  2.18205         3517.58507     16.32495    1e-05  59249.90001   1.51855  0.04565   97257.00198  47.23303  17.29858  59282.11092     51.2768       44.70819   13.38498  33.51804   34.5    0.26483  -21.86333  0.99955 
  -11.15844   0.0859  1.71745     14.62963  1.73005  0.32673   5.98909   0.2525     0.02358  12910.99765   8841.53542  3.25495         2415.78766     17.32425  0.00012    59245.404   5.95536  0.51444   26084.40933  47.62075  17.27074  59280.53944    51.22486       44.64975   21.41597  28.19573   28.5     0.2857  -21.78479  0.99216 
   -3.63785  0.02352  0.81502     14.22882  1.46607  1.20548   5.70441   0.1624     0.09132  10677.66382   9776.75977    3.623         2688.90503     19.60796  0.02253  59252.92459   3.87963  0.13417   31525.16741  48.11401  17.24178  59280.52956    51.25738       44.71401   13.38498  29.44696   31.0     0.3075  -21.99199  0.99962 
  -10.57777  0.37523   2.5284     14.18447  1.86641  1.03989   5.10587  0.16248     0.01565  10452.62132   9143.90781  4.74526         2372.11565     17.13968    8e-05  59245.98467   3.32772  1.91587  473774.90743  46.05859  17.24548  59282.53927    51.22329       44.61902   18.73897  33.45806   31.0    0.31252  -21.82334  0.94534 
   -4.07532  0.00468  1.41112     14.37514   1.8664  1.11476   3.33296  0.23178     0.05313   8414.18586   9868.60156  4.24391         2975.13973     19.11465  0.00723  59252.48712   1.40761  0.01559   61329.35298  47.45305  17.29245  59282.11092     51.4773       44.93131   13.38498  29.44696   34.0    0.25409  -21.90786  0.99987 
  -10.55627  0.01776   1.2283     14.23566  1.77592  1.53271   5.44705  0.22965     0.07274  12096.29425   8913.62258  1.53833         2895.16797     17.11998    7e-05  59246.00617   4.75437  0.09673   84045.99911  47.41514  17.26889  59280.52956    51.22665       44.66907   13.38498  32.12395   31.0    0.26445  -21.65851  0.99934 
  -12.39848  0.01736  0.93761     14.21542  1.55049  1.07592  14.13158  0.10915     0.04296  14042.00605   9683.78911  0.86741         2638.93987     18.07556  0.00066  59244.16396  16.62173  0.24532    46934.3817  47.84378  17.25359  59285.21623     51.3734       44.79509   14.31242  33.67622   26.5    0.30698  -21.56612  0.99893 
   -8.65903  0.04841  1.01422     14.21925  1.47755   1.0072  13.10556  0.09285     0.02118  12439.38249   9168.63975  4.01946          2189.0326     17.04512    6e-05  59247.90341  12.09708   0.6345     51417.718  47.71501  17.25597  59282.52937    51.34289       44.80061   14.31872  31.19021   30.0    0.26197  -21.71407  0.99635 
   -6.22476  0.02354  1.71422     14.19652  1.66161  1.18882    8.6812  0.10231     0.01783   10052.9699   9573.45172  4.43124         2716.41912     19.94209  0.04862  59250.33768   5.23354  0.20432  183412.73786  46.75781  17.28604  59282.11092    51.27414       44.72126   13.38498  31.92667   33.5    0.26475  -21.92989  0.99671 
   -6.81171  0.00196  0.88177     14.33571  1.67938  0.98767   5.67895  0.15525     0.09243    9980.3439   9098.03772  3.61942         2360.05706     16.80172    4e-05  59249.75074   3.37432  0.01113   25837.16818  48.19104  17.25288  59280.53944    51.35351       44.83965   13.38498  26.76996   33.5    0.27177   -21.8156  0.99997 
   -8.83774  0.05844  1.13221      14.2251  1.67588  1.36148   8.00969   0.1368     0.04332  11740.49426   9229.28663  2.20802         2615.36625     18.57604  0.00209  59247.72471   6.58591  0.46811   70747.67049  47.53552  17.27834  59278.53505    51.15857       44.59557   13.38498  32.12395   31.0    0.26353  -21.73777  0.99715 
   -6.16271  0.00904   0.7805     14.34763  1.65812  1.03158   9.11995  0.17867     0.15763  15308.73748   9161.22862  2.91903          2343.8774     18.25988  0.00101  59250.39973  12.74965  0.08244   18919.51331  48.42681  17.27334  59282.11092    51.17347       44.58388   16.06198  33.43674   28.0    0.30049  -22.03961  0.99985 
    -6.6813  0.24362  1.08226     14.31061  1.67579  1.19424   8.69011   0.1202     0.01385  10707.44158   9167.32263  2.12255          3192.0146     17.04053    6e-05  59249.88115   5.94324  2.11706   43600.21617  47.78491  17.22302  59282.53927    51.26041       44.66021   21.41597  30.87272   32.0    0.23764   -21.9168  0.98967 
   -8.00014  0.00312  0.80834     14.33285  1.78339  1.13814   9.83092   0.1327     0.04816  12754.49183   8956.28758   3.3188          2234.9814     19.87725  0.04188  59248.56231   9.53998   0.0307   23364.21021  48.33635  17.32098  59280.52956    51.27761       44.71252   13.38498  32.12395   30.0    0.25122  -21.76574  0.99994 
   -6.18283  0.01346   0.9949     14.25592  1.58001  0.96363   9.28145  0.09632     0.02354  10629.80608   8831.30469  4.89239         2126.89517     19.13832  0.00764  59250.37962   6.25596  0.12492   44689.01572  47.82175  17.20972  59280.52956    51.18428       44.62675   13.38498  32.12395   34.0     0.2373  -21.89104  0.99938 
  -15.05199  0.26678  1.13889     14.22477  1.73122   0.8561   3.62251  0.26294     0.02487   9799.63447   8374.78189  0.64009         3288.51697     16.59509    2e-05  59241.51045   2.07518   0.9664   74061.48086  47.52464  17.28894  59285.21623    51.31936       44.72112   21.41597  32.12395   31.0     0.2926  -21.61264  0.99378 
   -4.74537  0.00567  0.83911     14.44173   1.6418   0.7884   7.38148  0.10722     0.05968   8366.76593   8374.68201  2.68085         3207.00757     18.55658    0.002  59251.81707   3.08238  0.04186   14037.94871  48.48923  17.20811  59282.53927    51.29922        44.7226   18.73897  30.84104   36.0    0.28007  -21.87297  0.99991 
  -14.73864  0.28751  0.73975     14.19733  1.47478  0.76006   6.83138  0.15277     0.01061   9931.71624   6367.25976  0.93317         2163.22227     16.50567    2e-05   59241.8238   4.01962  1.96411   30203.69726  48.21934  17.29163  59280.53944    51.29785       44.75722   13.38498  29.24967   33.5    0.29744  -21.46446  0.99421 
   -8.71809   0.1499  1.43895     14.17255  1.66964  1.21887   5.74985  0.17133     0.03002  11460.33278   9632.81946  2.32498         2524.26323      18.2958   0.0011  59247.84436   4.50483  0.86192  145019.77571  47.01395  17.23493  59280.53944    51.10147       44.49639   13.38498  34.80095   29.5    0.26272  -21.86507   0.9905 
   -7.04882  0.01762  1.02526     14.16227  1.34988  1.12981   6.65939  0.12502     0.03729   8590.91764   9242.92715  1.85317         3773.64932     18.42204  0.00147  59249.51362   2.93184  0.11732   62409.28562  47.58222  17.26781  59280.52956    51.22394       44.65628   16.06198  30.84104   33.0    0.26724  -21.82806   0.9992 
  -17.89726  0.46155  1.35597     13.84123  1.42936  1.35274   3.80389   0.2985     0.01811  11265.81858   9542.55245  0.20119         2093.60118     19.10628   0.0071  59238.66518   2.87992  1.75567  506989.47213  46.45449  17.27001  59282.53927    51.37099       44.78921     15.269  32.91692   27.0    0.31623  -21.78172  0.97784 
   -5.08664  0.00451  0.84636     14.21539  1.35664  1.06993   7.49194  0.09835     0.04434   7804.67418   9213.02815  2.67293         3352.25652     17.79649  0.00035  59251.47581   2.72227  0.03376   33467.18087  48.02158  17.28492  59282.11092    51.43376       44.90665   11.63543  28.51951   35.0    0.24937  -21.90813  0.99988 
  -13.29193  0.09323   1.6365     14.25488  1.74506  0.96746   8.13088  0.17481     0.02326  12650.85282   9511.10317  0.94271         3273.77297      19.2973  0.01102  59243.27051   7.76255  0.75807  134179.78458  46.95514  17.27212  59282.52937    51.25126       44.68137   21.41597  29.44696   27.0    0.28281  -21.66349  0.98978 
   -3.58642  0.00631  0.87353     14.53286  1.95545  0.77026   7.71441  0.09822     0.03046   9494.24812   6043.24533  2.89009         2709.52295     18.73066  0.00299  59252.97602   4.14812  0.04868   11909.76946  48.60163  17.28799  59280.53944     51.3308       44.78039   15.18099  30.09209   33.0    0.28624  -22.04568  0.99991 
   -6.73536  0.00201  0.78691      14.3702   1.8577  0.91213   6.06855  0.12096     0.04917   9558.29339   8281.11636  2.81144         2158.92786     19.23549  0.00955  59249.82708    3.3073  0.01218   19419.49406  48.45773  17.27996  59282.11092     51.1572       44.55869   18.73897  32.12395   35.5    0.27016  -21.89828  0.99998 
   -9.53882  0.02268  1.48871     14.29439  1.67878  0.75244   4.18511  0.20613     0.03758  10236.92953   8871.78343  2.67208          2455.5902     19.50707  0.01786  59247.02362   2.61622  0.09492    89052.3983  47.19857  17.28901  59280.53944    51.37263       44.83428   12.50399  30.32794   33.0    0.25312  -21.76921  0.99887 
  -13.69973  0.00875  0.72865     14.72778   1.5871  0.28711   8.34728  0.13521     0.03846  10402.73366   7191.53448  0.91264         3314.60013     19.58425  0.02133  59242.86272   5.38849  0.07305    2740.91653  49.30652  17.32653  59280.52956    51.22916       44.65776   13.38498  33.54972   35.0    0.26431  -21.35117  0.99986 
   -6.18749  0.09853  1.13002     14.47177  1.58028  0.66163  11.04744  0.08803     0.01164   9595.88602   9274.91748   2.3263         3839.04186      20.0381  0.06065  59250.37495   6.06818  1.08846   21339.78032  48.03222  17.23837  59282.53927    51.19993       44.63112   13.38498  32.12395   33.0    0.26038  -21.98987  0.99344 
  -14.21247  0.09391  1.19349     14.52095  1.89496  0.56433   8.72369  0.20089     0.04267  15796.14137   8892.19398  0.03154         3057.44173     16.88551    4e-05  59242.34997  12.98462  0.81925   22758.71209  48.03566  17.24214  59282.53927    51.38615       44.82001   21.41597  29.21111   26.5    0.32155  -21.67817  0.99526 
   -6.32428  0.00436  0.75173     14.24955  1.40534  0.97543   9.67065  0.13712     0.05204  12859.87388   9051.84997  4.58143         2218.71481     17.18106    8e-05  59250.23816   9.54018   0.0422   23368.14874  48.29587  17.26646  59282.53927    51.39993       44.81032   24.09296  29.44696   32.0    0.23664   -21.8557   0.9999 
  -10.11179  0.10387  2.94226     14.22268  1.98491  1.30016   4.31694  0.18061     0.01895    8896.8818   9516.98747  2.42833          3701.7694     18.08191  0.00067  59246.45065   2.03835  0.44838  572200.93125  45.87168  17.28823   59279.0056    51.33608       44.81005   10.70798  29.44696   32.0    0.30202  -21.83979  0.98356 
   -4.44041  0.00463  0.92432     14.22832  1.64362  1.22807   5.49534  0.14726     0.05905   11299.6748   8868.55385  4.10415         2031.02935     18.38131  0.00134  59252.12203   4.18556  0.02545   45563.41675  47.89439  17.28335  59282.11092    51.35385       44.77697   13.38498   34.5651   32.0    0.27259  -21.89692  0.99991 
   -5.80868  0.00336  0.75447     14.43664  1.87093  1.23802    6.6962  0.17688      0.1126  10252.43435   9020.43003  3.88289         2865.37978     18.15023  0.00079  59250.75376   4.19865  0.02248   13239.70626  48.66375  17.21832  59282.53927    51.25851       44.67586   18.73897  30.87272   34.5    0.26261  -21.81493  0.99998 
   -6.71659  0.08854  0.75986     14.14453  1.52186  1.37827   8.36833  0.11633     0.02534  11073.62119    9160.4326   2.7062         2476.68842     20.58374  0.21305  59249.84585   6.12132  0.74096   41936.58337  48.06716  17.30872  59280.53944    51.33779       44.80734   13.38498  29.24967   33.0    0.24759  -22.06955  0.99809 
  -10.10925  0.06475  1.79909     14.19228  1.73405  1.09425   5.06663  0.19066     0.03356  11647.36847    8588.0148  2.87587         2337.27912     18.74813  0.00311   59246.4532   4.10017  0.32808  214994.03078  46.66537  17.28398  59282.11092    51.28647       44.71688   12.50399  33.00494   30.5    0.27657  -21.78826  0.99451 
   -5.17854  0.01715  0.79935     14.46673  1.82623   0.9653   6.74371  0.17435     0.09651  11745.88533   9151.86422  1.99925         3351.22561     16.44181    2e-05   59251.3839   5.55006  0.11563   12629.02783  48.62356  17.30748  59280.53944    51.28519       44.72727   13.38498  31.92667   31.0     0.2787  -22.02722  0.99985 
   -10.5203  0.25072   1.5422     14.44751  1.91425  0.65255    4.0595  0.25765     0.03717  11904.90234   9253.34672  4.07247         2038.39838     17.52687  0.00019  59246.04215   3.43204   1.0178   53836.32003  47.44349  17.30044  59280.52956    51.24271        44.6913   16.06198  29.44696   28.5    0.28284  -21.74594  0.98956 
   -6.14625  0.00151  0.71544     14.31923   1.6218  1.04884   8.63298  0.13079     0.16263  11930.45845   9371.37624  2.87124         2459.34788     19.06131   0.0064  59250.41619   7.32997  0.01307   17721.29307   48.5212  17.31087  59285.21623    51.41098       44.82686   16.13235  32.05358   32.5    0.22829  -21.99461  0.99998 
   -7.18389  0.00222   0.7622     14.36689   1.7308  0.88277   5.10442  0.20008      0.1234  12510.18236   7990.95383  2.32304         2116.76464     19.05186  0.00626  59249.37855   4.76541  0.01135   17235.53851  48.50653  17.37407  59282.11092    51.36466       44.77485     17.946  32.91692   31.5      0.267  -21.97449  0.99998 
   -5.26245  0.10401  1.88699     14.92372  1.95916  0.29984   4.44802  0.24834     0.05559  10158.99232   9314.54205  4.79889         3319.91043     16.75035    3e-05  59251.29999   2.73839  0.46265     9204.3054  48.04539  17.31993  59280.53944    51.26325       44.72133   10.70798  31.92667   34.0     0.2743  -21.86817  0.99333 
   -6.44957  0.00414  1.02019     14.32366  1.50629  0.88205   9.92319  0.09629      0.0573   9535.23101   9926.80368   4.1501          2788.3366     18.45489  0.00158  59250.11287   5.38197  0.04111   32791.67984  47.91363  17.26481  59280.53944    51.17918       44.58537   13.38498  34.80095   34.0    0.23745  -21.79818  0.99979 
   -3.79434  0.02315  0.77547      14.2295  1.44711  1.29597   6.18485  0.16449     0.06704  10227.26969   9041.13744  3.80815         2813.73548     18.91884  0.00461   59252.7681   3.85901  0.14316   28082.63879  48.20178  17.26529  59282.53927    51.29111       44.74846   10.70798  31.92667   34.5    0.24952  -21.88114  0.99967 
   -5.47534  0.00314  1.01169     14.40754  1.54751  0.76356  10.77813   0.0924     0.05299    9728.0661   9106.12039  2.92368          3265.1047     16.86397    4e-05   59251.0871   6.08448  0.03384   22514.05854  48.09593  17.31566  59280.53944    51.35641       44.82062   12.50399  30.32794   34.5    0.24262  -21.84268  0.99984 
   -8.35172  0.12954  1.08729     14.37209  1.97343  1.12699   6.79842  0.14774     0.01505  10033.94946   8359.93309  2.94917         2634.29578      17.2042    9e-05  59248.21072     4.083  0.88067   39043.23512  47.89983  17.28381  59282.11092    51.31208       44.74473   16.06198  31.92667   32.5    0.25466  -21.73841  0.99654 
  -10.98763  0.33121  1.15703     14.26171  1.68048  1.08343   7.19593  0.16983     0.02237  12182.84047   9039.69156   1.3333          2622.1693     17.48045  0.00017  59245.57481   6.37105  2.38335   62591.56166  47.57107  17.23176   59279.0056    51.19201       44.61984   13.38498  32.12395   28.5    0.28257  -21.63528  0.98481 
   -7.41278  0.00204  1.01065     14.60585  1.64792  0.47848   6.05724  0.18088     0.06975  10545.22507   8646.48166  1.58012         3826.76531     19.32522  0.01175  59249.14966   4.01803  0.01233    9599.60571  48.49433  17.31264  59282.11092    51.25832       44.67616   12.50399  34.39903   32.0     0.2686   -21.8722  0.99995 
   -4.83781  0.00108  0.72056     14.22678  1.42969   1.0749   4.59666  0.20104      0.1135   10558.0178   9264.93374  3.96534          2437.0764     17.58674  0.00021  59251.72463   3.05657  0.00498   24256.94763  48.32391  17.29373  59280.52956    51.35077       44.83391   13.38498  29.21111   34.0    0.22231  -21.88407  0.99999 
  -17.64129  0.07693  1.71951     14.32519  1.71823  0.50959   8.72867  0.11124     0.01232  11056.56822    8609.4449  0.26516         2960.80665     17.36153  0.00013  59238.92115   6.36526  0.67147  105519.19501  47.00978  17.27113  59282.11092    51.37146        44.8073   17.85185  30.33408   29.5    0.31332  -21.71096  0.98955 
   -3.45455   0.0019  0.78422     14.36979  1.73495  1.04049   6.59123  0.10471      0.0531   8190.94407   9208.79622  4.89517         2439.10242      18.0811  0.00067  59253.10789   2.63792  0.01249   18046.99627  48.46285   17.3008  59280.52956    51.32092        44.7797   13.38498  31.92667   36.0     0.2651  -21.77509  0.99998 
   -5.34489  0.00858  0.73548     14.31855  1.67038  1.08747   7.81683  0.11418      0.0643  10131.44235   9288.83773  2.34698          2883.3979     19.25119  0.00991  59251.21756   4.78631  0.06707   19349.30838  48.47185  17.26166  59282.53927    51.31492       44.76142   13.38498  31.92667   31.5    0.29947  -21.93982   0.9999 
  -17.50149  0.01942  1.47981     14.35299  1.66304  0.54535   9.13764    0.097     0.01347   9267.30563   9500.37981  0.51937         3944.20773     18.15426  0.00079  59239.06095   4.68132  0.17743   66549.95383  47.32619  17.18383  59282.53927    51.28018       44.69333   14.31872  33.86721   30.0    0.26137  -21.51849  0.99786 
  -12.17957  0.13868  2.02842     14.42616  1.88683  0.55254   5.69308  0.15047     0.01087   8245.70019   9196.72871    3.872         2580.56865     16.39979    1e-05  59244.38287   2.30903  0.78951  101282.70196  46.92473  17.27612  59282.11092    51.30754       44.76165   13.38498  29.44696   34.0    0.24951  -21.65806  0.98523 
   -7.06292  0.07161   0.8333     14.30851   1.6294  0.97554   7.56608  0.13694     0.03692  11783.08114   8740.29774  3.39423         2223.87332     16.29806    1e-05  59249.49952   6.26637   0.5418   25376.78679  48.23483  17.23384  59282.11092    51.24303       44.68964   13.38498  29.44696   32.5    0.24058  -21.98262  0.99858 
   -3.82662  0.00514  0.70753      14.4016  1.32051  0.65558    9.3148  0.12086     0.10733  10418.26965   9721.88168  3.69998         3121.36717     19.75254  0.03142  59252.73583   6.03103  0.04785    9656.94653  48.70526   17.2331  59282.53927    51.47351       44.91655   19.67271  28.51322   34.5    0.22228  -21.87683  0.99991 
   -8.62582  0.46324  0.72951     14.47402  1.81444  0.74351   4.07945  0.27587      0.0245   10617.2267    6888.5195  4.87874         2030.31413     16.39469    1e-05  59247.93663   2.74316  1.88976    10106.3595  48.79693  17.25581  59282.52937    51.40241       44.81032     17.946  32.68107   33.5    0.24801  -21.56283   0.9976 
   -2.87507  0.00129  0.78612     14.48615  1.48674  0.66313   7.49765  0.16048     0.15213  11407.95257   8881.73401  3.47236         3236.76086     18.05425  0.00063  59253.68737    5.8206  0.00969     9093.4349  48.69137  17.27771  59282.52937     51.2512       44.65674   16.06198  33.54972   33.5    0.26529  -21.89821  0.99998 
   -8.09141  0.03985  0.77753     14.13206  1.36256  1.33397   7.30671  0.17858     0.06205  12988.19714   8957.87708  2.08137         2568.06224     19.43264  0.01504  59248.47103   7.35269  0.29115   41637.35804  48.00229  17.26642  59280.52956    51.23562       44.67384   16.06198  30.84104   29.5    0.27825  -21.76889  0.99909 
   -4.82568  0.00482  0.84289     14.24232  1.59383  1.35416   5.55126  0.17039     0.07346  10619.59061   9297.46506   2.3174         2923.63511     17.58265  0.00021  59251.73676   3.73451  0.02677   34447.37485  48.08259  17.23522  59282.11092    51.17896       44.60083   13.38498  32.12395   31.0    0.29338  -21.93486  0.99993 
   -7.24653  0.00762  1.15561      14.6123  1.80296  0.47162   8.97733  0.11394     0.02827  10639.95782   7310.52714  2.87979          2567.6675     18.59492  0.00219  59249.31591   6.06253  0.06845     13329.593  48.27439  17.24247  59280.52956    51.19542       44.64517   10.70798  32.12395   35.5     0.2453  -21.86134  0.99962 
    -4.8356  0.00165  1.04458     14.46051  1.66282  0.72173   5.21167  0.21135      0.1456   12264.4154   8954.47817  2.00218         3256.79208     16.99201    5e-05  59251.72684   4.67625  0.00859   20208.21625  48.14628  17.30477  59282.53927    51.34078        44.7586   13.38498  34.60366   29.5    0.32266  -21.96051  0.99996 
  -11.42564  0.23763  0.70057     14.23743  1.37787  0.81901   6.58845  0.20495     0.04307  13225.42819   9379.37537  1.12905          2435.5826     19.10949  0.00715   59245.1368   6.87432  1.56559   21041.47734  48.39407  17.23888  59280.53944    51.31122       44.78426   13.38498  29.24266   27.5    0.27422  -21.58438  0.99632 
   -4.11929   0.0049  0.75924     14.46264  1.73861  0.78766   5.19592   0.1547     0.09653   9369.51148   7967.97127  4.40826         2385.64054     19.00529  0.00562  59252.44315   2.72097  0.02545   11053.50507  48.70479  17.19759  59285.21623    51.24415       44.63162   16.06198  34.80095   34.5    0.29731   -21.9583  0.99996 
  -18.31928  0.00224   0.7642     14.40625  1.61461  0.48759   9.35316  0.10718     0.02583  10629.78897   8747.69036  0.10687         2232.67216     17.88415  0.00043  59238.24316   6.30427  0.02095   13483.45033   48.5807  17.25566  59276.54546    51.29474       44.76076   10.70798  29.44696   31.0     0.2611  -21.45915  0.99994 
   -5.34111  0.01547   0.9298     14.68558  1.77898   0.4485   6.48024  0.16064     0.09972  11182.42083   8588.49178  4.00564         2587.83696     18.79047  0.00343  59251.22133   4.83382  0.10026    6075.83668  48.79863  17.27501  59282.11092    51.35784       44.75416   26.76996  29.44696   33.5    0.28835  -21.90943  0.99973 
  -13.68956  0.00106   0.7981     14.20167  1.56699  0.91242    8.8712  0.09933     0.02381  10119.43148   8501.07844   0.9289         2435.27437     18.12141  0.00073  59242.87288   5.41903  0.00938   36614.82327  48.09614  17.34404  59282.11092    51.29879       44.74298   13.38498  32.12395   32.0    0.27446  -21.47997  0.99997 
   -4.39815  0.40515  0.80383     14.29605  1.63827  1.12882   7.62232  0.13171     0.01092   10909.3454   9704.37612  4.19971         2296.73343     19.33393  0.01199   59252.1643   5.41143  3.08815   25143.90522  48.27247  17.28829  59280.53944     51.5361       44.99547   13.38498  29.44696   29.0    0.29532  -21.88533  0.99332 
   -4.53058  0.00239  0.78594      14.4408  1.29113  0.50751   7.81025  0.16618     0.17379  13512.52567   9185.42366  3.59812         2610.48716     19.51084  0.01801  59252.03186   8.50677  0.01868    9726.50429  48.60108  17.24388  59282.11092    51.20031       44.61182   18.73897  30.78106   30.0    0.27926  -21.88788  0.99994 
   -7.07918  0.09206  1.33315     14.20602  1.52231  1.10721    7.7168  0.16651     0.03678  13790.56843   9198.45532  2.81587         2628.04732     18.38933  0.00136  59249.48326   8.75444  0.71044   97282.96948  47.21355  17.22799  59282.53927    51.25769       44.66528   13.38498  34.80095   29.5    0.27947  -21.96621  0.99252 
   -4.22457   0.0026  0.72154     14.19017  1.44466  1.18048   4.26918  0.15382     0.08318   8163.14493   9832.75499   4.0119         2416.43657     19.55572  0.01997  59252.33788   1.69702  0.01109    29091.1985  48.24833  17.31029  59280.53944    51.19332       44.62064   13.38498  32.12395   35.0    0.25149  -21.86542  0.99998 
    -4.8545  0.00804  1.03118      14.4144   1.7061  0.71525   4.36038   0.1599     0.04353   9357.64079   8765.80489  4.00875         2320.55658      16.9487    5e-05  59251.70794   2.27764  0.03505   24985.11442   48.0765  17.28619  59282.11092    51.33742       44.78277   16.06198  30.84104   35.0    0.26236  -21.87172  0.99984 
   -3.33172  0.00283  0.71904     14.68503  1.76733  0.54286   6.35869  0.26508     0.47304  15257.79201   8673.99751  4.54523         2646.20486     18.50736  0.00179  59253.23072   8.83036  0.01801    3618.90505  49.24408  17.28194  59282.52937    51.24861       44.68307   13.38498  30.87272   30.0    0.21068   -21.9118  0.99998 
   -3.93467  0.00534  0.73136     14.74181  1.80805  0.45434   5.84451  0.22784     0.25312  12840.80132   9314.73188  3.93794         2513.64684     16.09086    1e-05  59252.62777   5.74857   0.0312    2948.97661  49.32812  17.27377  59282.53927    51.44376       44.86404   15.27319  32.91273   29.5    0.22398  -21.80161  0.99997 
   -8.42294  0.07701   1.0113     14.35731  1.80553  1.01069  12.73845  0.08205     0.01667  11400.41358   9333.16114  2.36255         2519.02355     19.02915  0.00594  59248.13951   9.87609  0.98097   33079.08311  47.99614  17.28792  59282.53927    51.31716       44.75297    12.4999  32.81174   30.5    0.26481  -21.72367  0.99632 
   -7.28552  0.00636  1.35475     14.31241  1.58457  0.83181  10.73431  0.09336     0.03213  10899.81557   9117.23488  4.26826         2521.33607      18.3407  0.00122  59249.27693   7.60746   0.0683   64065.62838  47.39842  17.25467  59280.53944    51.22645       44.65734   13.38498  30.87272   33.5    0.24443  -21.84998   0.9993 
   -8.30483  0.08291   1.2872     14.68008   1.8575  0.38624   5.81235  0.15273     0.03924  10977.75841   9548.08059  2.11805         2425.30422     17.76677  0.00032  59248.25761   4.17836  0.48193   12470.52555   48.2226  17.31285  59280.52956    51.28995       44.72515   13.38498  32.12395   30.5    0.27143   -21.7693   0.9966 
   -9.97757  0.03818  1.38927     14.42033   1.8534  0.84443    8.2923  0.16936     0.05036  13566.54977   8347.48248  2.83291         2330.80226     17.82214  0.00037  59246.58487   9.10418   0.3166   47939.55069  47.57054  17.23344  59285.21623    51.26749       44.71081   13.38498  30.84104   30.5    0.26782  -21.63548   0.9974 
   -4.39644  0.00113  0.82737     14.40253  1.70262  0.92127   9.08152  0.11037     0.08946  11369.85685   8752.08471  3.67585         2381.27504     17.09395    7e-05    59252.166   7.00319  0.01025   16954.02855  48.43529   17.2541   59279.0056    51.28691       44.73722   13.38498  31.92667   33.0    0.23341  -21.81255  0.99998 
   -7.58192  0.06252  1.12997     14.16262  1.46501  1.07439   9.31635  0.11002      0.0193  11279.92181   9120.11361   4.0161         2290.26117     18.10547  0.00071  59248.98053   7.07107  0.58247   82139.73211    47.414   17.2657  59282.11092    51.28798       44.72495   16.06198  30.84104   32.0    0.24115  -21.86325  0.99542 
