 texplosion  fnickel     Pspin  log(Bfield)      Mns  thetaPB  mejecta    kappa  kappagamma     vejecta  temperature    alpha  cutoff_wavelength  log(nhhost)      A_V         MJD0  kenergy  mnickel             TSD   log(L0)  Peak_mag     Peak_MJD  log(E_rad)  log(Peak_lum)  Rise_Time    E_fold  tau_1  delta_m15     r_peak     frac 
  -17.53876  0.49634  17.51184     14.68874  1.60787   1.3964  4.00191  0.07935     0.06509  5659.57768   7514.95545  3.72244         3148.65087     19.24853  0.00985  56516.74124  0.76465  1.98631    1919775.6987  43.70518   22.5111  56560.67092    50.45632       43.57074     27.843   70.3402   86.5    0.21495  -19.86725  0.21552 
  -22.16967  0.33224   9.46571     14.11748  1.60312  1.56264  1.75912  0.19068     0.23093   6328.8121   7759.34122  1.88888         3380.06061     17.48996  0.00017  56512.11033  0.42031  0.58445   7764715.51167  43.63138  22.60858  56560.67092    50.46107       43.57427   32.23926  68.87478   67.5    0.21762  -19.95547  0.75287 
  -19.80137  0.41026  11.48144     14.42606  1.81589   1.0533  2.00827  0.14752     0.42231  5388.54721   8522.00951  2.48387         3379.07004     18.44256  0.00154  56514.47863  0.34785  0.82391   3124470.16056  43.91317  22.49911  56560.67092    50.48568       43.59429   24.91216  60.08226   59.5    0.23299  -19.90469  0.64481 
  -19.69396  0.37347  12.80295      14.5071  1.59865  0.95866  3.55373  0.08361     0.23915  5325.26074   8544.14512  2.92481         3299.82089     18.48067  0.00168  56514.58604  0.60117  1.32723   2354984.45399  43.88599  22.45416  56560.67092    50.47059       43.60273   24.03367  53.63364   68.0    0.22274  -19.84992  0.42978 
  -16.14527  0.42838  14.25317     14.54755  1.67562  0.83241   3.3267  0.08834     0.32991  6873.50331     8223.393  2.95651         3151.59929     19.36582   0.0129  56518.13473  0.93756  1.42511   2539280.16251  43.78049  22.58972  56563.10791    50.41524       43.55843   32.23926  61.54768   69.0    0.26285  -19.94354  0.37583 
  -20.47247  0.13023   8.35483     13.94967  1.24557   1.5269  5.13869  0.04741     0.06905  5846.83447    7721.6665  3.38586         3169.22116      17.7181  0.00029  56513.80753   1.0479  0.66921  10179448.38577  43.51261  22.49964  56560.67092    50.47773       43.58458    27.9104  64.41112   76.0    0.21219  -19.88634  0.69863 
  -20.70801  0.42243  13.65099      15.0203  1.43053  0.28485  4.43343  0.07539       0.363  5896.27241    7665.6077  1.64863         3427.57445     18.29323  0.00109  56513.57199  0.91944  1.87282    225440.99724  44.80098  22.46227  56560.67092    50.49928       43.60456   25.49909  62.42616   84.5    0.21619  -19.88332   0.2858 
  -21.77325  0.21794  13.29855      14.9302  2.06146  0.28776  5.11885  0.06672      0.0718  6226.75605   7372.24767  2.12422         3299.72832     17.57808  0.00021  56512.50675  1.18392  1.11558    466868.40511  44.66622  22.56337     56563.22    50.47994       43.55112   29.37582  67.24594   74.0    0.21204  -19.94045  0.54326 
  -20.27967  0.42436  18.29165     14.91996  1.79462   1.0711  5.00739  0.07221     0.08463  6032.32946   7660.01734  1.99975         3444.88001     16.24606    1e-05  56514.00033  1.08695  2.12492    806085.39491  44.09193  22.49702  56563.10791     50.5002       43.59017   26.44498  64.41112   89.5    0.21226  -19.87477   0.2185 
  -21.43231  0.39863   9.44946     14.68039  1.14089  0.28209  3.28725  0.12396     0.49703  6800.22772   7891.72696  4.46999         2930.29156     17.33518  0.00012  56512.84769  0.90679  1.31038     412177.2212  44.76019  22.45302  56563.10791    50.43542       43.58866    27.9104  52.68775   67.5    0.22995  -19.95882  0.45612 
  -18.52949  0.40988  14.94225      14.5901  1.44776  0.83424  4.31493  0.07773     0.47134   6196.6079   7093.65589  2.84425         3240.13532     18.36111  0.00128  56515.75051  0.98835  1.76859   1982183.71436  43.78357  22.53702  56560.67092    50.49152       43.60173   26.37758  60.08226   84.5    0.23154  -19.88873  0.26366 
   -18.5344  0.31298  16.69346     14.63561  1.82693  1.11172  5.28449   0.0517     0.31245  5588.99124    7938.6264  2.51082         3380.35676     16.04477    1e-05   56515.7456  0.98468  1.65396   2531683.02733  43.68207  22.53959  56563.10791    50.43141       43.56763   29.36981  58.55545   80.0    0.23456   -19.8625  0.30318 
  -15.39431   0.4854  11.32768     14.72723   1.4482  0.90545   3.5924  0.11561     0.39671  6547.30684   8082.08509  1.96429         3445.64934     18.69314  0.00274  56518.88569  0.91862  1.74374     605992.0149  44.53892  22.51368     56563.22    50.47658       43.59361     27.843  55.68599   69.0      0.241  -19.93117  0.39214 
  -14.14875   0.4807  16.11229     15.14329   1.6103  0.61549  4.02052  0.06374     0.24568  5765.85386   8536.71882  2.07261         3850.22579      16.6175    2e-05  56520.13125  0.79733  1.93268    200653.83553  44.75899  22.53841  56563.10791    50.47428       43.56481   29.36981  61.48629   82.5    0.27357  -19.88855  0.25304 
  -18.36026  0.43089  14.25286     14.58724  1.84946  1.47845  3.40916  0.10767     0.39827  6087.15303   7735.62848  2.45331         3337.10314     18.05803  0.00063  56515.91974  0.75353  1.46897   2334442.05538   43.8599  22.49245  56560.67092    50.47408       43.56519   29.30842  62.52681   70.5    0.24262  -19.91542  0.40789 
  -18.22502  0.39291  16.81077     14.61125  1.58116  1.11441  4.61614   0.0641     0.24233  5968.76032   7885.66496  3.59088         3097.48518     16.69642    3e-05  56516.05498  0.98101  1.81374   2485821.30333  43.62118  22.52092  56563.10791    50.46726       43.59945     27.843  55.68599   82.0    0.22763  -19.86621  0.23997 
  -18.12864   0.2775  12.00103     14.29289  1.38184   1.5458  5.20924  0.05959     0.35096  6041.22894   7400.60259  3.65009         3165.69164     18.60523  0.00224  56516.15136   1.1341  1.44555   4796671.28915  43.56993  22.51132  56560.67092    50.50483       43.56305     27.843  74.52922   77.0     0.2378    -19.922   0.3859 
  -15.80499  0.44152  12.68417      14.8997  1.46417  0.65203  4.22433  0.07959     0.22365  6225.59606   8052.42739  1.57193         3597.28981     16.56867    2e-05  56518.47501  0.97667  1.86513    347158.90819  44.68738  22.48424  56560.67092    50.44297       43.58493   26.37758  58.61684   78.0    0.24403  -19.88928  0.32848 
  -16.84893  0.40334  14.78564     14.95752  1.98205  0.64467  4.42193   0.0614     0.38993  5914.63178   8724.81678  1.48056         3852.38609     20.16348  0.08095  56517.43107  0.92277  1.78355    489300.49821   44.5367   22.4778  56560.67092     50.4991       43.57881   26.37758  67.40936   69.0    0.27649  -19.99367  0.37094 
  -20.23194  0.40098  10.44373     14.24878  1.36325  1.49036  2.95404  0.10178     0.40234  5596.41123   8204.82882  2.11495          3556.8167     19.12629  0.00743  56514.04806   0.5519  1.18451   4390780.07523  43.72317  22.48981  56560.67092    50.47949       43.58586     27.843  64.47852   66.0    0.23209  -19.91173  0.49878 
  -22.37781  0.30047  12.67982     14.46522   1.6518  0.99798  4.71006  0.05737     0.13358  4464.13213   7399.11178   2.5669         3416.76406     19.35929  0.01271  56511.90219  0.55992  1.41521   2894429.33937  43.81901   22.4716  56560.67092     50.4781       43.60496   26.37758  55.68599   85.0    0.18979  -19.80665   0.4296 
  -17.21953  0.41158  17.19948     14.93317  1.93388  0.94684  4.65396  0.06491     0.47023  5387.72546   8121.26286  2.51316          3457.6044      18.7792  0.00334  56517.06047  0.80586  1.91549    722646.06641  44.22532  22.44408  56563.10791    50.53529       43.63943   26.37758  60.08226   83.5    0.22122  -19.86627  0.28165 
  -22.26896  0.44179    8.6956     14.69432  1.15741  0.21091  2.49725  0.13928     0.08221   6035.5981   7401.51456  3.57617         3066.12091     17.80044  0.00035  56512.01104  0.54266  1.10327    332090.49553  44.93248  22.50127  56563.10791    50.46836       43.56564    27.9104  60.01486   70.5    0.20879  -19.92547  0.54225 
  -19.60704  0.34346  11.42566     14.63782   1.6127  0.64475  3.59994   0.1234     0.25237  6160.58345   7830.91449  3.16169         3206.17431     17.63598  0.00024  56514.67296  0.81502  1.23642   1036318.65337  44.34514   22.5409  56563.10791    50.51256       43.60962     27.843  61.54768   63.5     0.2265  -19.94384  0.50842 
  -18.23225  0.38491  12.53247     14.63678  1.87908  1.42533  3.78433  0.12242     0.37757  6130.40261   8029.42079  3.06495         3248.68742     19.73065  0.02988  56516.04775  0.84839  1.45664   1459733.53164  44.18244  22.48979  56563.10791    50.47485       43.58981   26.37758  58.61684   63.5    0.22883  -19.96181  0.48102 
  -19.52791   0.4839  13.99881     14.48466  1.72986  1.29345  3.38964  0.10255     0.42037  6033.77826   7384.86562  3.18641         3115.80542     19.76219  0.03213  56514.75209  0.73614  1.64026   3378202.41358  43.68599  22.49184  56560.67092    50.48914       43.60537   26.37758  57.15142   78.5    0.21692  -19.94729  0.36426 
   -19.8107  0.37632  13.46696     14.66317  1.81102  0.76896  3.87651   0.0934     0.49225  6194.20654   7930.59421  1.51059         3511.38799     18.40695  0.00142   56514.4693  0.88724   1.4588   1438585.71348  44.11029  22.52465  56563.10791    50.48035       43.58273   29.30842  58.61684   68.0     0.2346  -19.93045  0.42833 
  -25.57403  0.38091    9.8276     14.39021  1.55907  0.91446  2.57036  0.19168     0.22061  6282.17174   7625.77786  1.20806         3167.31001     17.94627  0.00049  56508.70597  0.60512  0.97907   2318251.11816  44.11166  22.53621  56560.67092    50.46657       43.56791   26.37758  59.75892   61.0    0.21245  -19.89355  0.62523 
  -20.50194  0.34337  13.14943     14.66015  1.61775  0.51386  4.47407  0.08493     0.19299  6785.16575   8154.74204  2.89025         3142.24495     18.83911  0.00384  56513.77806  1.22871  1.53625   1242359.70716   44.1457   22.5246  56560.67092    50.46808       43.62495   24.91216  57.04515   70.5    0.22731  -19.97472  0.38295 
  -16.46893   0.3398  12.30086     14.83201   1.3659  0.53711  5.02595  0.07584     0.19632  6725.96836   8010.94484  1.76166          3373.7151     18.56107  0.00202  56517.81107   1.3563  1.70784     415997.7791   44.6053   22.5267  56563.10791    50.49648       43.60156   26.37758  61.54768   69.5    0.25895  -19.90304  0.33739 
  -18.29058  0.41112   13.9442     14.83862  1.62175  0.74359  4.69358  0.10293     0.03602  6628.05918   7907.00751  3.01564         3180.50088     16.66021    3e-05  56515.98942     1.23  1.92962    615667.23949   44.4007  22.51879  56560.67092    50.45878       43.59872     27.843  63.99223   64.5    0.21118  -19.94637  0.31231 
  -17.85624  0.35703  13.82856     14.53598  1.37188  0.99253  4.95464  0.06016     0.36859  5864.89552   7317.65074  2.56272          3402.1428     18.47327  0.00165  56516.42376  1.01662  1.76897   2064049.97162  43.80989  22.48869  56563.10791    50.51402       43.58763   26.37758  68.87478   83.5    0.24268  -19.90449  0.27936 
   -17.5003  0.32058  10.96168     14.51814  1.43017  1.01761  4.42228  0.09413     0.35534  6031.52647   8287.11521  2.56061         3396.84466     17.12181    7e-05   56516.7797  0.95968  1.41769   1467840.56451   44.1778  22.50472  56563.10791    50.49584       43.59125   26.37758  67.40936   63.0    0.23594   -19.9248  0.45192 
  -14.81375  0.46742   13.0131     14.83943  1.38253  1.10165  4.32251  0.08469     0.07963  6370.98079   7948.08092  3.49281         3210.66613     17.54851   0.0002  56519.46625  1.04659  2.02041    455407.42762  44.52236  22.53204  56563.10791    50.49041       43.59272   26.37758   63.0131   82.0    0.23384  -19.89515  0.28354 
  -15.18595  0.45055  15.01938     14.58644  1.57064  1.18728  3.55873  0.07787     0.14053  6085.45572   7677.03772  2.96546         3278.38669     17.38508  0.00013  56519.09405  0.78615   1.6034   2209601.90943   43.7673  22.55126  56560.67092    50.43727       43.55491    27.9104  64.41112   75.5    0.26217  -19.89077  0.30784 
  -16.15708  0.43634   12.7345     14.76524  1.76443  1.51485  3.89146  0.09563      0.4958  5812.12911   8168.49347  2.17865         3561.16621     16.84771    4e-05  56518.12292  0.78417    1.698    783249.58069  44.41158  22.57442  56563.10791    50.51443        43.6491   32.23926  60.08226   72.5    0.23716  -19.89797  0.41376 
  -19.45705  0.36611  13.18118     14.55748  1.66827  0.72091  3.74505  0.09254     0.49534  6536.46032   7896.62879  2.68866         3220.78159     16.82879    4e-05  56514.82295  0.95449  1.37109   2065512.43466  43.93618  22.50807  56560.67092    50.47442       43.56722     27.843   63.0131   71.0    0.23277  -19.93979  0.42078 
  -19.20309  0.28377   8.85807     14.18459  1.19395  0.84581  3.53691  0.07414     0.47403  5960.18499   8117.55201  1.61319         3661.04042     19.28094  0.01061  56515.07691   0.7495  1.00367   3717845.88552  43.88086  22.48965  56560.67092    50.46842       43.58392   26.37758  60.08226   67.5    0.23565  -19.93301  0.56928 
  -18.24202  0.48544  17.27075     14.87105  1.82672  0.82095  3.82782  0.08693     0.45649  6079.32173   7996.99445  2.06113         3468.26269     18.20552  0.00089  56516.03798   0.8439  1.85816    916224.24845  44.09389  22.49725  56560.67092    50.47847       43.58361     27.843  58.61684   79.0    0.23817  -19.89044  0.26798 
  -17.23311  0.39229  16.52851     14.66206  2.07674  1.29902  4.15144  0.07736     0.47323  6242.54192    8187.9008  2.87204         3276.98055     19.83698  0.03817  56517.04689  0.96505  1.62859   2497767.28729  43.75221   22.4831  56563.10791    50.48511        43.5998     27.843  58.61684   71.0     0.2464  -19.97181  0.35381 
  -17.19935  0.44343  14.93252      14.9524  1.82906  0.88395  4.33093    0.079     0.32389  5476.03504   7591.23266  2.32053         3450.27815     18.89061  0.00432  56517.08065  0.77471  1.92045    471528.80127   44.5093   22.6088  56563.10791    50.59122       43.62293   28.42392  77.08638   86.0    0.21755  -19.85201  0.32382 
  -20.96142   0.4203  10.99405      14.2407  1.19975  1.46664  3.70859   0.0938     0.49453  5933.58237   7783.71255  3.01703           3131.162     17.93677  0.00048  56513.31858  0.77888  1.55874   4444419.07836  43.61781   22.5894  56560.67092    50.48499       43.59258   26.37758  61.54768   77.0    0.21237  -19.88254   0.3607 
  -20.53926  0.15526  10.21763     14.22917  1.60324  1.23095  5.52292  0.04332     0.46251  5084.96301   7408.84611  1.88361         3651.77466     19.36543  0.01289  56513.74074  0.85187  0.85747   5409779.84331  43.72196  22.52628  56560.67092    50.47468       43.57233   26.37758  60.08226   75.5    0.22079  -19.91085  0.64341 
  -18.73171  0.49272  15.10401     14.58638  1.53856  0.97706  3.47599  0.09714     0.48441  6355.59837   7881.79213  2.84874         3243.57385     18.49509  0.00174  56515.54829  0.83756   1.7127   2189550.90616  43.75742  22.47621  56560.67092    50.49074       43.60095   26.37758  59.75892   77.5    0.23846  -19.90465  0.28438 
  -18.37447  0.47556  12.90195     14.45988   1.7603  0.89153  2.60689  0.13227     0.46144  6585.27749    7634.6607  3.48989         3121.76476     17.80836  0.00036  56515.90553  0.67437  1.23973   3272990.59494  43.77818  22.54031  56560.67092    50.44519       43.57601   29.37582  60.01486   72.0    0.22812  -19.96261  0.47461 
   -20.9128  0.36494  12.32727     14.43591  1.76675  0.86967  2.80986   0.0972     0.16088  6125.97039   8362.09516  1.78007         3513.84879     18.65462  0.00251   56513.3672  0.62902  1.02544   3348954.82232  43.80938  22.54701     56563.21    50.45513        43.5814   29.37582   62.9457   66.5    0.23707  -19.90078   0.5454 
  -21.35065   0.4316  13.16775     14.55036  1.75496  0.94174  3.38384  0.14139     0.48402  6927.14037   8093.12972  3.33231         2913.11103     18.70226   0.0028  56512.92935   0.9686  1.46046   2240696.66627  43.92371  22.48145  56563.10791    50.43258        43.5603    27.9104  68.80738   65.5     0.2156  -19.95579  0.42672 
  -20.31071  0.37127   9.89097     14.15209   1.4388  1.26575  2.46129  0.10844     0.49766  5793.94738   7973.93881  1.72706         3540.64105     18.26425  0.00102  56513.96929  0.49288  0.91381   6488045.90391  43.62426  22.54169  56563.10791    50.48495       43.56285    27.9104  67.24594   72.5    0.22378  -19.89615  0.60452 
  -20.51892  0.19093  12.61229     14.41382  2.03857  1.09065  4.89323  0.05932     0.07093  6127.86889   7767.81102  1.74964         3484.77158     19.24856  0.00985  56513.76108  1.09608  0.93426   4478099.32473  43.72549   22.5488  56560.67092    50.47774       43.58898   29.30842  60.08226   71.0     0.2227  -19.94783  0.60855 
  -17.67588  0.31496  16.61207      14.7973  1.71546  0.97724   6.1282  0.06124     0.22991  6420.89385   7322.85339   3.3828         3136.76049     17.84303  0.00039  56516.60412  1.50713  1.93012   1117993.09026  44.01394  22.53575  56560.67092    50.54977       43.64295   25.49909    65.357   82.5    0.22536  -19.92326  0.25765 
  -19.48182  0.36771  11.63364     14.42631   1.3163  1.20412  5.01715  0.07232      0.2786  6105.92271   8339.40999  2.58852         3201.55607       20.119  0.07307  56514.79818   1.1158  1.84484   2322635.75165  43.89079  22.58035  56560.67092     50.4713       43.55198   29.30842  68.87478   73.0    0.21975   -19.9656    0.331 
  -20.26856  0.39984  12.18587     14.34423   1.9601  1.28039  1.97739  0.12754     0.15614  6058.68996   8388.09354  1.45068         3621.28739     18.33257  0.00119  56514.01144  0.43299  0.79063   5538003.65311  43.64606  22.49704  56560.67092    50.51087       43.59729   26.37758  65.94394   65.5    0.23529  -19.90234  0.64935 
  -17.68289  0.28541  17.26504     14.52536  2.03196  1.35881  5.13975  0.05306     0.35738   6172.0478   7695.85832  3.28272         3208.50188     16.13278    1e-05  56516.59711  1.16796  1.46692   5004412.92831  43.40307  22.49367  56560.67092    50.50754        43.6125   24.91216  61.54768   79.5    0.24364  -19.88206  0.34548 
  -15.80233  0.36718  11.28468     14.81742  1.43894  1.21787   5.3554  0.06425     0.41056  5265.35713   8461.81945   3.5365         3287.50769     19.50217  0.01766  56518.47767  0.88568  1.96638    394461.46338   44.7259  22.57727  56563.10791    50.52584        43.6066     27.843  65.94394   84.0    0.20756  -19.83501  0.36543 
  -19.68813  0.24336  10.58087        14.26  1.63433  1.48136   3.6675  0.09066     0.26461  6191.62334   8555.28196  2.23498         3257.80494     18.49221  0.00173  56514.59187   0.8387  0.89251   5131074.92519  43.72293  22.51693  56560.67092    50.50952       43.57495   24.91216  71.80563   60.0    0.22706  -19.95367   0.6261 
  -20.48599  0.45171  11.85559      14.6204  1.77686  1.43339  3.48027  0.14032     0.14249  6712.28648     8244.648  1.16634         3555.70908     19.61991  0.02315  56513.79401  0.93537  1.57208    1332013.3073  44.24614  22.48595  56563.10791    50.57421       43.68695   29.30842  54.22057   60.5    0.23728  -19.96166  0.46916 
  -16.49019  0.48968  12.24932      14.9843  1.40681  0.48996  3.87293  0.10183     0.46491  6373.52482   7803.04692  2.76984         3265.17944     17.61283  0.00023  56517.78981  0.93848   1.8965    210704.80287  44.91718  22.44265  56563.10791    50.50404       43.59195   24.97956  64.41112   78.0    0.24064  -19.91791  0.32699 
  -20.57849  0.29682  10.75552     14.24531  1.32874  1.25731  4.60591  0.08212     0.41812  6134.95786   7610.25823  4.07008         3007.17718     19.22563  0.00934  56513.70151  1.03411  1.36711   4612025.00845  43.66513  22.53003  56563.10791     50.4854       43.60583   26.37758  55.68599   74.0    0.21101  -19.92077  0.43788 
  -14.82229  0.45341  14.26603     14.96774  1.60587   1.0043  4.31526  0.07362      0.3715   5760.1377   8934.11039  3.56334         3194.35437     17.03252    6e-05  56519.45771  0.85408  1.95658    352090.29626  44.61929  22.45046  56560.67092     50.5062       43.61663   24.91216  59.75892   78.5    0.22837  -19.83434  0.29876 
   -22.4047  0.30133   8.29035     14.26223   1.2145   0.7207  2.88572   0.1392     0.22677  6552.10406   8148.60023  1.97251         3310.51632     17.41254  0.00014   56511.8753    0.739  0.86956   2316890.00078  44.15119  22.55617  56560.67092    50.48882       43.56552   29.30842  65.94394   58.0    0.24138  -19.97795  0.64304 
  -20.93985  0.28522  11.29007     14.48118  1.75801  0.60243  3.77296  0.06325     0.18849  5748.87003   8119.72958   1.4738         3397.21265     19.76088  0.03203  56513.34015  0.74383  1.07613   2269225.77737   44.0526  22.58571  56560.67092    50.46997       43.56773   26.37758  71.80563   78.5    0.20577  -19.90297  0.57249 
  -22.96434  0.29854  12.83075     14.48389  1.80755  0.98551  4.18018  0.07536     0.23181  5253.15251    8106.2701  2.18842         3325.34249     16.06911    1e-05  56511.31566  0.68812  1.24795    2976040.7696  43.83579  22.49524  56563.10791    50.47225        43.5833     27.843  61.54768   73.0    0.20603  -19.84165  0.48772 
  -18.25549  0.32433  12.16967     14.74195  1.42846  0.30249   4.6934  0.06227     0.10162  6697.90166   6926.87846  2.32172         3324.85949     18.82359   0.0037  56516.02451  1.25601  1.52219       644674.21  44.44382  22.53415  56563.10791    50.49302       43.61683     27.843  55.57972   83.0    0.23232  -19.96697  0.37468 
  -20.33053  0.38225  14.53955     14.55655   1.7696  1.32552  4.06597  0.07598     0.40824  5537.80773   8119.26318  2.76389         3320.38234     18.97051  0.00519  56513.94947  0.74382  1.55421   2677223.15867  43.76393  22.55387  56563.10791    50.50532       43.57038     27.843  71.51659   74.5    0.22145   -19.8871  0.36849 
  -14.93261   0.4761  12.97165     14.73689  1.32817  0.78325  4.02502  0.09231     0.21835  7139.38174   7973.87361  2.23172         3187.89613     19.32258  0.01168  56519.34739  1.22382  1.91631    697076.81911  44.32283  22.51975  56560.67092    50.49395       43.60365   25.49909  63.89158   73.5    0.25878  -19.95207  0.28156 
  -19.86686  0.18088   9.39924      14.7669  1.52048  0.20863  2.97919  0.09941     0.41614   6871.9318   8030.63266  3.10776         3031.01942     16.73597    3e-05  56514.41314  0.83924  0.53886    364901.92442  44.94246  22.47299  56563.10791    50.46717       43.58633   29.30842  55.68599   65.0    0.23837  -19.93962  0.75511 
  -24.07925  0.26537  11.41738     14.37509  2.07921  1.20399  2.37483   0.1675     0.39479  6878.28811    8098.6604  0.73336         3668.39463     18.29029  0.00108  56510.20075  0.67022  0.63022   4473762.90293  43.82094  22.52911     56563.22    50.47655       43.60286   29.36981  54.15919   58.0    0.22604  -19.97963  0.74419 
  -14.40958  0.28858   7.61314     14.86182  1.56681  1.49674  6.66227  0.05955     0.48873  5664.37188   8412.43934  1.85072         3686.51856      19.6182  0.02306  56519.87042  1.27513  1.92262     159340.4171  45.49841  22.60973  56563.10791    50.49527       43.59133   30.77384  64.47852   78.0    0.21061  -19.87709    0.604 
  -16.25064  0.39255  14.66248     14.62495     1.13   0.5886  4.56377  0.05674     0.18419  5934.44561   8536.70116   4.3162         3066.58312     16.79577    3e-05  56518.02936  0.95876   1.7915   1268819.42959  43.88611  22.54319  56560.67092    50.46587       43.55981     27.843   63.0131   80.0    0.24639  -19.83659  0.20198 
  -21.95825  0.20337   9.84398     14.35916  1.40149  0.73643  5.10772  0.07541     0.32932  6399.49293   8067.99296  1.97479         3332.76639     18.04541  0.00062  56512.32175   1.2478  1.03875   2412220.76381  44.04668  22.54686  56563.10791    50.50007       43.59083   29.30842  61.54768   64.5    0.21798  -19.94688  0.56937 
  -19.73468  0.21791  14.07865     14.79945  1.46374    0.502   8.3186  0.03906     0.04764  5878.19892   7688.89229  2.05374         3373.94935     16.64417    2e-05  56514.54532  1.71461  1.81275    678414.28093  44.30569  22.50749  56560.67092    50.48096       43.57053   26.37758  64.47852   81.0    0.22354   -19.8852  0.28674 
  -19.31367  0.42175  11.74019     14.53727  1.49217  0.87815  3.71337  0.08255     0.41213  5591.14081   8331.05495  1.60642         3640.65612     19.83313  0.03783  56514.96633  0.69246  1.56611   1608573.74384  44.09687  22.45845  56563.10791    50.46218       43.59166   26.44498   54.0469   71.0     0.2246    -19.924  0.40817 
   -18.8029  0.20462  15.08488     14.44747  2.17583  1.28131  5.14821  0.03862     0.48926  4877.40693   8522.49125  4.31687          3108.1247     18.59123  0.00217   56515.4771  0.73057  1.05343   5855868.10764   43.4818  22.48358  56560.67092    50.48163       43.57985   24.91216   63.0131   78.5    0.21365  -19.79128  0.51336 
  -17.94108  0.44731  14.90616     14.83446  1.64639  0.48144  3.63411  0.07433     0.46796  5744.51383   7718.43126  1.84344         3565.13937     16.91248    5e-05  56516.33892  0.71537  1.62556    728033.27317  44.27649  22.52432  56563.10791    50.45549       43.58423   29.37582  57.08402   81.5    0.23223  -19.87641   0.3219 
  -15.22686  0.46356  14.09248      14.8126  1.78097  1.29144  4.03113    0.088     0.43279  5944.20683   7967.75915  2.06279         3526.38498     19.23982  0.00965  56519.05314  0.84965  1.86869    778494.86385  44.33027  22.48187  56563.10791    50.49735       43.60114   26.37758  60.08226   79.0    0.23233  -19.90697   0.3467 
  -20.43403  0.42379  10.91064     14.35915  1.78888  0.89275  1.49058  0.19361     0.43226  6092.76219   8158.26865  2.78689         3165.34573     18.43191   0.0015  56513.84597  0.33007  0.63169   3782608.85622  43.86793  22.49917  56560.67092     50.4904       43.59903   26.37758  60.08226   63.5     0.2378  -19.91567   0.7161 
  -17.24816  0.37778  15.28351     15.05036  1.89803  1.19794  5.60165  0.06603     0.47653  6088.61518   8475.41777  2.26422          3462.7377     16.56543    2e-05  56517.03184  1.23874  2.11619    326475.08099  44.66485  22.49818  56563.10791    50.48835       43.58131   30.77384  62.52681   84.5    0.21594  -19.88291  0.30661 
  -18.96532  0.49793  15.02094     14.45488  1.71192  1.32595  3.24752  0.08793     0.15129  5816.06853   7689.80342  2.78688         3306.71169     19.24559  0.00978  56515.31468   0.6553  1.61704   4414952.38287  43.50401  22.45648  56560.67092    50.49876       43.59111   24.91216  63.99223   81.5    0.22888  -19.90594  0.33022 
  -17.55059  0.41301  15.85908     14.62709  1.98661  1.46771  3.64375  0.08956     0.46122  6622.92513   8096.43043  2.13005         3377.47269     16.98949    5e-05  56516.72941   0.9534   1.5049   2584083.59069   43.7541  22.54234  56563.10791    50.43616       43.57121   30.77384   63.0131   67.5    0.26843  -19.94928  0.37612 
  -18.81669  0.27979  13.62507      14.7288  1.72265  0.55605  5.94713  0.04554     0.47551  5486.27885   7320.52007  2.29325         3451.29311      20.0081   0.0566  56515.46331   1.0678  1.66394   1035340.25677  44.22128  22.52522     56563.22    50.45609       43.57128   29.30842  57.15142   83.5    0.22309  -19.96446  0.37195 
  -17.85667  0.25601  13.92162     14.70557  1.85887  1.44034  6.20882   0.0631     0.33873   5536.2174   7886.08256  3.08483          3314.0335      18.4599   0.0016  56516.42333  1.13517  1.58953   1298117.02822   44.1374  22.50986     56563.21    50.47516       43.59003   29.30842  55.68599   72.0    0.21267  -19.87277  0.40417 
   -21.3395   0.4175  12.02546     14.33986  1.64255  1.23455  3.22637  0.10034     0.46934  6254.50476   8044.95633  1.61752          3402.5294     19.54101  0.01931   56512.9405  0.75288  1.34701   4611124.03468  43.66035     22.52  56563.10791    50.51043       43.59919    27.9104  64.41112   73.0    0.22522  -19.94287  0.46391 
  -18.80635  0.41581  14.91601     14.69524  1.93692  1.38685  3.87643  0.09169     0.23391  5727.07649   8261.25213  2.30342         3406.49631     18.64847  0.00247  56515.47365  0.75845  1.61186   1628376.42436   43.9969  22.52573     56563.22    50.49522       43.60502     27.843  57.15142   71.0     0.2235  -19.89262  0.38181 
  -18.16207  0.47267  14.75136     14.69023  1.78937  1.24463  3.61537  0.10012     0.44481  6470.11288   7753.13109  1.72336         3599.54097     16.70945    3e-05  56516.11793  0.90283  1.70889   1505615.16473  44.00617  22.64139  56565.54491    50.46175       43.58783   32.30666  57.08402   71.5    0.25811  -19.94975  0.34607 
  -22.27094  0.38895  10.87684     14.27631  1.45319   1.3125  3.11958  0.10271     0.36053  5548.61395   7939.96972  2.03087          3476.1277     18.62275  0.00233  56512.00906  0.57292  1.21334     4472297.713  43.70763  22.54181  56563.10791    50.49346       43.58197   29.37582  67.34196   71.5    0.21493  -19.88481  0.49551 
   -18.2278  0.32995  11.98826     14.74789   1.4939  0.97973  5.10972  0.06696     0.43118  5275.62844   8429.06674  2.19349         3529.89533     16.32421    1e-05   56516.0522  0.84834  1.68595    636592.07683  44.48179  22.55308  56563.10791    50.46781       43.58946   24.91216  58.61684   75.0    0.22451  -19.80774  0.38439 
  -17.89791  0.48496  15.79947     14.83418  1.83325  1.03455  3.85736   0.0838     0.09339   6440.5453   8315.60713  1.20112         3739.88171     18.05925  0.00064  56516.38209  0.95447  1.87065    911914.58471  44.17483  22.55381  56563.10791    50.41909       43.56695   29.30842  64.47852   73.5    0.25442  -19.91197  0.30492 
  -17.13807  0.35234  10.98467      14.3447  1.28756  0.74975  4.00242  0.06983     0.29704  6400.56421   7327.42824  2.01987         3288.11911     19.27267  0.01041  56517.14193  0.97811   1.4102   2949490.21008  43.82729  22.46292  56560.67092    50.49298       43.58974   26.37758   63.0131   79.5    0.23737  -19.91699   0.4066 
  -20.29134   0.4266   8.27999     13.95881  1.31221  1.46678  1.45577  0.16337     0.18405  6367.03918    8185.6605  1.72323         3457.84825     17.20472    9e-05  56513.98866  0.35204  0.62103  10098366.04029  43.54654  22.49912     56563.22    50.46162       43.57636   29.30842  55.68599   71.0    0.22385  -19.93625    0.733 
  -18.90396  0.46686  17.25119     14.79746  1.72132  0.61769  4.04692  0.06425     0.46202  5076.27104   6694.97298   2.6151         3366.87951      19.3598  0.01272  56515.37604  0.62207  1.88933   1208929.98664  43.94867  22.49613  56560.67092     50.4517       43.56903   24.91216  68.87478   97.0    0.20851  -19.84354  0.24543 
  -16.83507   0.3802  13.05649     14.27394  1.23179  1.22169  4.66464  0.05311     0.12771  5648.70973   7328.22583   2.9815         3216.90927     19.59558  0.02189  56517.44493  0.88786  1.77349   5522403.06041   43.3856    22.455  56560.67092    50.44584       43.59066   24.91216  57.15142   92.5    0.22307   -19.8709  0.26548 
  -17.57533  0.37564  15.83266     14.73482  1.79898  1.33727  4.93543  0.06994     0.18717  5955.36691   7799.77643  2.13861         3277.04659     18.90823   0.0045  56516.70467  1.04416  1.85394   1420064.47777  43.97246  22.49095  56563.10791    50.47155       43.59247     27.843  57.15142   81.5    0.22028  -19.86951  0.29948 
  -18.36468  0.49511  18.21614     14.67637  1.91714  0.83681  3.45362  0.06432     0.47255  4945.75597   8207.96025  3.45851         3347.79952      19.8456  0.03893  56515.91532  0.50393  1.70992   2622028.35311  43.61195  22.47273  56560.67092    50.47851       43.59264   24.91216  57.15142   87.0    0.21794  -19.85065  0.27258 
  -17.71046  0.33509  13.96784     14.42591  1.68078  1.56898  4.00073  0.06293      0.1012   5650.0887   8573.36168  2.82453         3290.30704     18.89042  0.00432  56516.56954  0.76186  1.34062   4283182.36103  43.57233  22.49219  56560.67092    50.52671        43.6812   23.44673  48.35889   70.0     0.2403  -19.86035  0.40169 
  -17.53518  0.46316  16.43889     14.56321  1.22153  0.88448  4.39745  0.06827     0.48938  5820.13041   7285.10668  4.93885         3053.82896     19.30973  0.01134  56516.74482  0.88857  2.03674   2291093.72545  43.56396  22.48413  56563.10791    50.48346       43.57861    27.9104  62.46542   93.0    0.21539  -19.87998  0.16613 
  -22.25534   0.2532  12.80264     14.36884  1.59402  1.53939  5.55593  0.05944     0.29146  5142.27261    8301.0529  2.89707         3273.64848      17.7204  0.00029  56512.02466  0.87638  1.40674   4438411.59331  43.60951  22.56041  56565.54491    50.46531       43.58084   30.77384   63.0131   76.0    0.19556  -19.82454  0.41285 
  -25.37006  0.20416   9.08043     14.43093    1.566  0.39153   3.2333  0.08875     0.05973  6237.00873   7148.29031   1.7039         3290.73275     16.21293    1e-05  56508.90994  0.75028  0.66012   1648042.78964  44.33045  22.45365     56563.22    50.45643       43.59851    27.9104  51.65364   74.5    0.19228  -19.91246   0.7341 
  -16.00569  0.30127  16.30409     14.56745  1.53286  1.24339  5.80206  0.04648     0.46902  6356.90774   8196.35687  2.12005         3384.03938     17.37219  0.00013  56518.27431  1.39863  1.74797   2773412.97572  43.58674  22.50104  56560.67092    50.45696       43.57237     27.843  57.15142   77.5    0.26852  -19.88163  0.24956 
   -16.5224  0.43319  11.07841     14.53338  1.28689  1.40446  3.79826  0.07391     0.30057  5163.28171   8733.08446   2.6369         3371.09152     19.41763  0.01453   56517.7576  0.60404  1.64536   1257622.69186  44.18988  22.51188  56560.67092    50.47142       43.59273   26.37758  58.61684   72.0     0.2476  -19.82984    0.374 
  -23.73867  0.39191  12.15326     14.34185  1.65592  1.55649  3.30591  0.12216     0.04956  5958.11999   7434.35397  2.81978         3172.15417     18.17299  0.00083  56510.54133  0.70006  1.29563   4704852.37083  43.64595  22.52846  56560.67092    50.45365        43.5656   29.30842  64.47852   66.5    0.20083   -19.8941   0.4722 
  -19.10633  0.37591   8.52597     14.18787  1.35579  0.67515  1.55038   0.1691     0.39501   6632.6374   7703.16672  3.81982         3058.51202     16.98705    5e-05  56515.17367  0.40685   0.5828   3852694.70545  43.95379  22.53639  56563.10791    50.51419       43.59902     27.843  65.94394   73.5    0.23946  -19.96598  0.74366 
  -17.80341  0.46248  18.12673      14.7977  1.90587  0.78919  3.87548  0.06403     0.29839  5450.74954   8341.24709  2.02128         3644.01221     17.91587  0.00046  56516.47659  0.68685  1.79232   1476236.15117  43.86314  22.54522     56563.22    50.46961       43.58341   29.37582  65.87654   82.0    0.23146  -19.88498  0.26648 
  -16.43677  0.43732  15.98501     14.80976  1.90791   1.1447  4.26287   0.0861     0.46941  5957.03746   8095.36995  3.35163         3187.55815     19.65818  0.02529  56517.84323  0.90238  1.86424   1087099.24846  44.10571  22.54963  56560.67092    50.48289       43.57452   26.96451  72.68411   77.5    0.22383  -19.91969  0.31325 
  -21.43622  0.45848   9.80694     14.18807   1.4334  1.45971  2.00467  0.15296     0.33847  5895.09224    8206.0724  1.62773         3611.03593      18.6181  0.00231  56512.84378  0.41558   0.9191   5383999.96781  43.71104  22.55476  56560.67092    50.47966       43.57201   29.37582  62.46542   63.5    0.22821  -19.92499  0.60869 
  -19.13287  0.42027   8.93979     14.38218  1.41497  0.57748  1.16616  0.21397     0.38854  5114.82251   7970.36049  3.92636         3174.76862     19.49985  0.01756  56515.14713  0.18199  0.49011   1806624.06406  44.26007   22.5501  56560.67092    50.48822       43.56421     27.843  67.40936   63.0    0.23833     -19.89  0.77423 
   -18.2025   0.3499  12.61072     14.29972  1.50167  1.56446  3.99073  0.07033     0.45762  6759.77496   7670.73901  1.47878         3498.26487     16.46869    2e-05   56516.0775  1.08779  1.39636   5577400.82185  43.49751  22.48259  56560.67092    50.48489       43.58483   26.37758  61.54768   75.5    0.25646  -19.92234  0.39859 
   -20.2086  0.13118   9.05388     14.06676  1.23218  1.40302  6.68061  0.04324     0.05309  5907.62309   7943.68987  3.35521         3127.62389     18.14475  0.00078   56514.0714  1.39081  0.87639   6896790.27249   43.6072  22.50261  56563.10791    50.48206        43.5965   26.37758  57.15142   67.5    0.22693  -19.88325  0.60215 
  -17.66284  0.43072  11.99514     14.64369  1.55689  0.96404  3.62888  0.10113     0.45016  5713.17047   8144.36121  1.80082         3605.42952     17.24458   0.0001  56516.61716  0.70657  1.56303   1073272.17046  44.27238  22.49995     56559.21    50.47556        43.5924   21.98131  61.22434   69.5    0.22994  -19.88903  0.41567 
  -20.86875  0.25605  10.80665      14.6914  1.42968  0.69713  6.14294  0.07305      0.2929   5669.1453   8523.15877  2.28457         3490.69572     17.44364  0.00015  56513.41125  1.17771  1.57289     642139.6445  44.54907  22.50361  56563.10791    50.46983       43.58388   27.90438  57.09003   66.5    0.20213  -19.88745  0.43408 
  -20.05555  0.25982   11.7729      14.2727  1.34506  1.35954  5.34895  0.05259     0.28601  5438.90173   7770.90335  2.90717         3391.98843     16.11285    1e-05  56514.22445  0.94388  1.38974   4930777.61241   43.5629  22.51227  56560.67092    50.48307       43.57439   26.37758  65.94394   78.5       0.22  -19.87035   0.3943 
  -18.25991  0.49038   8.03182     13.93446  1.23356  1.27472  0.91885  0.25211     0.46171  6362.65157   8006.58446  4.36786         3048.71294     16.94471    5e-05  56516.02009  0.22189  0.45058   9992800.64538  43.55069  22.50939  56560.67092    50.48703       43.60926   24.91216  57.15142   71.5    0.24044  -19.89308  0.78522 
  -25.17497  0.15997   9.58153     14.59745  1.79065  0.38577  4.27951  0.09288      0.0959  7362.77198   7610.17151  0.79498          3386.5706     19.91232   0.0454  56509.10503   1.3839  0.68459    974521.25109  44.57019  22.51714  56563.10791    50.46726       43.56844   29.30842   63.0131   64.5    0.21825  -20.08272  0.75045 
  -19.94294  0.28187  13.40834     14.45709  1.51739  1.00941  5.18553  0.05254     0.38638  5298.91925   8081.00836  3.52025         3170.07726     17.90273  0.00044  56514.33706  0.86855  1.46162    3086668.2807   43.7057  22.53516  56563.10791    50.48483       43.57757    27.9104   62.9457   78.5     0.2243  -19.83047   0.3647 
  -18.28091  0.33702   9.51427     14.68111  1.04805  0.25963   3.9621  0.06833     0.22006  5762.15118   8610.71531  3.43471         3133.69047     18.82903  0.00375  56515.99909  0.78473  1.33532    382575.69725  44.74976  22.51598  56560.67092    50.49189       43.58454   26.37758  63.99825   70.0     0.2434  -19.87786  0.41646 
   -18.9703  0.43616  15.47843     14.71581  1.97588  1.03484  3.58123  0.08571     0.43848  5699.73815   8487.27497  1.50621         3768.18702        18.26  0.00101   56515.3097  0.69402  1.56198   1627091.10204  43.97374  22.49063  56560.67092    50.48243        43.5692   23.44673  67.40936   69.5    0.23716  -19.89177  0.37772 
  -16.01476  0.30009  14.54952     14.62456  1.49103  1.18749  6.24322  0.05058     0.39385  6500.87948   8094.82526  2.08377         3373.00538     18.03414   0.0006  56518.26524  1.57391  1.87354   1651521.88909  43.89875  22.52165  56563.10791    50.46154       43.59792   30.84124  55.61859   76.5    0.25085  -19.93952  0.27389 
  -21.56695  0.22923   9.33549     14.03836  1.38283   1.4277  3.53227  0.07473     0.28935  6063.67839     7834.482  3.21257         3117.33003     17.84191  0.00039  56512.71305  0.77474   0.8097   9378668.30262   43.4972  22.53516  56563.10791    50.52516       43.63215     27.843  61.54768   76.0    0.21058  -19.88823  0.64239 
  -19.53987  0.46135  13.50915     15.10153   1.3446  0.37577  4.43064  0.08295     0.08051      5811.6   7885.73343  1.97664         3360.40202     16.61158    2e-05  56514.74013  0.89266  2.04408    142758.08516  44.98158  22.53839  56563.10791    50.48367       43.58066   30.77384  60.08226   86.0     0.2014  -19.83104  0.25708 
  -18.42558  0.36265  13.22783     14.59887  1.58495  1.44564  4.76685  0.07606      0.1128  5610.69655   8802.98069  2.57538         3324.00551     17.73559   0.0003  56515.85442  0.89514   1.7287   1633332.14495  44.01281  22.49113  56560.67092    50.48539       43.59705     27.843  67.31334   70.0    0.22032  -19.87877  0.35187 
  -19.97152  0.39328   13.2211     14.51346  1.78417  1.55573   3.6894  0.10013     0.49973  6599.71889   8076.95924  1.17973          3609.6006     17.82307  0.00037  56514.30848  0.95859  1.45095   2721929.55571  43.84287  22.47294  56560.67092    50.48501       43.58866     27.843  59.75892   65.0    0.24471  -19.94973  0.43373 
  -19.82125   0.4504  16.52682     14.57559  1.64052  1.40494  4.24429  0.08299     0.40758   5977.2859   7440.03899  3.34022         3052.06093       16.588    2e-05  56514.45875  0.90457  1.91162   2937599.19612  43.57946  22.51522  56560.67092    50.48675       43.60842   23.44673  61.54768   86.0     0.2032   -19.8794  0.24675 
  -17.97635  0.35206  13.79859     14.72424  1.41099  0.88195  5.53719  0.06008     0.13524   6154.2588   7942.05089  1.55872         3682.67934     16.86341    4e-05  56516.30365  1.25103  1.94942     888245.9819  44.19017  22.58009  56563.10791    50.47421       43.57119    27.9104  62.45941   81.0    0.23565  -19.91039  0.27135 
  -20.11758  0.26262   9.19557     14.14341  1.24644  1.35545   3.7208  0.08139     0.48232  5638.32846   8014.64006  3.04268         3275.68104     19.03845  0.00607  56514.16242  0.70561  0.97715   5056110.31792  43.73354   22.6017     56563.22     50.4865       43.61083   30.77384  55.68599   66.0    0.23003  -19.91437  0.57525 
  -21.81323  0.32568  10.58428     14.31879  1.64173  1.32748  2.89262  0.11342     0.34033  5377.75335   8476.03007   1.5358         3794.51917     16.33228    1e-05  56512.46677  0.49902  0.94207   3934191.90279  43.83997  22.52523  56563.10791    50.50896        43.6039   22.56825  60.96074   61.5    0.21429  -19.91812  0.61659 
  -23.15362  0.19874  10.55147     14.70268  1.59287   0.3016  5.19059  0.06635     0.13311  6708.84476   8194.88599  1.17687         3357.16693      16.7143    3e-05  56511.12638  1.39361  1.03159    647539.04709  44.61313  22.51211     56559.21    50.46326       43.56276   24.91216  67.40936   68.0    0.21486  -19.93603  0.57988 
  -19.55219  0.44346  10.99393     14.68513  1.20998  0.33861  3.16568  0.10985     0.43838  6530.26829   8127.03488  4.04507         3091.50502     16.02244    1e-05  56514.72781   0.8053  1.40384     578957.5616  44.50667  22.55446     56563.21    50.48278       43.58293   29.37582  60.01486   70.0    0.23736  -19.92321  0.38699 
   -22.3606  0.20013  11.56562     14.29502  1.69049  1.28969  5.38727  0.05468     0.45772  5736.03222   8403.53863  1.59403         3544.94251     16.94641    5e-05   56511.9194  1.05735  1.07814   5396583.85663   43.6384  22.51816  56560.67092    50.47509       43.59027   26.37758  65.94394   69.0    0.20979  -19.88867  0.54822 
  -19.50546  0.41413  12.55514     14.70043  1.30183  0.38563  3.69371  0.06918     0.48174  5444.62652   7889.14698   2.4147         3496.03442     17.75331  0.00031  56514.77454  0.65317  1.52968     757105.3074   44.3066  22.51006  56563.10791    50.50744       43.63074   26.37758  55.57972   82.5     0.2292  -19.85054  0.33101 
  -15.26171  0.48017  11.53866      14.7376  1.74797  1.00693  3.06553   0.1525     0.47601  6458.42201   7909.00936   2.7283         3349.43351     18.46636  0.00163  56519.01829  0.76276  1.47197    723519.98785  44.52762  22.49114  56560.67092    50.47795       43.56376   26.37758  63.99825   60.5    0.24793  -19.96353  0.49379 
  -13.59116  0.46739  13.06302     14.97921  1.76372  0.96784  4.26855  0.08834     0.43752  6089.17143   8077.65702  3.48834         3244.66708     19.34394  0.01227  56520.68884  0.94411  1.99509      307553.207  44.79527  22.56267  56563.10791    50.48818       43.56726   30.77384  64.47852   80.5    0.23452  -19.92676  0.36462 
  -17.45536  0.42667  15.61658     14.84502  1.63344  0.51695  3.92613    0.078     0.48779  6143.10693   7908.45856  3.35833         3190.52584     17.40924  0.00014  56516.82464  0.88383  1.67518    755189.85647  44.21672  22.50842  56563.10791    50.49132       43.61125   26.37758  57.15142   77.5    0.24989  -19.90349  0.29367 
  -21.10788  0.33217  10.85884     14.52131  1.80156  1.44103  5.18053  0.07705     0.49699  5375.17367    8690.7427  2.60497         3385.09506     20.50035  0.17582  56513.17212  0.89287  1.72079   1788171.02124  44.20052  22.49099  56560.67092    50.49303       43.58507   26.37758   63.0131   65.0    0.19863  -20.08905  0.49459 
  -20.93587  0.33909  11.10945     14.41625  1.37119  0.65464  4.43548  0.07301     0.45621  6425.47296   8123.10528  1.54888         3517.96793     19.88034  0.04218  56513.34413  1.09239  1.50403   2310971.30975  43.95076  22.49764     56563.22    50.47796       43.60256   29.30842  55.68599   74.5     0.2221   -19.9642  0.40825 
  -19.10429  0.23162   9.52988     14.88722  1.18562  0.16507  4.92684  0.05907         0.5  6080.41788   8047.72862  3.21542         3151.30516     16.38377    1e-05  56515.17571  1.08658  1.14116    168068.84252  45.15913  22.47208  56560.67092    50.50117       43.61136   26.37758  58.61684   70.0     0.2344  -19.91118  0.49915 
  -20.13759  0.42605  10.56599     14.21464  1.54103  1.40375  2.25337  0.11149     0.42533  5404.76336   8047.01291  1.92077         3605.78395     17.20157    9e-05  56514.14241  0.39266  0.96004   5945275.24944  43.63466  22.50101  56563.10791    50.49486       43.58294   24.91216  64.47852   71.5    0.22327  -19.89857  0.58698 
  -23.92869  0.28107  10.07286     14.07094  1.72207  1.50611  3.70952  0.05433     0.30266  5147.57839   6684.99895  1.35188         3590.50859     20.04186  0.06118  56510.35131  0.58634  1.04262   11703074.4588  43.43029  22.55131  56560.67092    50.48868       43.57043   29.30842  64.47852  107.0     0.1563   -19.8724  0.61926 
  -19.63915   0.4991  13.06432     14.74684  1.59968  0.86227   3.5717  0.13035     0.31272  7201.21799   7578.72692  1.59932         3252.48364     19.07834  0.00665  56514.64085  1.10488  1.78263    813476.90984  44.33036  22.46469     56563.22    50.50821       43.61798   29.30842  55.68599   70.5    0.23797  -19.94718  0.35416 
  -17.20289  0.35417  13.60523     14.92879  2.07504  1.03249  4.74914  0.09947     0.49102  6336.51869   7884.89725  2.80852         3249.36896     16.53459    2e-05  56517.07711  1.13748    1.682    495086.39306  44.62378   22.5325  56560.67092    50.48144        43.5704   26.37758  65.94394   69.5    0.22911  -19.90606  0.44342 
  -19.14226  0.33099  11.89198     14.32679  1.42215  1.50057  4.37923   0.0675     0.37943  5886.49062   8696.39577  3.48607         3200.56669     19.83693  0.03816  56515.13774  0.90519  1.44947   4146631.14731  43.65359  22.51673     56563.21    50.48266       43.57761   29.30842   63.0131   67.0    0.24456  -19.94315  0.40086 
   -21.1794  0.44878   10.5457     14.23046  1.71393  1.20331  1.43491  0.22356     0.33227  6775.73527   7938.13613  3.23783         3114.92954     17.65864  0.00025   56513.1006  0.39298  0.64396    6123957.7461  43.66966  22.53551  56560.67092    50.45168       43.58847     27.843  58.61684   64.0    0.24264  -19.96529  0.71193 
  -21.04207  0.27226   9.73262     14.12361  1.46321  1.51562  3.19478  0.09925     0.10758  6207.61881   7344.32929  2.67708         3141.19157     18.50651  0.00178  56513.23793  0.73437  0.86982   7283725.74512  43.59534   22.6092  56563.10791     50.4874       43.57132   30.77384  64.47852   72.5    0.22102  -19.92799  0.62937 
  -18.25227  0.34536  20.02331     14.75922   2.0009  1.09493   5.3963  0.05445     0.02967   5253.7906   7764.69058  4.91217         3100.32656      18.3205  0.00116  56516.02773  0.88852  1.86369   2257717.86957  43.61333  22.53219  56563.10791    50.48938        43.5908   29.30842  60.08226   81.0    0.21356  -19.85459  0.23549 
  -17.77889  0.48363  15.60858     14.96642  1.93392  0.81402   3.8355  0.10858     0.41364  6018.88698   7984.93247  2.65422         3324.90225     17.70442  0.00028  56516.50111  0.82886  1.85495    510658.15488  44.46043  22.51036  56563.10791    50.46526       43.60545   29.30842  58.61684   77.0    0.20947  -19.88369  0.32988 
   -20.9924  0.18064   7.64072     14.42806  1.18468  0.31619  3.04461  0.08936     0.21687  6145.12978   8000.03321   4.6439         2974.62786      19.9267  0.04693   56513.2876  0.68584  0.54998    894459.88371  44.62462  22.50736  56560.67092    50.49451       43.57827     27.843  67.31334   68.5    0.23036  -19.95165  0.75915 
  -18.38328  0.48767  19.94373     14.90674   2.1142  0.70051  4.26308  0.06239     0.42214   5860.7376   7605.55689  1.99767         3469.30342     20.25937  0.10095  56515.89672  0.87348  2.07896   1199763.04347  43.91528  22.55021  56563.10791     50.5231       43.61894     27.843  61.54768   90.0    0.22705   -19.9592  0.23196 
  -20.94822  0.34007  17.58365     15.09435  1.99355  0.49072  5.33651  0.07585     0.14629  6025.25158   7993.17968  3.08468         3178.43739     16.80032    4e-05  56513.33178  1.15567  1.81481    370646.13816   44.5093  22.54037  56560.67092    50.44441       43.60131     27.843  57.15142   79.0    0.20501  -19.86532  0.29186 
    -19.241  0.36815  11.64911     14.22879  1.34008  1.25422  4.07623  0.06593      0.4962  5988.65299   7487.77623  1.97556         3486.29839     18.87443  0.00416    56515.039  0.87206  1.50065   5887773.51987  43.49344  22.52309  56560.67092    50.47864       43.56454     27.843  65.94394   83.5    0.21981  -19.91475  0.37761 
  -17.09908  0.37887  15.49981     14.75574  1.73836  1.07871  5.07218  0.07867     0.32192   7267.6358   8115.34029  1.78724         3349.12988     17.04869    6e-05  56517.18092  1.59812  1.92168   1194361.02855   44.0512  22.49567  56560.67092    50.49243       43.56507   26.37758  67.40936   72.5    0.25375  -19.98885  0.29014 
  -18.21585  0.47942  12.04983     14.48487  1.33197  1.12974  3.51071  0.11626     0.21075  6313.46349   8075.46071  3.32034          3210.9759     17.10789    7e-05  56516.06415  0.83475  1.68309   1925417.41774  43.94685  22.57637  56563.10791    50.47082       43.61416     27.843  55.57972   72.0    0.23206  -19.93193  0.34021 
  -18.02262  0.31457  13.23337     14.75304  1.27017  0.58442  5.94992  0.06017     0.29327  6204.23985   8080.25672  2.76401         3210.10433     18.05333  0.00063  56516.25738   1.3662  1.87164    644073.14049  44.32043   22.5351  56560.67092    50.49106       43.57462     27.843  65.94394   78.5    0.23056   -19.8888  0.26404 
