 texplosion  fnickel    Pspin  log(Bfield)      Mns  thetaPB   mejecta    kappa  kappagamma     vejecta  temperature    alpha  cutoff_wavelength  log(nhhost)      A_V         MJD0  kenergy  mnickel             TSD   log(L0)  Peak_mag     Peak_MJD  log(E_rad)  log(Peak_lum)  Rise_Time    E_fold  tau_1  delta_m15     r_peak     frac 
   -9.02987  0.31432  2.16133     13.38124  1.60642  1.48459   6.36481   0.1054     0.01083  6514.05522   4450.63079  2.51611         2490.36061     18.05002  0.00062  55016.34813  1.61107  2.00062   12040105.5527  44.72463  18.31615  55086.10286    51.46086       44.61981   45.05438  53.09222   74.0    0.11271  -21.87295  0.94316 
   -8.65396  0.01925  1.70772     13.32861  1.08557  1.16511   6.12077  0.12613     0.02123  6436.76521   3402.60808  2.23812         2571.21771     16.62085    2e-05  55016.72404  1.51275   0.1178    6472710.4538  45.02859  18.30326  55088.57302    51.46221       44.61777   41.22157   54.9621   77.5    0.09825  -21.83496  0.99619 
   -8.69954  0.02147  2.49406     13.75056  1.86085  0.94959  10.34959  0.08627     0.01325  6569.86125   4352.05682  2.46773         2472.82646     19.07546  0.00661  55016.67846  2.66479  0.22219   3390145.10128  45.21453  18.33714  55086.10286    51.45534       44.60896   45.05438  53.09222   74.5    0.09879  -21.86721  0.99323 
   -8.32743  0.12281  2.19759     13.81181  1.57661  0.52229    9.3772  0.09356     0.01006  6471.78414   5148.35934   2.1625         2663.72073     16.24776    1e-05  55017.05057  2.34287  1.15159   1681942.59316  45.55687  18.35495  55086.10286     51.4806       44.63287   41.38305  54.80061   70.5    0.10794  -21.89886  0.96575 
   -7.93629  0.31844   2.7507     13.62394   2.0316  1.37704   7.53781  0.07956     0.01058  6282.13454   4558.81836  2.44976         2587.99023     16.60956    2e-05  55017.44171  1.77455  2.40033   8065899.01964  44.79114  18.29845  55086.10286    51.45759       44.62448   45.14744  51.03623   77.0    0.10923  -21.84525  0.92526 
   -7.92387  0.00488  2.38107     13.76029  1.76345  0.82688   8.08179  0.11758     0.01578  6755.68109   3492.09751  2.22006         2528.42587     16.44421    2e-05  55017.45413  2.20025  0.03944   2799913.10367  45.31452  18.31666  55086.10286    51.46373       44.62063   45.05438  51.21186   69.5    0.10362  -21.88598  0.99881 
   -8.33157  0.00434  2.25686     13.61575  1.63725  1.41732   6.51633   0.1414     0.02345  6367.39384   3353.26816  2.22854         2610.40192     17.51016  0.00018  55017.04643  1.57599  0.02825   4543950.97713  45.11852  18.30104  55088.57302    51.46473       44.61894    43.1845   54.9621   74.5    0.09811  -21.85283  0.99915 
   -6.76508  0.17076     1.98     14.06065  1.33786   0.2823   6.13774  0.14571     0.02462  6558.31373   4818.50511  2.25422         2587.53465     17.09668    7e-05  55018.61292  1.57478  1.04808    368349.65397  46.23567  18.31032  55091.04317    51.47227       44.61372   45.14744   54.9621   73.0    0.09977  -21.85438  0.96811 
   -7.01877  0.00223  2.05443     14.06014  1.58159   0.4161   15.9106  0.07342     0.01294  6622.62568   3693.81735  2.09007         2601.63037     19.06091  0.00639  55018.35923  4.16269  0.03555    469898.70087  46.17055   18.3365  55086.10286    51.45521       44.60848   41.22157   54.9621   71.5    0.09545  -21.87377  0.99908 
   -7.16643  0.29482  2.17923     13.54217  1.48695  1.06147   7.61578  0.09619     0.01137  6245.52772   5460.91741  2.62298         2557.48223     18.27829  0.00105  55018.21157  1.77207  2.24525   5399773.03802  45.03216  18.33415  55088.57302    51.46935       44.61915   45.05438  53.09222   74.0    0.10673  -21.85603  0.93083 
   -7.88048  0.08468  2.77018     13.85399   2.1734  1.02459   7.47198   0.1266     0.01492  6135.35086   5739.94927  2.25424         2707.89677     16.34417    1e-05  55017.49752  1.67781  0.63269   3033833.61223  45.23898  18.32689  55088.57302     51.4532       44.60996   45.14744  52.99916   72.0    0.10369  -21.87157  0.98148 
   -8.84591  0.06249  2.45083      13.5085  1.88048  1.45177   6.79391  0.09494     0.01097  6436.73346   5528.98943  2.05874         2668.10347     17.69094  0.00027  55016.53209  1.67911  0.42452  10085572.39747  44.76079   18.3292  55086.10286    51.44723       44.62311   43.09145  49.16635   74.0    0.11288  -21.86707  0.98728 
   -8.10203  0.19427   2.4157     13.90075  1.75465  0.59507   7.29064  0.12469     0.01857  6664.28149   3464.97435  1.92457         2667.74912     17.01247    6e-05  55017.27597  1.93152  1.41638   1501706.93042  45.57036  18.30146  55088.57302    51.47506       44.63351   45.05438  51.21186   72.5     0.1012   -21.8857  0.95755 
   -9.42357  0.00437  2.52395     13.61752  1.92267  1.41235     8.295  0.09478      0.0107  6370.68858   3218.46652  2.23356         2575.25514     18.11537  0.00072  55015.95443  2.00824  0.03623   6619881.69007  44.92774  18.34033  55086.10286    51.45963       44.61888   41.22157  53.08174   72.0    0.10884  -21.86586   0.9989 
    -8.3501  0.08972  2.26138     13.47109  1.72874  1.54399   7.01299  0.10963     0.01002  6683.15492   3351.20219  2.01178         2617.09939     17.89396  0.00044   55017.0279   1.8685  0.62923   9378073.34907  44.82571  18.31537  55088.57302    51.46491       44.62061   45.05438  53.09222   70.0    0.11962  -21.90065  0.98206 
    -8.9585  0.00157  1.90789     13.50221  1.38268  0.65356   7.06482   0.0964     0.01055  6773.06517   3001.93814  2.28523          2470.3192     17.34869  0.00012   55016.4195   1.9333  0.01111   4626075.98606  45.18325  18.32806  55088.57302    51.46142       44.61044   41.22157   54.9621   72.5    0.11154  -21.87228  0.99968 
   -7.46963  0.06699  2.25357      13.6899    1.686  1.37334  12.29663  0.08198      0.0113  6240.17497    3436.3569  2.60831         2540.03055     17.09192    7e-05  55017.90837  2.85632  0.82371   3315944.95122  45.26935  18.30988  55086.10286    51.46499       44.62791   45.05438  51.21186   71.0    0.10056  -21.84793  0.97698 
   -7.85415  0.07986  2.20929     13.59382  1.55048  1.43297   7.91577  0.11788     0.01995  6729.22938   4376.18482  2.05827         2567.35127     16.34739    1e-05  55017.52385  2.13821  0.63217   4561985.00402  45.11165  18.30032  55086.10286    51.46421       44.62845   43.09145  51.21186   72.5    0.10371  -21.85269  0.98053 
   -7.61731  0.02702  2.38216     13.69033  1.78284   1.5377   7.64898  0.12616     0.02004  6271.45382   4186.31203  2.48977         2562.75677     17.10037    7e-05  55017.76069   1.7946   0.2067   3910219.38311  45.17382  18.33471  55086.10286    51.45559       44.61852   41.22157  53.07935   74.5    0.09377   -21.8463  0.99394 
   -8.16138  0.05445  2.11672     13.48182  1.51461  0.97835   6.75894   0.0955     0.01061  6243.01247   4333.97885  2.54451         2551.94319     18.10228   0.0007  55017.21662  1.57143  0.36801    6851709.4733  44.96202  18.34014  55086.10286    51.45897       44.61526    43.1845  53.08174   75.0    0.11262  -21.84533  0.98872 
   -7.85189  0.05219  2.17046     13.64676  1.54057  0.70539   7.32843  0.09336     0.01081  6180.35369   5090.04491  2.48165         2587.48216       17.102    7e-05  55017.52611   1.6698  0.38248   3428314.15503  45.24834  18.32257  55088.57302    51.46164       44.61246   43.09145  54.40957   72.5    0.11437  -21.84913  0.98813 
    -7.9968  0.00137  2.42756     13.94417   1.7936  0.62358  11.67265  0.08131     0.01388  6454.98459   4263.85739  2.33023         2548.01295     16.08472    1e-05   55017.3812  2.90126  0.01599   1269209.63411   45.6487  18.35086  55086.10286    51.47327        44.6212    43.1845   54.9621   73.5    0.10301  -21.82482  0.99952 
    -7.7117  0.00344  2.29375     13.68675  1.69461  1.23468   9.75602  0.10936     0.02164  7268.98757    3015.8844   1.7434         2632.46927     16.66237    3e-05   55017.6663  3.07502   0.0336   3503268.28043  45.23235  18.31138  55088.57302    51.44964       44.60976   47.11037  51.03623   70.0    0.10338  -21.91492  0.99901 
   -7.70212  0.27286  2.49409     13.69061  1.79736  1.09624   8.95427  0.09385     0.01181  6342.10088   3508.58445  2.26423         2638.48902     18.45597  0.00159  55017.67588  2.14844  2.44326    4315744.1457   45.0946  18.29049  55086.10286    51.46459       44.62207   45.06392  53.08268   72.5     0.1018  -21.87599  0.92671 
    -7.6264  0.00897  2.47093     13.63951  1.80791  1.55142   9.13137  0.09149     0.01498  6809.32463   3487.98134  2.07985         2652.74279     17.85072  0.00039   55017.7516  2.52564  0.08192   5391257.19835  45.00861  18.29905  55088.57302    51.47019        44.6206   43.09145  54.40957   71.5     0.1088  -21.89791  0.99743 
   -8.88682  0.10387  2.55053     13.95457  1.90066  0.49087   6.44016   0.1169     0.01511  6459.81697   4164.14748  2.09891         2616.74126     18.97355  0.00523  55016.49118  1.60311  0.66892    1415293.4162  45.58364    18.327  55086.10286    51.45877       44.62104   41.22157  53.08174   72.5    0.11008  -21.86825  0.97943 
   -7.29431  0.00876  2.55731     14.01265  2.09711  0.72773   10.2855  0.11603     0.01717  6764.38132    3573.7323  1.94013         2663.36688     17.02371    6e-05  55018.08369  2.80743  0.09006   1201422.21196   45.6952  18.29909  55088.57302    51.46607       44.62259    43.1845  52.99916   67.0    0.09785  -21.89941  0.99762 
   -6.63703  0.00175  2.69956      13.8382  2.17745  1.37871  15.13315  0.07115     0.01023  6578.86058   5226.64463  2.32047         2620.22091     18.33544   0.0012  55018.74097  3.90713  0.02655   3104262.27346  45.25225  18.28395  55091.04317    51.45992         44.611   47.11037  52.35358   69.0    0.10177  -21.89786  0.99926 
   -5.96822  0.01316  1.99421     14.05394  1.50295  0.39328    6.9946  0.16156     0.02781  6424.90426   5652.81669  2.49822         2572.78061     17.25729   0.0001  55019.40978  1.72236  0.09202    432927.81542  46.20983  18.31422  55086.10286    51.45755       44.61964   45.14744   51.1188   71.5    0.09914  -21.86238  0.99757 
   -6.92039  0.00288  2.25188     14.24317   1.7732  0.31837  14.33371  0.08208     0.01262  6562.17876   3956.29055  2.07884         2661.49853     18.04229  0.00061  55018.45761  3.68198  0.04127    272474.75929  46.37719  18.31219  55088.57302    51.46032       44.62082   45.05438  51.21186   69.5      0.098   -21.8758  0.99891 
   -8.24398  0.09653  2.27848     13.71001  1.67309  0.94992   7.11491  0.13003      0.0161  6186.50265   5387.81019  2.28892         2627.15255     17.16437    8e-05  55017.13402  1.62438  0.68684    3066176.2743  45.29048   18.2899  55088.57302     51.4574       44.61808   45.14744  52.99916   72.5    0.10109  -21.85838  0.97991 
   -7.79279  0.11459  2.19714     13.57737  1.58608  1.53987   6.38985  0.15401      0.0208  6736.29987   3573.87316   2.6255         2452.45581     16.50025    2e-05  55017.58521  1.72966  0.73224   4978568.79314  45.08835  18.32988  55088.57302    51.46364       44.61067   41.22157   54.9621   70.0    0.10444  -21.89427  0.97842 
  -10.01623  0.00263  2.33304     13.63949  1.71035  1.30253   8.03164  0.11418       0.019  6169.65336   3839.80769  2.27722         2584.05493      17.5521   0.0002  55015.36177   1.8237  0.02109   4547394.39446  45.10832  18.34533  55086.10286    51.47502       44.61878    43.1845   54.9621   78.5    0.08964  -21.83081  0.99936 
    -8.9523  0.00272  2.43414     13.70467  1.86797  0.70734   6.81525  0.09768     0.01031  6228.32153   7801.37032  2.10374         2680.71045     17.08294    7e-05   55016.4257  1.57707  0.01852   4004432.48739  45.16498  18.32193  55088.57302    51.45785       44.61479   43.09145  53.09222   70.5    0.11228  -21.85473  0.99944 
   -8.62837  0.03019  2.14046     13.57182  1.68952  0.64112   6.22102  0.09679     0.01041  6552.59802    4514.2551  2.12246         2611.30341      16.6672    3e-05  55016.74963  1.59337  0.18779   5163569.89271  45.12264  18.30681  55086.10286    51.46096       44.62161    43.1845  53.08174   76.0    0.11137  -21.87151  0.99479 
   -8.09168  0.00209  2.09694     13.70539  1.53922  1.02775  10.47954  0.10108     0.02401  6537.31558   3197.78113  2.03116         2636.22873     16.93621    5e-05  55017.28632  2.67158  0.02188   2440666.20144  45.42547  18.33469  55088.57302     51.4611       44.61505   41.22157   54.9621   77.0    0.09661  -21.84369  0.99938 
   -8.13217  0.00171  2.07661     13.55138  1.49971  0.81751     9.658  0.08046     0.01031  6995.25462   5061.76188  2.24561         2531.38467     18.56789  0.00205  55017.24583  2.81917  0.01654   4739917.19471  45.13437  18.29227  55088.57302    51.46792       44.62454   45.14744  52.99916   71.5    0.11255  -21.92851   0.9995 
   -7.47305  0.01071  2.35825     13.66092  1.73017  1.45116   9.35986  0.09729     0.01764  6524.17976   5287.72781  2.65283         2439.64964     16.70402    3e-05  55017.90495  2.37656  0.10025   4258434.16939   45.1325  18.29873  55088.57302    51.46486       44.62142   45.14744  52.99916   75.0    0.09729  -21.84643  0.99697 
   -8.04397   0.0146    2.185     13.54889  1.53965  1.11791   9.98378   0.0839      0.0119  6778.39675   3391.62779  2.35241         2541.25735     18.10505  0.00071  55017.33403  2.73638  0.14577   5449448.07782  45.04101   18.3561  55086.10286    51.46115       44.61746   41.22157  53.08174   71.0    0.10593  -21.89001  0.99543 
   -8.90737  0.03704  2.51042     13.69571  1.95027  1.45968   8.70631  0.11454     0.01245  6606.24307   5334.38623  2.37685         2557.29934     17.79741  0.00035  55016.47063  2.26658   0.3225   4634305.05984  45.09346  18.31089  55088.57302    51.46677       44.62048   41.22157   54.9621   67.0    0.11147  -21.91196  0.99077 
   -7.41405  0.01079  2.21631     14.24237  1.89083  0.39658   19.1091  0.07335     0.01791  6614.16507   3577.73788  2.01976         2671.33865     18.76789  0.00326  55017.96395  4.98675  0.20617     282475.8612  46.40326   18.3404  55086.10286    51.47754       44.63466   41.22157  53.08174   73.0    0.09432  -21.87013  0.99527 
   -9.34376  0.01542  2.10195     13.49926  1.52126  1.23714   7.17073  0.12119     0.01309   6368.5345   4738.04087  1.82924         2819.36265     16.43621    2e-05  55016.03424  1.73488  0.11058   6262383.51628  45.00906  18.33163  55088.57302    51.45363       44.61849   45.05438  51.21186   71.0    0.10564  -21.90366  0.99672 
   -8.42202  0.15123  2.24557      13.6562  1.60658  1.19914  11.58983  0.08582     0.01211  6636.62382   3430.37504   2.0242         2635.42903     17.51618  0.00018  55016.95598  3.04508  1.75279   3664184.49491  45.20812  18.33232  55088.57302     51.4514       44.61161   43.09145  51.21186   70.5    0.10244  -21.87703  0.94895 
   -8.69219  0.19057  2.00075     13.54565  1.44978  1.43936   8.08727  0.13335     0.01192  6192.20763   7430.59049  2.35945         2614.58423     17.35797  0.00013  55016.68581  1.84978  1.54122    4367216.0936  45.18756  18.28886  55086.10286    51.46001       44.62469   45.14744   51.1188   66.0    0.10684   -21.8752  0.95804 
   -9.24221  0.03025  2.58312     13.99499  2.00845  0.52376   7.23072  0.13079     0.01596  6688.50082   3509.20536   2.1167         2551.91594     17.21653    9e-05  55016.13579   1.9296  0.21871   1273467.29592  45.64243  18.32834  55086.10286    51.46336       44.62232    43.1845  53.08174   70.5     0.1075  -21.90301  0.99362 
   -8.48238  0.15024  1.93534     13.51901  1.38658  1.23861    8.3547  0.12959     0.01215  6653.50741   7915.47255  2.41091         2513.72827     19.05803  0.00635  55016.89562  2.20627  1.25517    4418304.7078  45.19202   18.3249  55088.57302    51.45644       44.61808   43.09145  51.21186   60.5     0.1124  -21.90885  0.96545 
    -7.7201  0.23409  2.34518     13.66794   1.7359  1.06127   6.10347  0.15696     0.01911  6828.78717   5224.69001  2.29574         2525.92998      19.1297  0.00749   55017.6579  1.69782  1.42877   4090935.50154  45.15619  18.30023  55086.10286    51.45603        44.6256   45.05438  50.45772   69.5    0.10336  -21.92532  0.95876 
   -8.99304  0.00771  2.31796     13.48707  1.72529  1.32594   8.84414  0.08318     0.01122  7076.53028   3782.22991  1.94916         2541.30905     16.90881    5e-05  55016.38496  2.64194  0.06817   9135656.30274  44.81476  18.32287  55086.10286    51.45384       44.61708   45.05438  51.21186   73.0    0.11147  -21.90014  0.99791 
   -7.85662  0.00143  2.42638     13.70297  1.82542  1.55402   7.92137  0.13355     0.02298  6942.32355   3762.38003   2.5309         2451.31291     17.65977  0.00025  55017.52138  2.27739  0.01131   3918806.72526  45.16714  18.30037  55088.57302    51.46676       44.61636   41.22157   54.9621   72.0    0.09861  -21.88959  0.99967 
   -7.27262  0.00137  2.57807     13.80239  1.99666  1.37414   7.78434  0.13421     0.03077  6871.30426    5544.5989  2.28972         2494.66492     17.12697    7e-05  55018.10538  2.19244  0.01069   3061400.46857  45.26064   18.3347  55086.10286    51.44491       44.60543    43.1845  52.99916   74.5    0.10125  -21.86589  0.99969 
   -8.38899   0.0129  2.43062      13.7949  1.78696  0.61256   8.99598  0.07486     0.01167  6442.11507   3077.51011  2.26984         2503.35818     18.97626  0.00526  55016.98901  2.22706  0.11607   2520942.11706  45.34796  18.29639  55088.57302    51.46146       44.61191    43.1845   54.9621   77.5    0.10212  -21.84386  0.99635 
   -7.29754  0.00701  1.97588     13.94162  1.36893  0.36312   8.43022  0.10414     0.01343  6208.22303   4417.96532  2.20799         2719.53336     18.57846   0.0021  55018.08046  1.93821  0.05907    649346.62707  46.00123  18.30856  55091.04317    51.45053       44.61458   43.09145  53.09222   71.5    0.10495  -21.86111  0.99821 
   -7.00724  0.01503  2.29719     13.75671   1.7419  1.18454   6.53208   0.1644     0.03034  6549.26251   5405.50833  2.37723         2575.07637     17.42601  0.00015  55018.37076  1.67133  0.09816   2617102.64941  45.36965  18.26355  55088.57302     51.4705        44.6281    43.1845  52.99916   73.0    0.09801  -21.85232  0.99724 
    -7.6282  0.32998  2.60873     13.80873   1.9196  0.82575   7.32724   0.1224      0.0144  6648.65394   4209.59629  2.17181         2611.09703     17.64401  0.00024   55017.7498  1.93212  2.41782   2926991.66893  45.25278  18.32051  55088.57302    51.46308        44.6231   41.22157  53.08174   70.0    0.10646  -21.89666  0.92794 
   -7.68217  0.00236  2.39965     13.81872   1.9371  1.44951   9.30947  0.11914     0.02286  5995.75616   3510.01941  2.35351         2663.09865     17.79083  0.00034  55017.69583  1.99637  0.02199   2386816.24729  45.41788  18.29638  55086.10286    51.47092       44.62727   41.22157  53.08174   75.0     0.0938  -21.81454  0.99943 
   -7.50429  0.00306  2.24005      14.0465  1.69216  0.42006   6.30018  0.17368     0.02961  6903.52434   7171.84879  2.20059         2529.43497     19.23128  0.00946  55017.87371  1.79111   0.0193    636465.89791    45.993  18.33353  55086.10286    51.44708       44.61845   43.09145  50.45613   69.0    0.09891  -21.90829  0.99946 
   -8.54886  0.00124   2.0832     13.53648  1.50705  0.92012   7.54298  0.09666     0.01039   6151.5946   3305.99178  2.36756         2577.56161     19.30817   0.0113  55016.82914  1.70273  0.00939   5133950.39091  45.09906  18.32914  55088.57302    51.45896        44.6139   45.05438  53.09222   74.0    0.11258   -21.8605  0.99972 
   -7.62855  0.00461  2.02327     13.95971  1.49302  0.47447  14.11808  0.07251     0.01097  6044.17884   5685.63751   2.5812         2584.28359     17.65331  0.00025  55017.74945  3.07664  0.06512    683233.12736  45.99623  18.32923  55088.57302    51.46085       44.61912   41.22157  53.08174   73.5    0.09943  -21.82352  0.99821 
    -9.2661  0.12043  2.54535     13.81917  2.00763  0.57276    6.0597  0.12322     0.01597  7104.26946   3168.98515   2.3673         2417.58055      19.1384  0.00764   55016.1119  1.82439  0.72976   2777543.40895  45.31637   18.3026  55088.57302    51.45216       44.60841   45.05438  53.09222   73.0    0.11043  -21.93041  0.97887 
     -8.488  0.04645  2.38928     14.01864  1.81074  0.33279    7.0269  0.10107     0.01016  6056.43083   3088.95878  2.40702         2643.34851     16.53108    2e-05     55016.89  1.53753  0.32643    880904.36565  45.82524  18.30739  55088.57302    51.45583       44.61299   45.14744  52.99916   74.0    0.11126  -21.86731  0.99029 
   -8.95608  0.13382  2.49456     13.70453  1.85274  0.80652   7.04972  0.10193     0.01194  6502.04496   5286.22641  2.07897         2648.75493     17.23104    9e-05  55016.42192  1.77787  0.94341   4174066.50607  45.12211  18.33897  55088.57302    51.48486       44.61787   41.22157   54.9621   72.5    0.11044  -21.87264  0.97106 
   -8.36954  0.01344  2.21523      13.5498  1.72088  0.84691   7.56092  0.08437     0.01061  6855.62055   4534.68103  2.10657         2571.33431     19.71825  0.02904  55017.00846   2.1198  0.10165   6234415.84551  45.01896  18.30498  55088.57302    51.46419       44.62695   43.10099  53.08268   74.5    0.11316  -21.92653  0.99712 
   -6.86833  0.06381  1.95742     13.37162  1.30603  1.46329   6.68323   0.0997     0.01505  6431.75819   5212.63158  2.19221         2634.29698     16.58802    2e-05  55018.50967   1.6492  0.42648    8392547.2606  44.87754  18.33735  55086.10286    51.47002       44.62148   39.52661   54.7767   75.5    0.10396  -21.85208  0.98627 
   -9.31408  0.04864  2.24318     13.65396  1.62072  1.05444  13.30922  0.07467     0.01154  6901.03337   4375.52316  1.93322         2629.21463     16.93958    5e-05  55016.06392  3.78101  0.64731   3726831.33237  45.20548  18.33212  55088.57302    51.47185       44.61805   41.22157   54.9621   70.5    0.09844  -21.90676  0.98071 
   -7.26936  0.00229  1.87301     13.62248  1.39491  1.15947    8.1304   0.1409     0.02135  6144.14483   4428.07658  2.06647         2758.07153     18.93923  0.00483  55018.10864  1.83089  0.01864   2585093.57182  45.45583  18.32963  55086.10286    51.45716       44.61083    43.1845   54.9621   71.5    0.09379  -21.85033  0.99951 
   -8.04625  0.03697  2.55558     13.91294  1.96385   0.7152   8.59279   0.1126     0.01491  6405.75728   4688.88769  2.07424         2641.44573     19.29529  0.01097  55017.33175   2.1033  0.31766   1778343.40353  45.49696  18.34599  55088.57302    51.46187       44.61308   41.22157   54.9621   72.0    0.10238  -21.86817  0.99072 
   -9.18943  0.00727  2.13642     13.63446  1.60178  0.60228   6.24846  0.10075     0.01203  6490.76977   3493.97682  2.15573          2560.0975     16.10273    1e-05  55016.18857  1.57034   0.0454   3654801.31662  45.25121  18.36601  55088.57302    51.45634       44.60698    43.1845   54.9621   76.5    0.10928  -21.86629  0.99867 
   -8.65808  0.10783  2.53999     13.60774  1.96206  1.06012    6.6633  0.09932     0.01214  6517.43546   3766.97048   2.5062         2474.40006     16.95897    5e-05  55016.71992  1.68838  0.71849   7156590.07727  44.89719   18.3222  55086.10286    51.45188       44.61776   41.22157  52.32601   76.0     0.1083  -21.86973  0.97859 
   -7.57829  0.46555  2.47933     14.02859  1.78457  0.51858   5.60075  0.20522     0.04539  7724.88319   4173.74985  2.50662         2275.31069     17.17039    8e-05  55017.79971  1.99369  2.60742    892987.30039  45.78086  18.35232  55086.10286    51.46108       44.61706    43.1845  53.08174   73.0    0.10138  -21.91485  0.92329 
   -7.46196   0.0011  2.37823     13.57113  1.74252  1.08207   7.36342  0.09042     0.01285  6677.95581    4197.2124  2.11307         2591.77461      18.2356  0.00096  55017.91604  1.95882  0.00809   6595547.74833  44.93826  18.32182  55086.10286    51.45615       44.61761   45.05438  51.21186   73.5    0.10845  -21.87062  0.99974 
   -6.18534  0.02205   2.3668     13.84845  1.86887  1.01788  11.49398   0.0997     0.01571  6771.61471   3525.94535  2.26277         2546.11541     18.90755  0.00449  55019.19266    3.144  0.25341   1953498.42805  45.50129  18.32193  55088.57302    51.45753       44.61036    43.1845   54.9621   67.5    0.09964  -21.87657  0.99323 
   -6.86998  0.00572  2.06423     13.61184  1.50382  1.09282  11.52189  0.09586      0.0137   7095.4588   3140.92778  2.29784         2521.34769     16.01217    1e-05  55018.50802  3.46029  0.06593   3555131.09774  45.26567  18.33027  55086.10286    51.45818       44.61638   45.05438  51.21186   68.5     0.1064  -21.93561  0.99811 
    -9.6365  0.49058  2.71412     13.64283  1.92684  1.39006   8.11381  0.08603     0.01048  6312.52553   5208.08896  2.37745         2522.91127     16.97093    5e-05   55015.7415  1.92867  3.98043   6827447.72617  44.85217  18.30818  55086.10286    51.46115       44.62381   41.22157  53.08174   75.0    0.10518  -21.83214  0.87761 
   -7.80592   0.4825  2.32436     13.83291  1.75211  1.08843   8.01848   0.1528     0.02671  6838.52796   3218.42123  1.79088         2660.96574     18.50967   0.0018  55017.57208  2.23689  3.86889   1897406.28595  45.50164  18.30917  55086.10286    51.44911       44.62238   43.09145  50.45613   73.0    0.09364  -21.86686  0.90068 
   -9.04706  0.14268  2.39271     14.10202  1.74195  0.29674   6.30974   0.1268     0.01735  6652.59554   4717.83853  2.40513         2479.29754     18.43036   0.0015  55016.33094  1.66579  0.90026    578895.36962   45.9895  18.31714  55086.10286    51.46605       44.62217    43.1845   54.9621   73.5    0.10447  -21.87902  0.97241 
   -8.13684  0.05325  2.33039     13.94584  1.72565  0.38241   6.38561  0.11457     0.01176  6360.80087    3036.2376  2.45786         2575.64145     16.56436    2e-05  55017.24116  1.54118  0.34002    1116737.5498  45.72299  18.34068  55088.57302    51.46924       44.61026   41.22157   54.9621   70.5    0.11784  -21.87077   0.9897 
   -7.06572  0.00334  2.28364     13.68476  1.67762  1.16854   7.63472  0.13104     0.02676  7093.06896    3111.0648  2.15691         2531.38446     16.65067    2e-05  55018.31228  2.29134   0.0255    3469304.8309  45.23604  18.32577  55086.10286    51.45348        44.6221   43.09145  50.45772   72.5      0.105   -21.9054  0.99924 
   -8.57039  0.22873  2.54795     13.69808  1.84513  1.53935   7.20085  0.12105     0.01855  6432.63585   4838.12326   2.1023         2637.84614     16.28751    1e-05  55016.80761  1.77742  1.64708   4467438.89094  45.07243  18.36228  55086.10286    51.45008        44.6095   41.22157  52.99916   73.5    0.10091  -21.84752  0.94957 
   -6.76733  0.04819  2.50698      13.8183  1.94195  1.13034  11.90893  0.09115     0.01448  6567.10233   4965.48098  2.38537         2568.02676      16.0537    1e-05  55018.61067  3.06371  0.57392    2616658.1839  45.34104  18.29589  55088.57302    51.46632       44.62219   41.22157  53.08174   71.0    0.09668   -21.8699  0.98383 
   -9.11913  0.08514  1.97067     13.67012  1.35738  0.70358   7.55652  0.11656     0.01888  6309.98246   3976.96064   2.8709         2390.24286     16.11438    1e-05  55016.25887  1.79476  0.64334   2236166.07473  45.46282   18.3106  55088.57302    51.46462       44.62047   43.09145  53.09222   77.5    0.09561  -21.83388   0.9807 
   -8.83935  0.00155  2.48937     13.84471  1.97728  0.86846   8.80072  0.12644     0.01103   6274.0359   3454.17501  2.24452         2638.43022     16.83075    4e-05  55016.53865  2.06652  0.01362   2326196.13659  45.40609  18.29599  55086.10286    51.46086       44.62288   41.22157  53.08174   65.5    0.10433  -21.87843  0.99962 
   -9.17244  0.11588  2.34451     13.65717  1.84842  0.67135   7.36745  0.09517     0.01056  6928.71393    4867.4694  2.43879         2458.01246     18.25476    0.001  55016.20556  2.10984  0.85376   4574796.96043  45.13517   18.3228  55086.10286    51.46196       44.62813    43.1845  52.32601   74.0    0.11261  -21.91095  0.97598 
   -8.11577  0.31341   2.6309     13.88671  1.90151  0.64575   10.1313  0.08361     0.01141  6608.72027   5279.65835  2.29086         2581.26237     17.78702  0.00034  55017.26223  2.63953   3.1753   2059260.00898  45.39402  18.29899  55088.57302    51.46647       44.62296   41.22157   54.9621   74.5    0.10238  -21.89482  0.90463 
   -7.62307  0.11125  2.04202     13.63992  1.38174  0.63813   9.17879  0.07875     0.01113  6547.04311   3422.39864   2.4757         2512.36578     18.46287  0.00161  55017.75493  2.34695  1.02115   2808867.83903  45.34062  18.29429  55088.57302    51.46496       44.62059   43.09145  53.09222   73.5    0.10683  -21.86171  0.96782 
   -7.92407   0.0037   2.4065     13.61948  1.79714  1.03947   8.53656  0.08796     0.01134  6475.75693   3212.46645  2.42201         2566.96858     16.64178    2e-05  55017.45393  2.13546  0.03155   5574483.31571  45.01445  18.32152  55088.57302    51.46614       44.61956   41.12852  53.09222   75.0    0.10778   -21.8884  0.99903 
  -10.21589  0.02587  2.42436     13.61759   1.8823  1.29663   7.40057    0.141     0.01353  6809.49691   3948.53452  1.99734         2588.17363     16.26539    1e-05  55015.16211  2.04702  0.19142    5977394.3368  44.99783  18.31688  55088.57302    51.46304       44.61781   41.22157   54.9621   67.5    0.11198  -21.92461  0.99452 
   -9.68086  0.00553  2.20257     13.57966  1.72562  0.76241   6.06912  0.12278     0.01127  6590.96331   3586.70495  2.90349         2362.77932     17.27449   0.0001  55015.69714  1.57272  0.03357   5386316.94081  45.08864  18.32381  55088.57302    51.46304       44.61893   43.09145  53.09222   74.0     0.1125  -21.87803  0.99906 
   -8.85062  0.00747  2.08189     13.52657  1.49628  1.28117   8.67112  0.10842      0.0128  6584.16713   5430.80997  2.33716         2527.67765     19.01827  0.00579  55016.52738  2.24235  0.06474   5328524.20349  45.08033  18.30287  55088.57302    51.46352       44.61952   43.09145  53.09222   68.5    0.10796  -21.88826  0.99808 
   -8.91925  0.00188   2.1314      13.4922  1.55552  1.19082   7.90654   0.1085     0.01162  6664.05312    5134.3629  2.13355         2608.33521     16.15839    1e-05  55016.45875  2.09455  0.01487   6801873.53758  44.97076  18.35767  55088.57302    51.47165       44.60549    43.1845  56.92503   71.0    0.10926  -21.90628  0.99956 
   -7.24343   0.0015  2.35716     13.94894  1.89885  0.81385  12.80008   0.0967     0.02139  6749.41432   5226.20202  1.99967         2666.66284     16.31051    1e-05  55018.13457  3.47834  0.01925   1239384.18291  45.70935  18.32658  55086.10286     51.4536       44.61629   45.05438  51.21186   72.0    0.09915  -21.86721   0.9995 
   -8.71024  0.00124  2.16018     13.86744  1.58123  0.58913   14.6961  0.06685      0.0124  6379.25981   5375.87298  2.28544         2556.90227     18.96517  0.00513  55016.66776  3.56755  0.01822   1261574.18855  45.69795  18.31844  55086.10286    51.45992       44.61712   45.05438  53.09222   76.5    0.09531  -21.84899  0.99947 
    -7.9491  0.03559  2.63151     14.11432  2.03722  0.46632  11.60323   0.0858     0.01137   6448.1923    4067.0835  2.40102         2562.97698     17.15277    8e-05   55017.4289  2.87794  0.41291    773788.30668  45.84885  18.33269  55086.10286    51.45044       44.61826   43.09145  51.12928   70.5    0.10209   -21.8676  0.98795 
    -7.5499   0.0934  2.62402     13.80521   1.9461  0.96473   7.62439  0.10708     0.01532  6183.22879   4025.23233  2.27805         2668.36753     18.26804  0.00103   55017.8281  1.73885  0.71215   3051341.32241  45.23558  18.34702  55086.10286    51.47007       44.61417   41.22157   54.9621   74.0    0.10089   -21.8427  0.97798 
   -8.19901  0.00391  2.29097     13.54028  1.73342  0.99474   7.47296  0.08981     0.01111  6721.84015   3797.94106  2.32104         2514.12035     17.25041   0.0001  55017.17899  2.01417  0.02922   7017847.10609  44.94151  18.33767  55088.57302    51.46464       44.61358   43.09145  53.09222   74.0    0.11153  -21.89094  0.99913 
   -8.61254  0.00528  2.51627     13.70982  2.01247  0.73004   6.53505  0.09789     0.01053  6341.80985   3609.01663  2.42748          2545.9056     17.22908    9e-05  55016.76546  1.56784   0.0345   4502227.77315  45.11763  18.33207  55086.10286    51.46182       44.62041   41.22157  53.08174   74.5    0.11353  -21.87094    0.999 
   -9.83773  0.00153  2.23256     14.14317   1.6775  0.29007  13.06422  0.08377     0.01095  6744.96544   5683.50856  2.11638         2509.91309     18.62302  0.00233  55015.54027  3.54544  0.02002    401552.03295  46.19216  18.35491  55086.10286    51.45896       44.60916    43.1845   54.9621   70.5    0.09542   -21.9005  0.99943 
   -7.30896  0.00725  2.36503     13.86242   1.7563  0.71621   8.06527  0.12684     0.02254  6940.53471    4925.1531  1.90104         2668.87861      18.0907  0.00068  55018.06904  2.31756  0.05851   1718880.95949  45.53052  18.33496  55088.57302    51.46829       44.61776    43.1845   54.9621   72.0    0.10408  -21.89921  0.99826 
   -9.04948  0.13902  2.39564     13.48181  1.77921  1.41768   7.25169  0.09066     0.01165  6676.15585   4406.42908  2.12219         2557.27906     16.27365    1e-05  55016.32852  1.92805  1.00814  10310111.28049  44.74697  18.29195  55088.57302     51.4581       44.61649    43.1845  52.99916   75.5    0.10833  -21.86029   0.9692 
   -8.89949  0.49555  2.53833     13.88146  1.81942  0.86933  11.35056  0.08605     0.01325  6594.16871   5811.08459  1.70551         2733.45113     19.74281  0.03073  55016.47851  2.94418  5.62476   1879023.84551  45.44575  18.33151    55084.257    51.45948       44.62201   41.22157  53.08174   75.0    0.09777  -21.87312  0.84607 
    -9.5914   0.0255  1.97682     13.51245  1.53708  0.67342   5.84333  0.12165     0.01086   6700.8086   4580.81263  2.04896          2584.6293     17.87949  0.00042   55015.7866   1.5651    0.149   5266750.67485  45.14206  18.31395  55088.57302    51.45769       44.61562   43.09145  53.09222   72.5    0.11346  -21.89522  0.99597 
   -9.91725  0.00322  2.14428     13.44836  1.76238  0.90993   6.12342  0.10107     0.01016  6644.54407   4544.64517  1.86795         2646.07296     18.50084  0.00176  55015.46075  1.61269   0.0197   9544651.39093  44.87262  18.33581  55088.57302    51.46653       44.61364   41.22157   54.9621   76.5    0.11353  -21.87927  0.99948 
   -8.53381  0.32847  2.57394     13.71821  1.87436  0.88058   5.67986  0.13818     0.02011   6924.5825   4054.67673  1.92221          2620.8314     17.06342    6e-05  55016.84419  1.62462  1.86567   4221194.02437  45.09507  18.33235  55086.10286    51.45904       44.62026   41.22157  53.08174   72.5    0.10601  -21.90215  0.94229 
    -7.6336  0.01501  2.29835     13.62064  1.63042  1.26936   8.57253  0.10225     0.01724  6536.51334   5802.88341  2.45783         2555.94526     18.19174  0.00086   55017.7444  2.18488  0.12865   4588372.35607  45.09665  18.32581  55088.57302    51.47237       44.62604   41.22157   54.9621   75.0    0.10027  -21.85449  0.99594 
   -6.60604  0.03278  2.09092     13.89321  1.79067  0.99985  15.83695  0.08991     0.01525  6616.30081   5032.86074  2.08324         2688.52846     16.96614    5e-05  55018.77196  4.13551  0.51909   1188723.00903  45.80611  18.32123  55086.10286    51.45483       44.62232   43.09145  51.21186   69.5    0.09322   -21.8658  0.98861 
    -8.5997  0.00903  2.11712     13.53444  1.50092  1.25162   8.73388  0.09091     0.01244  5922.17067   4791.36368     2.25         2689.79461     17.44586  0.00016   55016.7783  1.82724  0.07887      5330694.73  45.06693   18.3109  55088.57302    51.46035       44.61235    43.1845  54.31652   77.0     0.1001  -21.84032   0.9976 
   -9.99563  0.07169  2.32168     13.65766  1.73823  1.03443   6.90714  0.13566     0.01232  6080.25037   4118.14872  2.44059         2584.34609     16.19916    1e-05  55015.38237  1.52324  0.49516   4209346.68718  45.15313  18.32025  55086.10286    51.45671       44.61622   45.05438  51.21186   69.0    0.10669  -21.85584  0.98559 
   -7.82704  0.00924  2.06875     13.48851  1.44925  1.31883   7.80486  0.10323     0.01167  6405.95458   5640.29735  2.49061         2519.48365      18.6652  0.00257  55017.55096  1.91056  0.07214   6072190.01443  45.01523  18.30895  55088.57302    51.46622        44.6232   41.22157  53.08174   70.0     0.1139  -21.85525  0.99778 
   -9.12483  0.12147  2.11974      13.5174  1.53001  1.14825   8.35356  0.10087     0.01183  6547.34423   4702.60858  2.24124         2536.53292     19.24632   0.0098  55016.25317  2.13614  1.01473   5892037.66235  45.03071  18.32129  55086.10286    51.45891       44.62138   45.05438  51.12928   73.0    0.10947  -21.90084  0.97044 
   -8.28178  0.00527  2.43867     14.03869  1.79468  0.41702   8.83428  0.09377     0.01343  6261.93262   3320.46467   2.4293         2555.05774     16.96513    5e-05  55017.09622   2.0664  0.04653    829328.38322   45.8298  18.29029  55086.10286    51.45369       44.62998    43.1845  50.36308   73.5    0.10458  -21.84095  0.99856 
    -9.0595  0.00699  2.27791      13.5931  1.67701  1.32869   9.20701  0.09715     0.01227   6420.4568   8275.04097  2.38477         2538.98003     18.16863  0.00082   55016.3185  2.26401  0.06439   5262813.82456  45.05709  18.32322  55086.10286     51.4527       44.61919   45.05438  50.45772   65.0    0.10243  -21.87481  0.99808 
   -8.60459  0.01923  2.56697     13.95517  1.91499  0.49154   6.36092  0.11832     0.01667  6518.18932    3038.2563   2.0001         2705.45455     17.31511  0.00011  55016.77341  1.61213  0.12234   1440386.56052  45.57369  18.34524  55088.57302    51.45546        44.6123   41.22157  53.08174   74.0     0.1051  -21.88117  0.99616 
   -6.77846  0.00373  2.38283     14.20714  1.86024  0.36973   6.41124  0.17798     0.03172  6727.46903   4482.02842  2.29906          2535.5313     18.89558  0.00437  55018.59954   1.7309  0.02392     377822.8492  46.20694  18.35392  55088.57302    51.47096       44.62012   41.22157   54.9621   71.5    0.09712  -21.86622  0.99934 
   -9.70426  0.02053  2.13697     13.72153   1.5748  0.61458   6.80287  0.13114     0.01423  6599.28983   4322.77735  2.06744         2582.80411     17.71234  0.00029  55015.67374  1.76731  0.13968   2407508.52873   45.4249  18.27351  55088.57302    51.46543       44.62959   43.09145  51.21186   70.5    0.10524  -21.90422  0.99593 
   -9.98406  0.02168  2.17946     13.68824  1.62525  0.64836   7.74286  0.10678     0.01079   6421.2891   5757.57716  1.97516          2668.4071     18.44261  0.00154  55015.39394  1.90446  0.16788   3012661.00829  45.32412  18.30839  55088.57302    51.45581       44.61388   43.09145  53.09222   71.0    0.11052  -21.89418  0.99511 
   -7.82949  0.10932  2.53347      13.8905  1.88111  0.71881   9.10362  0.10414     0.01589  6730.70422   3449.41923  2.42007         2460.97006     16.40075    1e-05  55017.54851  2.46015  0.99525   1856350.86118  45.46717  18.28499  55088.57302    51.47628       44.62995   45.05438  53.09222   72.5    0.10123  -21.86705  0.97014 
   -8.91228  0.00329   2.3293     13.91941  1.70328  0.51732   7.62446  0.12934     0.01756  6832.47115   4609.46217  2.06057         2636.83154     17.26441   0.0001  55016.46572   2.1232  0.02512   1243740.30476  45.67095  18.30747  55086.10286    51.46014        44.6226   45.14744  52.99916   68.5    0.10491  -21.90025  0.99924 
   -8.72046  0.01458   2.3759     13.69166  1.79453  1.13754   8.49493  0.11517     0.01253  6283.70849   4718.18398  2.00971         2744.38364     16.52202    2e-05  55016.65754  2.00087  0.12382   3891353.31286  45.18104  18.31514  55086.10286    51.45403        44.6187    43.1845  52.99916   68.0    0.10444  -21.88066  0.99639 
   -6.66685   0.0138  2.02647     13.87808  1.64594  0.81746   6.53259  0.20602     0.08071  6831.19182   4913.18129  2.35154         2484.94442     18.67789  0.00265  55018.71115  1.81847  0.09014   1100392.81805  45.83023  18.29788  55086.10286    51.47977       44.64612   41.22157   52.3276   75.5    0.09835  -21.86213  0.99787 
    -7.5463  0.10658  2.56044     14.06468  1.93947  0.41645   6.54565  0.13244     0.01627  6516.85316   4996.77479  2.09535         2658.41569     19.31574  0.01149   55017.8317  1.65827  0.69761    876516.77099  45.79714  18.33047  55086.10286    51.45766       44.62066   41.22157  53.08174   70.5    0.10858  -21.89686  0.97919 
   -8.34336  0.20224  1.92614       13.807  1.36797  0.61886   6.77483   0.1519     0.02666  6319.89107   4687.33794  2.24133         2622.44208     17.69704  0.00028  55017.03464  1.61415  1.37015   1146204.33244  45.77628  18.29778  55088.57302    51.46676       44.61772    43.1845   54.9621   74.0    0.09539   -21.8448  0.96241 
   -7.31131  0.03509  1.85569      13.8943  1.36238  0.50277  12.70003  0.09218     0.01809  6580.12698   5615.20563  2.27721         2556.16719     17.23472   0.0001  55018.06669   3.2802  0.44562     708806.4082  46.01561  18.33792  55088.57302    51.46435       44.61111   41.22157  56.27945   74.0    0.09881  -21.86013   0.9883 
    -9.1465  0.02172  2.46317     13.56326  1.83543  1.15614   7.19558  0.09135     0.01246  6513.09117   3068.66799  1.98048         2681.74602     16.56379    2e-05   55016.2315  1.82082  0.15629   7727327.45362  44.86156  18.33449  55088.57302    51.46293       44.61887   43.09145  53.09222   76.0    0.10492  -21.86206   0.9951 
   -7.67458  0.01623  2.33487      14.0717     1.97  0.62457  10.28386  0.12276     0.01678  6226.09124   5386.28762  2.11996         2668.26813     16.64568    2e-05  55017.70342  2.37801  0.16694    716803.06006  45.97139  18.32079  55086.10286    51.46656       44.62669    43.1845  53.08174   69.5    0.09646  -21.83977    0.996 
   -9.79734  0.04534  2.74387     14.08912  2.11198  0.48741    8.7151  0.10519     0.01353  6225.28467     4752.031  2.37818         2507.97136     17.48128  0.00017  55015.58066  2.01473  0.39513    979454.03553  45.72583  18.31827  55086.10286     51.4664       44.62451   45.05438  53.09222   73.0    0.10082  -21.82273  0.98805 
   -7.98281  0.17776  2.22315     13.60548  1.54895  1.44366  12.09519  0.07733     0.01025  6591.61433   6893.61576    2.048         2659.37574     17.91844  0.00046  55017.39519   3.1349  2.15007   4373604.80984  45.12411  18.31264  55088.57302     51.4675       44.61129   41.22157  56.27945   69.5    0.10683  -21.86863  0.93598 
   -8.78824  0.02028  2.79976     13.82124  2.17124  1.21649   6.62223  0.13655     0.02108  6438.44611   5355.07907  2.44878         2472.81394     17.97514  0.00052  55016.58976  1.63755  0.13427   3599863.59514  45.15503  18.32059  55086.10286    51.45789       44.62328   41.22157  53.08174   73.5    0.09688  -21.83723  0.99592 
   -8.53582  0.00652  2.36414     13.86439  1.73441  0.49976   8.32792  0.09254      0.0117  6571.24656   4714.50064  2.28391         2547.31446     18.44712  0.00156  55016.84218  2.14516  0.05434   1680876.91758  45.53512  18.32175  55088.57302     51.4594       44.62424   41.22157  53.08174   71.5    0.11109  -21.87173  0.99831 
     -9.928  0.01963  2.42847     13.73172  1.79166  0.86437   6.59566  0.14243        0.02  6977.73129   7925.42611  2.55438         2369.85392     16.67598    3e-05     55015.45  1.91564  0.12948   3375155.94407  45.22314  18.27118  55088.57302    51.46558       44.62282    43.1845  52.99916   65.0    0.10254  -21.88675  0.99601 
   -8.94418   0.0015  2.56065     13.82534  1.93624  0.78892   10.7271  0.08079      0.0103  6380.00519   5441.49642  2.67134         2474.87163      18.0388  0.00061  55016.43382  2.60466  0.01612   2635088.91736  45.31831  18.35051  55086.10286    51.45773       44.61883    43.1845  52.32601   71.5    0.10343  -21.85725  0.99951 
   -9.23244  0.00396  2.67614     13.71735  2.06481  1.18762   7.07369  0.11939     0.01411   6346.0178   4954.19569  2.41828         2527.31886     17.16044    8e-05  55016.14556  1.69932  0.02803   5046709.28518   45.0257  18.35079  55086.10286    51.45922       44.61502   41.22157  53.08174   73.0    0.10115  -21.85999  0.99915 
    -8.0753  0.02771  2.15519      13.3892  1.58754  1.52482   5.68941  0.11066     0.01521  6923.89312   5252.05215   2.1408         2534.27436     17.08763    7e-05   55017.3027  1.62703  0.15765  11405353.15329  44.74549  18.34154  55086.10286    51.46736       44.62085   41.22157   54.9621   74.0    0.10874  -21.88893  0.99524 
    -8.2604  0.03725  2.39929     13.65468  1.75631  0.97397   5.77016  0.12785     0.01403  6157.17114   8418.37989  2.58447         2555.93284     16.47836    2e-05   55017.1176   1.3049  0.21494   4604840.74356  45.09007  18.32939  55086.10286    51.46415       44.63008   45.05438  51.12928   65.0    0.11166  -21.84148  0.99332 
   -7.82763   0.0033  2.60558     13.79549  2.04916  1.30892  12.26164  0.08387     0.01198  6619.33055   3259.23229  2.63388         2440.32402      17.9038  0.00045  55017.55037  3.20482  0.04042   3312973.44652   45.2284  18.36146  55086.10286    51.46524       44.60834   41.22157   54.9621   70.5    0.09929  -21.87202  0.99884 
   -7.48441  0.00535  2.79527     13.80319  2.13601  1.52667    8.6794    0.101     0.01976   6508.3188   5412.38426  2.61788         2453.63373     17.06379    6e-05  55017.89359  2.19308  0.04645   3836110.56782  45.12171  18.28054  55088.57302    51.46266       44.62606   45.05438  51.21186   75.5    0.10291  -21.82932  0.99856 
   -7.81909  0.01068  2.21009      13.9711  1.60593  0.43476   9.63848   0.1049     0.01731  7008.12724   4342.51253  2.30036          2439.9459      17.0164    6e-05  55017.55891  2.82384  0.10299    832083.50102  45.86558  18.33118  55088.57302     51.4786       44.61089   41.22157  56.28422   71.5     0.0981  -21.89517  0.99694 
   -7.71234  0.01377  2.42151     13.67595  1.77886  1.18755   7.35893  0.10919     0.02065  6542.38611   5133.79678  2.47613         2502.72569     19.56578  0.02044  55017.66566  1.87895  0.10135    4307446.5929   45.1166  18.28577  55088.57302    51.46234       44.61872   45.14744  52.99916   78.0    0.09925  -21.86671  0.99688 
   -8.96574   0.0026  2.46193     13.70464  1.86538  1.00528   7.38954  0.11284     0.01129  6037.33043   4778.91317  2.11847         2702.84694     18.93596  0.00479  55016.41226   1.6067  0.01918   4091147.98573  45.14522  18.31854  55088.57302    51.46099       44.61759   41.22157  53.08174   69.5    0.10653  -21.85167  0.99943 
   -8.30057  0.00157  1.93595     13.57696  1.32139  0.82716   6.51562  0.13657     0.01803  6476.70769   9384.86798  2.27298         2578.53062     16.47928    2e-05  55017.07743  1.63039  0.01023   3226371.89448  45.30737  18.30998  55088.57302    51.45689       44.61589   45.14744  52.99916   59.0     0.1045  -21.85837  0.99968 
    -9.2081  0.00467    2.216     13.55726  1.65582  0.96641   6.82219  0.11503     0.01209  6579.36833   5144.99596  2.08125          2639.4331     18.15742   0.0008   55016.1699  1.76165  0.03186   5800225.07183  45.03327  18.29387  55088.57302    51.46872       44.62763   45.05438  51.21186   72.0    0.11614  -21.90313  0.99906 
   -8.44808  0.05006  2.35064     13.49586   1.7349  1.34161   6.17626  0.10176     0.01419  6538.33329   5374.43006  2.12579         2618.36042     19.11549  0.00725  55016.92992  1.57502  0.30917   9072605.96607  44.80802  18.29226  55088.57302    51.45775       44.62634   45.14744  51.03623   76.0    0.10787  -21.86773  0.99043 
   -7.29755  0.05409  2.48049     13.67671  1.82631  1.50329  11.75812  0.07559     0.01067  6495.93723   4056.66826  2.24362         2597.63656     16.55595    2e-05  55018.08045  2.95971  0.63604   4624377.80615  45.07629  18.28122  55088.57302    51.47051       44.63098    43.1845  52.99916   70.5    0.10657  -21.86318  0.98062 
    -8.9443  0.05444  2.41019     13.86865  1.83766  0.49319   6.30909  0.12145     0.01236  6525.20686   7615.27067  2.41721         2535.99107     18.60711  0.00225   55016.4337  1.60244  0.34348   1815037.85927  45.51012  18.30862  55088.57302    51.45819        44.6147   45.05438  53.09222   68.5    0.11696  -21.88884  0.98985 
   -9.93836   0.3116  2.28233     13.54566   1.6912  0.97834   6.37399  0.11955     0.01103  6441.44441    4645.3084  2.30447         2528.93964     17.05181    6e-05  55015.43964  1.57763  1.98613   6628986.99528  44.95884  18.31403  55088.57302    51.46149       44.61313   41.22157   54.9621   72.5    0.11441  -21.86622   0.9427 
   -7.41059   0.0321  2.45275     13.76715  1.91753  1.54343  10.02104  0.11677     0.02016  6956.39177   4249.01927  2.07168         2594.69079     16.96161    5e-05  55017.96741  2.89273  0.32172   3130157.95648  45.27672  18.33118  55086.10286    51.46855       44.61981   41.22157  53.08174   71.0     0.1002  -21.90426   0.9911 
  -10.43259  0.40816  2.36331       13.614  1.71253  0.80777   6.03655  0.11801     0.01193   6456.2585   4792.84136  1.90697         2708.72887     17.46701  0.00016  55014.94541  1.50099  2.46388   5254059.65703  45.03495  18.34952  55086.10286    51.47164       44.62643   41.22157   54.9621   73.0    0.11217  -21.85638  0.92624 
   -9.24557  0.00668  2.33688     13.57015  1.69077  1.39167   7.22192  0.12187     0.01878  6971.26289    3464.0762  1.71579         2728.87993     17.27429   0.0001  55016.13243  2.09364  0.04826    6206941.4133  44.96678  18.31987  55086.10286    51.45228       44.61702   43.09145  51.21186   72.5    0.10502  -21.91155  0.99849 
   -6.14918  0.00127  2.32512     13.87828  2.05217  1.49872  11.48077  0.13069     0.01395  6912.06113   7927.37693  2.16976         2562.21945     17.71976  0.00029  55019.22882    3.272  0.01462   1804524.80128   45.5918  18.33613  55086.10286    51.45802       44.61312   41.22157  53.08174   57.5    0.10146  -21.89612  0.99967 
   -8.04808  0.02128  2.16022     13.70536  1.61092  0.82884    7.6954  0.13458     0.01601  6735.08071   3415.55385   2.2189          2603.8188     17.83154  0.00038  55017.32992   2.0823  0.16373    2711234.2652  45.37376  18.29783  55088.57302    51.45856       44.61888    43.1845  52.99916   67.5    0.10646  -21.93388  0.99536 
   -6.58561  0.00156   2.0069      13.7198  1.62432  1.53404  10.43236  0.11317     0.01879  5951.99084   5227.04216  2.84829         2520.63345     17.63313  0.00024  55018.79239  2.20462  0.01631   2207744.98283  45.53052  18.30473  55088.57302    51.47495       44.62519   43.09145  53.09222   74.5    0.09079  -21.81703  0.99961 
   -8.51848  0.00109  2.42259     13.68588  1.84749  0.81116   7.26973  0.10172      0.0117  6546.42535   3605.94568  2.16066          2630.3861     16.96087    5e-05  55016.85952  1.85846  0.00791   4277629.82883  45.13566   18.2891  55086.10286    51.46283       44.62703   45.05438  51.21186   72.0    0.11457  -21.89899  0.99976 
