 texplosion  fnickel    Pspin  log(Bfield)      Mns  thetaPB   mejecta    kappa  kappagamma      vejecta  temperature    alpha  cutoff_wavelength  log(nhhost)      A_V         MJD0  kenergy  mnickel            TSD   log(L0)  Peak_mag     Peak_MJD  log(E_rad)  log(Peak_lum)  Rise_Time    E_fold  tau_1  delta_m15     r_peak     frac 
  -12.48836  0.05513  5.29099     14.15728  1.88725  0.60724    3.0909  0.19337     0.22201  14252.51374   4263.81024   0.9433         2273.28728      16.8782    4e-05  54128.01164  3.74537  0.17041  2377751.78617  44.72143  21.72431  54180.82821    50.92116       44.12775   29.80456  52.83536   50.0    0.24941  -21.26193   0.9771 
  -12.61576  0.05056  5.12614     13.91678  1.81995  1.50884   3.55745  0.18563     0.47014  14598.26735   4148.61104  0.04806         2405.95403     17.73035   0.0003  54127.88424   4.5224  0.17987  6514690.20494  44.29543  21.71362  54180.82821    50.94083       44.13039   28.44981  54.19011   51.0    0.26568  -21.29127  0.97623 
  -12.26042  0.13418  5.10569     14.11616  1.71994  0.66957   3.36807  0.17216     0.22503  13557.93603   4214.63422  0.12158         5051.51848     16.71045    3e-05  54128.23958  3.69314  0.45192  2438458.65476  44.70114  21.76377  54180.82821    50.90645       44.12878    29.0486   47.1827   50.5    0.26226  -21.24776   0.9382 
  -11.67597  0.00514  4.69644     13.93226  1.56907  1.00929   1.76119  0.27686     0.37516  11816.32748   3753.62364  0.39916         4815.20583     19.02603   0.0059  54128.82403  1.46689  0.00905  4390152.58024  44.47847  21.69132  54180.82821    50.92886        44.1489    29.0486  52.23656   52.0    0.26072  -21.22236  0.99873 
   -11.7816  0.09642  4.61922     13.84913  1.47762  1.37543   4.15478  0.12329     0.30576  12123.20509   4867.65385  0.41527         4751.00584     17.03744    6e-05   54128.7184  3.64259   0.4006  5864803.73147  44.34102  21.72334  54180.82821     50.9376       44.14031    29.0486  52.23656   53.0    0.26186  -21.23142  0.94366 
  -12.67154  0.05414   4.6015      13.8691  1.63293   0.9227   3.07507  0.17289      0.1545  14416.35476   5321.00978   0.0296         3789.81873     18.67864  0.00265  54127.82846  3.81236  0.16649   5866423.5893  44.38764  21.71835  54180.82821    50.92002       44.14721    29.0486  49.40239   52.5     0.2377  -21.27779  0.97872 
  -12.07638  0.05239   5.1005     14.04419  1.72294  1.03157   5.79038  0.10959     0.20148  12195.19568    5436.7246  0.37414         4902.81815     17.73465   0.0003  54128.42362  5.13702  0.30335  3395696.05479  44.55896   21.7333  54180.82821    50.92388       44.14142   29.80456  46.06159   51.5     0.2764  -21.25196  0.95838 
  -11.85506  0.07654  5.14125     14.01907  1.72051  0.96876   5.03314   0.1101     0.16282  12669.85105   5003.26996  0.29277          4429.9702       18.365  0.00129  54128.64494  4.81958  0.38523  3867805.24842   44.4949  21.73128  54180.82821    50.92259       44.14034    29.0486  49.40239   53.0    0.26156  -21.22458  0.94641 
  -11.88469  0.29807   5.2975     14.01507  1.73683  0.94225   3.74001  0.15949     0.18967  13613.45518   4613.92851  0.14295         5302.05377     18.35931  0.00127  54128.61531  4.13463  1.11479  4222508.58349  44.43489   21.7258  54180.82821    50.93544       44.11894   31.15931  52.83536   51.5    0.25419  -21.26887  0.85283 
  -12.47018  0.05584  5.12853     14.21052  1.79687  0.51258   3.72102  0.17334     0.34269  14111.24256   4422.26004  0.64101         2759.11024     17.60858  0.00023  54128.02982  4.41997  0.20776  1664490.23764  44.88209  21.74027  54180.82821    50.90124       44.12592   28.44981  47.41634   52.5    0.25906  -21.27145  0.97203 
  -12.40546  0.07259  4.97033     14.18297  1.70855  0.51098   2.62957  0.20303     0.34485  13757.19035   5199.32155    0.096         4382.25557     18.12775  0.00075  54128.09454  2.96873  0.19088   1687611.8872  44.88143  21.71785  54180.82821    50.95718       44.14198   29.80456   48.7711   58.0    0.25446  -21.24102  0.97393 
  -12.87023  0.03811    5.094     14.37542  1.73092   0.3774   6.76143  0.09237      0.1913  12366.96041    3396.8913  0.31213         4729.10252     16.95459    5e-05  54127.62977  6.16868  0.25768   740240.35277  45.22363  21.74136  54180.82821    50.90044       44.13657    29.0486   48.1723   51.0    0.26478  -21.23445  0.96452 
  -11.92541  0.12971  4.95103     14.06678  1.58158   0.8485   7.29414  0.08075     0.10023  11199.24113   4906.84236  0.56612         5358.65759     18.09801   0.0007  54128.57459  5.45731  0.94615  2646938.39774   44.6558  21.73631  54180.82821    50.95675       44.14247   29.80456  52.83536   51.5    0.26808  -21.28549  0.87336 
  -12.83091  0.05786  5.70647     14.27289  2.06388  0.55439   3.19976  0.21479     0.27958  14247.74217   4180.59707  1.31503         2311.39973     17.85569   0.0004  54127.66909  3.87469  0.18513  1776043.83398  44.82134  21.74111      54179.5    50.88271       44.13673   28.44981  46.06159   50.5    0.25876  -21.26559  0.97487 
   -11.6035  0.12913  5.12292     14.04601  1.68226  1.03629   4.49384  0.13211     0.19614  11770.33118   4878.14145  0.44182         4609.34063     16.28466    1e-05   54128.8965  3.71383  0.58031  3316823.83808  44.55498  21.73249  54180.82821    50.93036       44.11813   31.15931  52.83536   50.0    0.27304  -21.22278  0.92018 
  -12.63579  0.23519  5.41565     13.99328  1.89191  1.27232   3.18008  0.22318     0.45442  14661.06934   3069.89745  0.39817         2078.14542     19.65665   0.0252  54127.86421  4.07753  0.74792  5314378.48201  44.35299  21.70139      54179.5    50.90483       44.15648   25.92948  44.90609   50.5    0.26759  -21.31033  0.90406 
  -11.83862   0.1996  4.25864     13.77161  1.38356  1.01741   2.42379  0.25053     0.31363  15016.98666   4771.42159  1.67829         2288.76285     17.91282  0.00045  54128.66138  3.26052  0.48378  6670114.97605  44.32717  21.74652  54180.82821    50.95267       44.14025   27.69385  45.46279   53.0    0.25817  -21.28837  0.93546 
  -12.72609  0.02958  4.88852      13.8604  1.74567  1.22745   2.44197  0.22186     0.19271   14011.1089   3559.47619  0.08815         5703.69828     16.30737    1e-05  54127.77391  2.85965  0.07224  7367877.30216  44.26511  21.73883  54180.82821    50.93498       44.12806   29.80456  54.19011   48.0    0.24576  -21.27788  0.99051 
  -12.22062  0.03305  4.96602     14.08519  1.85478  0.92393     9.314  0.07102     0.07935  12689.80889   4535.52251   0.3952         4560.25956     20.26945  0.10332  54128.27938  8.94692  0.30785  2869061.31005  44.68738  21.71318  54180.82821    50.95062       44.14997    29.0486  50.88181   49.0    0.25977  -21.38772  0.96393 
  -12.16413  0.02639  4.71461     13.87682  1.68389   1.1503    2.9993  0.17288     0.28704  14105.79565   5084.04958  0.10757         5442.16315     19.83869  0.03832  54128.33587  3.55994  0.07914  6128772.93301  44.36089  21.72739  54180.82821    50.95448       44.14307   29.80456   51.4806   56.5    0.25551  -21.32266  0.98988 
    -12.122  0.17465  5.20926     14.03917  1.68426  0.99451   7.14095  0.08489      0.1967  12365.84181   4899.86295  0.35944         5580.25256     18.74281  0.00307    54128.378  6.51374  1.24716  3543454.52581  44.51228  21.73626  54180.82821    50.92379        44.1164   31.15931   51.4806   52.5    0.26109  -21.30692  0.83804 
  -13.18021  0.03695  4.83572     13.84996  1.69588  1.47999   3.13474  0.19782     0.45875    14652.095   5009.30214  0.00162         4236.95726     16.80446    4e-05  54127.31979  4.01446  0.11581  7348650.62428  44.26311  21.74626  54180.82821     50.9063       44.14144    29.0486   48.1723   57.5    0.25284  -21.28442  0.98465 
  -12.49271  0.04605  4.79124     13.88124  1.69779  1.08619   2.81827  0.20227     0.22752  14258.32836   3819.68268  0.14351         5334.67533     17.28559  0.00011  54128.00729   3.4178  0.12978  6253336.50758  44.34172  21.70808      54179.5    50.95604       44.21168   25.92948  45.87241   50.5    0.25349  -21.31463   0.9831 
  -11.82974  0.08313  5.60626     14.11614  2.02902  0.74431   2.78109  0.22212     0.23577  14870.80176   4699.19461  2.27888         2248.39074     16.84423    4e-05  54128.67026  3.66869   0.2312  3468686.72224  44.53862  21.73572  54180.82821     50.8974       44.13292   29.80456  48.64644   50.0     0.2516  -21.28427  0.96884 
  -12.88734  0.08434  5.15645     13.98889  1.80606  0.98116   3.30562  0.18951      0.3867  14083.37866   3657.05232  0.45055         2002.47096     16.29784    1e-05  54127.61266  3.91106   0.2788  4693280.59788   44.4294  21.73094  54180.82821    50.95002       44.13281   29.80456  52.83536   52.5    0.26086  -21.25645  0.96274 
    -11.515  0.02709  4.63424     13.86724   1.5667  0.98012     2.659  0.22078     0.34915  14194.45481   3456.62981  4.83075         2102.17093      16.2416    1e-05    54128.985  3.19582  0.07202  5758008.51616   44.3716   21.7128  54180.82821    50.91247       44.14273   27.69385  45.46279   53.0    0.24178  -21.24714  0.99003 
  -12.06313  0.07331  4.67742     13.91065   1.5909  1.08861   3.48028  0.17264     0.28259  13583.16773   5013.76049  0.20029         4901.82873     19.31828  0.01156  54128.43687  3.83039  0.25513  4877101.22976  44.44231  21.71631  54180.82821    50.96611       44.16742    29.0486  49.40239   52.5    0.26349  -21.30037   0.9662 
  -12.75374  0.05065  5.03113     14.05891  1.75746  0.75758    3.4744  0.21839     0.36649  14430.85981   4590.72076  1.11176          2429.8464     17.39336  0.00014  54127.74626   4.3161  0.17599  3149291.35495  44.61219  21.73836      54179.5    50.89499       44.13243   28.44981   48.7711   50.5    0.25656  -21.28497  0.97638 
  -12.81096   0.1036  5.70692     14.17594  2.13173  0.64159   2.93866  0.20275     0.20194  14725.18455    3089.6415  1.04263         2107.28647     17.48287  0.00017  54127.68904    3.801  0.30444  2867259.51221  44.62731  21.71409  54180.82821    50.93856       44.14626    29.0486   48.1723   50.0    0.24075  -21.28495  0.96064 
  -12.47824   0.0583  4.79741     14.00316  1.64579  0.74039    2.9715   0.2161     0.30536   14354.9534   4569.07075  1.81659         2289.40329     18.63448  0.00239  54128.02176  3.65264  0.17324  3466519.78703  44.58331  21.72303  54180.82821    50.96004       44.15916   29.80456   51.4806   51.5    0.25215  -21.27171  0.97654 
  -12.85835  0.06255  5.14392     13.95874  1.81193  1.16517   2.73352   0.2393     0.33466   14308.8241    5058.8435  0.28954         2046.24297     17.02945    6e-05  54127.64165  3.33855  0.17099  5383400.23375  44.37334  21.71676  54180.82821    50.93607       44.14764   28.44981  50.00119   53.0    0.25664  -21.27179  0.97711 
  -12.53753  0.13294  5.82652     14.04553  2.10565  1.13711   3.00169  0.21132     0.46414  14591.67944   3883.18939  0.89463         2042.14776     17.86102   0.0004  54127.96247  3.81245  0.39903  5382276.74616  44.33045  21.73289  54180.82821    50.92529       44.12815   29.80456   51.4806   52.5    0.25554  -21.27558   0.9467 
   -12.7047  0.08736  4.95872     13.99045  1.77598  1.01189   3.53966  0.17058     0.28922   13649.9952   4864.13761  0.07901         5291.73147     20.08958  0.06828   54127.7953  3.93418  0.30923  4237396.45933  44.50045  21.72406  54180.82821    50.92439       44.14197    29.0486  45.46279   53.0      0.256  -21.31435  0.96116 
  -12.39077  0.04437  4.91414     14.03002  1.72791  0.86972   3.03357   0.2358       0.255  14205.24306   4440.60365  0.16363         4355.52403     19.08172  0.00671  54128.10923  3.65157   0.1346  3374300.51578  44.59529  21.73666  54180.82821    50.97865       44.18993   29.80456   51.4806   47.0    0.26369  -21.31773  0.98234 
  -12.67868  0.02946  5.11427     14.06713  1.83629  0.69263    2.3513  0.20221     0.19384  13086.42246   3901.69554  0.23957         5203.78642     16.40944    1e-05  54127.82132  2.40202  0.06927  3273968.29295  44.60015  21.71619  54180.82821    50.94177       44.14986    29.0486  49.52705   51.0    0.24199  -21.26357  0.99077 
  -13.46246  0.05661  5.62766     14.23165  2.03901  0.63883   2.84954  0.26804     0.40061  14373.54484   4432.37544  0.25355         2460.93581     17.01917    6e-05  54127.03754   3.5118   0.1613  2063417.41063  44.76302  21.69762  54180.82821    50.91858        44.1515   27.69385   47.1827   49.0    0.25592  -21.27453  0.97835 
  -12.87642  0.06619  4.90494     14.00228  1.70449  0.83252   3.43681  0.18521     0.22829  14052.31636   3819.07775  0.14577         4943.64527     18.77749  0.00333  54127.62358  4.04835  0.22748  3768096.53957  44.54305  21.75483  54180.82821     50.9451       44.14112   31.15931   51.4806   50.0    0.25694  -21.29709   0.9698 
  -12.62031  0.14941  5.26847     14.03758  1.90492  0.79185   2.37835  0.23724     0.24069  14835.56711   3671.82246  0.27844         2000.29321     18.18168  0.00084  54127.87969  3.12256  0.35535  4129458.69938  44.48946  21.74501  54180.82821    50.94117       44.13635    29.0486  49.52705   49.0    0.25369  -21.28798  0.95409 
  -11.95416  0.05671  4.96109     13.94111  1.70569  0.96188   3.89826  0.17014     0.26503  14293.47508   4162.22135  2.84213         2280.71357      16.0796    1e-05  54128.54584  4.75088  0.22108  5112637.36908  44.40095  21.72272  54180.82821     50.8997       44.12964   28.44981  46.06159   52.0     0.2463  -21.26663  0.96984 
  -12.35875  0.02562  4.61459     14.02918  1.58677  0.64965   3.25372  0.18553     0.44963  14068.60494   4519.19008  0.96155         2432.30191     19.70572  0.02821  54128.14125  3.84158  0.08337  2743083.11119  44.70285  21.73139  54180.82821    50.91505       44.13979    29.0486  49.52705   53.5    0.25097   -21.2722  0.98885 
  -12.07611  0.07105  4.89343     13.96571  1.76428  0.79314    5.0525  0.08418     0.06934  13409.84659   4535.53738  0.13181         5277.10515      19.7068  0.02828  54128.42389  5.41978  0.35899  4593986.39371    44.474  21.73592  54180.82821    50.90865       44.13407    29.0486  49.40239   49.0    0.22436  -21.26864  0.95487 
  -13.01194  0.01497  5.55956     14.24677  2.03483  0.54569   2.55703  0.25803     0.18663  14069.02365    5590.7587  1.81775         2232.45843      18.5949  0.00219  54127.48806  3.01919  0.03827  1874482.25089  44.81441  21.73423  54180.82821    50.92767       44.15003   28.44981   48.7711   50.5    0.25365  -21.26084  0.99484 
  -12.62475  0.26139  5.39198     14.35725  1.84968  0.36877   3.67068  0.16031     0.14883  14315.07136   4925.69699  0.03689         4857.76485      17.8783  0.00042  54127.87525  4.48705  0.95948   963612.43837  45.08854  21.73558  54180.82821    50.89369       44.13215    29.0486   48.1723   51.5    0.24509  -21.27399   0.8762 
  -12.16192  0.01925  4.89095     14.02049  1.67253  0.95226   3.28398  0.19234     0.34011  12948.92445   4368.09705  0.28248         4597.30611     17.81601  0.00036  54128.33808   3.2847   0.0632  3380630.48285  44.58443  21.71872  54180.82821    50.91074       44.13595   29.80456  50.12585   48.0    0.27279  -21.26524  0.99135 
  -11.74194  0.02568  5.33887     13.94384  1.86335  1.32871   2.66449  0.17311     0.22502   12420.6621   5402.60243  0.39638         4607.56423     18.28155  0.00106  54128.75806  2.45206  0.06842  6387383.19295  44.27892  21.73106  54180.82821    50.93437       44.14242   29.80456  46.06159   57.0    0.25053  -21.22673  0.99037 
  -12.20618  0.06541  4.33403     13.83163  1.46688  1.15969   2.71167  0.19584     0.31045  13264.96635   5322.63161  0.15037         4445.03867     19.94275  0.04869  54128.29382  2.84627  0.17738  5555691.75765  44.41672  21.73726  54180.82821    50.90981       44.13604   27.69385  45.46279   56.5    0.26749   -21.2777  0.97694 
  -12.27376  0.18209  4.98818     14.55268  1.54574   0.2312   7.40405   0.0793     0.24928  12110.84779   4275.66094  0.35131         5495.08326     16.88251    4e-05  54128.22624  6.47807  1.34821   280202.05461  45.61463  21.71829  54180.82821    50.94518       44.13894   29.80456  52.83536   54.0    0.25965  -21.26665  0.82102 
  -12.58744   0.0618  4.75754     13.82367  1.69183  1.25415   2.41854  0.21568     0.19724  14108.01736   3878.22315  0.13454         5187.89482     17.41146  0.00014  54127.91256  2.87152  0.14947  8009497.78756  44.23883  21.75428  54180.82821    50.91029       44.11645   29.80456  52.83536   49.0     0.2491  -21.29129  0.98063 
  -12.86534  0.02813  4.64441     14.28788  1.58481  0.37229    2.9267  0.19962     0.22559  12695.04596   5242.33477  0.30635         5843.83606     16.93125    5e-05  54127.63466  2.81368  0.08234    843131.8983  45.20907  21.72818  54180.82821     50.9521        44.1405    29.0486  50.88181   52.5    0.26858  -21.30997  0.98892 
  -12.33957  0.02735  4.67316     13.83863  1.60562  1.26128   3.72028  0.15371     0.21919  14245.11014   4616.09482  0.06357         2433.16764     16.21585    1e-05  54128.16043  4.50334  0.10174  6845767.88036  44.29984  21.72061  54180.82821    50.92306       44.13963   29.80456   51.4806   51.0    0.25159  -21.25729  0.98632 
  -12.44548  0.07305  4.77602     13.93019  1.61329  1.03651    3.5999  0.19911     0.27949  14410.74089   4913.53979  0.66999         2387.80523     17.37148  0.00013  54128.05452  4.45954  0.26298  4712888.88312  44.44514    21.694      54179.5    50.94003       44.14384   27.69385  53.59131   51.0    0.26344  -21.27746  0.96444 
  -12.19957  0.21338   4.8154     13.87588   1.5981  1.18844   3.82422  0.18865      0.2302  14739.64449   4196.03446  0.75838         2282.99067     17.86059   0.0004  54128.30043  4.95615  0.81601  6094335.31609  44.32226  21.72085  54180.82821    50.96671       44.15932    29.0486  50.88181   50.0    0.25539  -21.30003    0.894 
  -13.30398  0.18629  4.94933     14.37859  1.73471  0.32971   2.67332  0.24071     0.22255  14244.83874   4102.14105  0.01366         2162.52926     19.78285   0.0337  54127.19602  3.23589  0.49802   690171.28897  45.28002  21.72938  54180.82821    50.93557       44.12606   29.80456  55.54486   48.0    0.25516  -21.29922  0.93678 
  -12.18553  0.02806  5.13467     13.93372  1.81607  1.20665   2.68465  0.20034     0.25526  13479.99923   4373.74524  0.13855         5446.53254     17.14134    8e-05  54128.31447  2.91002  0.07533  6032950.44932  44.32642  21.70764  54180.82821    50.96881       44.15977    29.0486  50.88181   51.5    0.25197  -21.26451  0.98981 
  -12.35333  0.29672  5.40218     14.01383  1.85077  1.07331   3.26195  0.22249     0.26288  15175.00721   3485.72443  0.33645          2113.3079     19.36016  0.01273  54128.14667  4.48087  0.96788  4705860.62328  44.39842  21.70087  54180.82821    50.94269       44.15422   27.09505  44.70684   48.0    0.27064  -21.32533  0.87606 
  -11.91704  0.05603  4.33698     13.87601  1.54469  0.91647   1.63402   0.2823     0.30501  13582.14477   4786.61804  0.16036         5737.87385     20.14774  0.07807  54128.58296  1.79813  0.09156  4775396.22844   44.5043  21.71824  54180.82821    50.90615       44.14511   27.69385  46.81755   50.0    0.25604  -21.35028  0.98874 
  -12.72331  0.40425  5.73932     14.24102  1.95032  0.59664   2.55986  0.27217     0.44501  14477.72833    3282.1904  0.65605         2149.22679     16.01252    1e-05  54127.77669   3.2007  1.03483  1966072.62712  44.74763  21.73501  54180.82821    50.93551        44.1247   29.80456  52.83536   52.0    0.25972  -21.26984  0.86342 
  -12.83362  0.14091  4.86013     13.91917  1.62766   1.2312   2.20151  0.28548     0.43894  13076.09963    4639.3921  0.27235         4988.15991     16.32151    1e-05  54127.66638  2.24545  0.31021  5179978.26989  44.39279  21.72897  54180.82821    50.91643       44.13691    29.0486  50.88181   50.5    0.27481  -21.27319   0.9576 
  -12.55207  0.02699  4.83179     13.97299  1.66231  0.93899    3.7495  0.15526     0.19963  12811.26743   4252.89274  0.28022         5855.87701     16.79377    3e-05  54127.94793    3.671   0.1012  4080910.72175  44.51058  21.73755  54180.82821    50.90236       44.14496    29.0486  46.81755   50.5    0.26202   -21.3015  0.98631 
  -12.63863  0.13721  5.23468     13.94646  1.85356  1.22699   2.55811  0.22923     0.38129  14324.73224   4931.44585   0.0139         4113.05997     19.50819   0.0179  54127.86137  3.13127  0.35101  6035113.90326  44.31838  21.75104  54180.82821    50.93723        44.1311   27.09505   51.4806   56.0     0.2601  -21.27673  0.95389 
  -12.25614  0.02914  5.14844     14.01184  1.78758  1.09449   3.71179  0.17674     0.30597  13303.74228   4621.69035  0.33419         4138.31596     17.94387  0.00049  54128.24386  3.91885  0.10817   4166404.3001    44.478  21.73873  54180.82821    50.90974       44.12016   29.80456  52.83536   49.0     0.2669  -21.27272   0.9852 
  -12.59655  0.10056  4.82556     13.86327  1.62619  1.42747   3.79418  0.17009     0.45685  14277.70141   4130.54238  0.33033         2669.61035      18.5525  0.00198  54127.90345  4.61383  0.38154  6599965.94019  44.29338  21.72488  54180.82821    50.92172       44.13968   27.69385   48.1723   51.5    0.26153  -21.26935  0.94866 
  -12.84259  0.01246  4.25138     13.74345  1.40949    1.302   2.31948  0.27387     0.48684  14331.49431   5296.19203  1.31916         2247.35514     17.78552  0.00034  54127.65741  2.84184  0.02889    7709845.638   44.2738  21.72151  54180.82821    50.93515       44.14069   27.09505  46.01712   59.0    0.25665   -21.2588  0.99604 
  -12.22106  0.05669  4.86558     14.03353  1.68886  0.74845   3.59868  0.18323     0.25137  14542.75122   5227.70444  0.55779         2283.75309      16.0422    1e-05  54128.27894  4.54009  0.20402  3181382.77231  44.61955  21.74524  54180.82821    50.91223       44.12794   29.80456  47.41634   55.0    0.25886  -21.28969   0.9729 
  -12.98616  0.18123  5.06119     13.97053    1.743  1.09178   3.26165   0.2105     0.45383  14125.66954   3678.64108  0.04378         3466.80081      19.4321  0.01503  54127.51384  3.88225   0.5911  4748451.54232  44.42508  21.72723  54180.82821    50.94655       44.13933   29.80456  50.12585   51.0    0.26134  -21.28507  0.92352 
   -12.2787  0.01804  5.43796     13.97829  1.99587  1.12344   2.91152  0.16103     0.13384  13075.05823    4996.0786  0.28197         5087.56473     19.04747   0.0062   54128.2213  2.96916  0.05253  6056643.32471  44.31587  21.73301  54180.82821    50.93479       44.11732   29.80456  54.19011   50.0      0.247  -21.27774  0.99301 
  -11.90702  0.09021  4.48871     13.80903  1.48524  1.29693   3.39891  0.16054     0.15653  13023.20579   4791.93193  0.28653         5627.11484     16.93886    5e-05  54128.59298  3.43876  0.30663  6695588.69363  44.31061  21.70678  54180.82821    50.93079       44.14727    29.0486  50.88181   49.5    0.25401   -21.2986  0.95862 
  -11.98891   0.0568  4.51432     13.83388  1.47059  1.56932   3.73192  0.15074     0.48766  12298.38749   5244.94629  0.37224          4936.1791     16.98403    5e-05  54128.51109   3.3671  0.21197  5980544.57606  44.35041  21.72884  54180.82821    50.96195       44.13756   29.80456  52.83536   54.5    0.26303  -21.25217  0.97053 
  -12.16272  0.17994  5.51369     14.15881  1.89913   0.7487   2.40158  0.24579     0.28245  12971.63528   4901.45145  0.20519         5475.12788     17.43893  0.00015  54128.33728  2.41053  0.43214  2580128.65879  44.65287  21.69429  54178.44791     50.9159       44.15086   27.09505  47.37188   50.5    0.27075  -21.25537  0.94067 
  -12.59619  0.07404  4.81114     14.18436  1.65596  0.49238   3.78787  0.17471     0.27986  14319.43293   4725.17679  0.11521          4348.4901     17.94511  0.00049  54127.90381  4.63313  0.28046  1522819.78729  44.94075  21.73876  54180.82821    50.91785        44.1377    29.0486   48.1723   51.5    0.26423  -21.29634  0.96291 
  -12.06867  0.06794  4.76448     13.92767  1.53945  1.28659   4.77734  0.13181     0.31391  12155.94385   4816.91359  0.40621         4453.43867     17.08152    7e-05  54128.43133  4.21105  0.32455  4527671.61212   44.4443  21.74282  54180.82821    50.92241       44.14611   27.09505   48.7711   49.0    0.27839   -21.2132  0.95418 
  -12.09379  0.13095  5.62184     14.10558  1.94994  0.96649   3.33738  0.18502     0.22766  12989.27604   5371.85005   0.3082         4316.52584     19.15623  0.00796  54128.40621  3.35894  0.43702  3519090.46526  44.51268  21.72097  54180.82821    50.91474       44.14187    29.0486  49.52705   53.5    0.27207  -21.25073  0.94022 
  -12.91283  0.04183  4.67293     13.86712  1.59597  1.16349   3.15641  0.18785     0.25334  13336.52425   4491.45263  0.16457         5853.19812     17.50946  0.00018  54127.58717  3.34893  0.13204  5967282.98471  44.35692  21.71074  54180.82821    50.93745       44.14885    29.0486  49.52705   51.5    0.25216  -21.27896  0.98222 
  -12.99467  0.19577  5.50341     14.12848  1.88251  0.74239   2.39009  0.24975     0.32751  13347.45136   3946.58735   0.4079          3226.5618     17.42615  0.00015  54127.50533  2.54003  0.46791  2929970.54034  44.59546  21.73931  54180.82821    50.95496       44.12489   29.80456  55.54486   52.0     0.2486  -21.21778  0.93511 
  -12.16934  0.16118  4.52058     13.88207  1.38347  1.02652   5.28894  0.11033      0.1542  12405.21088   5353.81142   0.3572         4528.95221     17.30145  0.00011  54128.33066  4.85517   0.8525  4518963.68733  44.44439  21.75014  54180.82821    50.91657       44.12722    29.0486  49.40239   56.5    0.25494  -21.21729  0.88168 
  -12.25591  0.04282  5.60366     13.99371  2.03753  1.15494   3.57011  0.16282     0.35627  14373.89673   3723.27257  1.10281         2075.88147     17.59178  0.00022  54128.24409  4.40005  0.15288    6115612.961  44.29457  21.72492  54180.82821    50.91694       44.11927    29.0486  52.23656   54.5    0.24487  -21.25544  0.97936 
  -11.80461  0.01989  4.81467     13.95283  1.61461  1.13719   4.44877  0.11825     0.40469  11785.59989   4990.42516  0.42601         4822.81106     18.09769   0.0007  54128.69539  3.68613  0.08848  4318732.34928  44.47642  21.71665  54180.82821    50.95982       44.15387    29.0486   48.1723   51.0    0.27652  -21.23867  0.98767 
  -12.35667  0.44258  5.37898     14.05453  1.77954  0.93315   2.84464  0.25022     0.42896  14410.47274   4241.48485  0.03726         5992.12855     19.02119  0.00583  54128.14333   3.5238  1.25898  3719301.52186  44.48729  21.72519  54180.82821    50.96299       44.13884    29.0486  53.59131   51.5    0.25617   -21.2975  0.83835 
  -12.27673  0.05879  5.33821      14.3393  1.85533  0.41873   4.12008  0.16995      0.2614  14236.31765   4562.51432  2.47321         2143.95864     18.05278  0.00063  54128.22327  4.98114  0.24222  1029009.10197  45.07006  21.72126  54180.82821     50.9331       44.14257   29.80456  52.83536   50.0    0.26116  -21.26085  0.96667 
  -12.09448  0.44356  5.86133     14.27256  2.00243  0.59754   1.96765  0.27151     0.23123  12428.49815   4830.02708  0.33707         5887.91782     17.12812    7e-05  54128.40552  1.81306  0.87277  1820702.52993  44.77417  21.72893  54180.82821    50.91157        44.1164   28.44981  54.19011   49.5    0.26268  -21.28738  0.88236 
  -11.96118  0.00152  3.93448     13.72975  1.35873  1.34894   1.48838  0.32745     0.34467  13248.70356   3494.47117  0.23866         5899.81389     20.17272  0.08269  54128.53882  1.55843  0.00227  6779850.53005  44.38098  21.73082  54180.82821    50.95326       44.13393   29.80456  52.83536   49.5     0.2715  -21.38064  0.99972 
  -12.25773   0.0299  4.76614     13.91068  1.64499  0.98426    2.7045   0.2046     0.16266  13417.67821   4975.69766    0.229         4513.12611      17.3897  0.00014  54128.24227  2.90448  0.08085  5235368.65276  44.40973   21.7279  54180.82821    50.92791       44.11142   28.44981  55.54486   48.5    0.25791  -21.25991  0.98905 
  -12.55657   0.1541  5.54082     14.20377  1.93799  0.64409   3.81178  0.17882     0.33819   14071.2448   3222.23282  0.82852         2156.98411     19.05655  0.00633  54127.94343  4.50215  0.58738  2161610.24287  44.73427  21.70156  54180.82821    50.94359       44.15776    29.0486   48.1723   51.5    0.25082  -21.26608  0.92224 
   -11.9262  0.04009  5.17537     14.20475  1.76941   0.6264   4.59712  0.13026     0.18126   12355.2801   5708.66508  0.36283         4505.29789     17.82411  0.00037   54128.5738  4.18619  0.18428  1714096.64178  44.85476   21.7494  54183.20851    50.93903       44.11356   31.32521  54.02421   53.5    0.27394  -21.23736  0.97448 
  -12.27825  0.17344   5.7751     14.64825  2.03459  0.25257    5.3971  0.11669     0.22778   13528.6933   3343.69019  0.15404         4672.25474      19.8127  0.03609  54128.22175   5.8925  0.93605   318358.46419  45.55129  21.73986  54180.82821    50.92425       44.12465   29.80456  54.19011   52.5     0.2681  -21.29906  0.88117 
  -12.16163  0.39901  4.95822     13.82516  1.52286  1.46777   3.81754  0.13165      0.0924  12852.26567   5627.56496  0.25917          4382.3431      16.2151    1e-05  54128.33837  3.76158  1.52324  7776735.83262  44.17006  21.72765  54180.82821    50.92993       44.11938   29.80456  54.19011   53.5    0.24547  -21.21297  0.79787 
  -12.35066  0.03187  5.13033     13.95769  1.78081  1.26675   3.61464  0.15575     0.30288   12726.8674   4221.21128  0.31961         4911.77512     17.08139    7e-05  54128.14934  3.49249  0.11519  5288692.40251  44.37582  21.72115  54180.82821     50.9316        44.1385   29.80456  50.12585   52.0    0.27166  -21.26951  0.98421 
  -12.78335  0.07848  4.58618     13.96926  1.59804  0.85399   4.06864  0.17387     0.26388  14178.26772   4097.84472  0.71727         2401.61526     19.93452  0.04778  54127.71665  4.87891   0.3193   3595696.6161  44.59375  21.72956  54180.82821    50.95642       44.13088   29.80456  54.19011   50.5    0.25432  -21.32424  0.95983 
  -12.09689   0.0527  4.40443     13.79786  1.45407  1.30888   3.17122  0.16936     0.28271  13318.79347   5393.42491  0.17326          5094.0234      18.6102  0.00226  54128.40311   3.3557  0.16711   6644573.2624  44.32118  21.74348  54180.82821    50.96822       44.18009    29.0486   48.1723   57.5    0.26572  -21.25799  0.97718 
  -12.59346  0.05774  4.54954     13.85164  1.53185  1.10403   2.80374  0.23322     0.30835  14369.83559   5216.90141  0.47897         2387.76816       17.168    8e-05  54127.90654  3.45357  0.16188  5830240.78623  44.37244  21.70769  54180.82821    50.92314       44.14754   29.80456  48.64644   54.5    0.26504  -21.26879   0.9781 
  -12.12853  0.04625  4.93755     14.05108  1.64822  0.83088   5.23838   0.1089     0.20004  12300.70117   4871.56766  0.35569         4774.68902     17.97909  0.00053  54128.37147  4.72807  0.24228  2949182.53437  44.62914  21.73833      54179.5    50.91619       44.13803   28.44981   51.4806   51.0     0.2697  -21.23919  0.96626 
  -13.46167  0.04078  4.73705     13.96952  1.79832  0.92417   2.33711  0.30013     0.34039  15044.67091   4524.18353  0.01084         4389.64645      20.1922  0.08648  54127.03833  3.15553   0.0953  4311813.15278  44.53804  21.70829      54179.5    50.96378       44.17486   28.44981   51.4806   49.0    0.26001  -21.40774  0.98889 
  -12.16338  0.02324  5.13431     13.97162  1.82726  1.08826   2.60435  0.21377     0.40122   13341.1581   4162.91411   0.1917         5702.41964     18.09734   0.0007  54128.33662  2.76512  0.06053  5097289.76027  44.40234  21.76189  54183.20851    50.93134       44.11965   31.15931   51.4806   52.5    0.25522  -21.29504   0.9919 
  -12.17808  0.42951  5.72417     14.29499  1.82137  0.51229   4.01452  0.17602     0.22551  14463.01317   4654.26057  0.80705         2007.73502     16.43163    2e-05  54128.32192  5.00931  1.72427  1424468.50066  44.86017   21.7169  54183.20851    50.96893       44.20873    29.0486  45.41833   52.0    0.25289  -21.26562  0.77558 
   -11.6066   0.1828  5.44777     14.12945  1.68091  1.00047  10.08565  0.06858     0.25667  11982.93397   5185.17207  0.33314         5518.63964      17.6495  0.00025   54128.8934  8.63888  1.84369   2552106.1173  44.61505  21.72533      54179.5    50.92553       44.12095   28.44981  55.54486   53.0    0.26941  -21.25151   0.7634 
  -12.45426  0.06859  5.28622     13.98035  1.83114  1.18421   3.60843  0.15575        0.21  13021.82897   4372.80535  0.22096         5131.02286      16.2423    1e-05  54128.04574  3.64997  0.24749  5201596.74137  44.36914  21.71573  54180.82821    50.96439       44.14214   29.80456   51.4806   51.0    0.26647  -21.25526  0.96602 
   -12.0131  0.09757  4.85548     13.84124  1.64242  1.39903   4.21922  0.13885     0.23088  14364.68373   3181.96527  0.80077         2451.64853     18.34333  0.00122   54128.4869   5.1934  0.41167   7469483.4226  44.23857  21.73064  54180.82821    50.92084       44.13925    29.0486  49.40239   53.0    0.25564  -21.26472  0.94458 
  -12.18298  0.14638  4.66205     14.19883  1.41465   0.4646   6.86988  0.08212     0.09464  11827.00539   5459.86483  0.45967         5032.45629     16.17735    1e-05  54128.31702  5.73226  1.00559  1142789.47338  45.02438  21.72592  54180.82821    50.91495       44.14739   27.09505  46.06159   55.0    0.26898  -21.23604  0.86032 
  -12.47014  0.08026  5.63764     14.03228  2.13896  1.01851   2.52563  0.23344      0.2264  15176.13232   4116.12759  0.06583          3472.6061     17.94471  0.00049  54128.02986  3.46992  0.20271  5440784.29164  44.36119  21.72276  54180.82821    50.93681       44.14272   27.09505  47.41634   47.5    0.25648  -21.32811   0.9743 
   -12.8895  0.03948  5.09964     14.20517  1.79817  0.51209   3.35863  0.16788     0.25141  13802.50104   4300.29147  0.13602         4769.11252     16.74153    3e-05   54127.6105  3.81685   0.1326  1688060.35875  44.88121  21.72339  54180.82821    50.92047       44.14047    29.0486  52.23656   52.0    0.25439  -21.26915  0.98217 
  -12.34915  0.20281  5.13104     14.00064  1.74206  0.95388   2.96799  0.19714     0.20489  13613.81551   3777.49847  0.16524         5872.60251     17.63164  0.00024  54128.15085  3.28133  0.60194  4246186.35877   44.4615  21.72884  54180.82821    50.92014       44.14093    29.0486  45.41833   49.5    0.26729  -21.29516  0.91998 
  -12.47638  0.01545  4.68464     14.00982  1.58451  0.85057   2.39941  0.26922     0.44718  12898.76506   4306.63181  0.24748         5441.64221     17.91569  0.00046  54128.02362  2.38137  0.03707   3086141.2869  44.63797  21.71777  54180.82821    50.91922       44.14157   27.69385   47.1827   48.5    0.27996  -21.27971  0.99492 
  -12.21885  0.08457  4.79028     13.89917  1.62835   1.0764   3.40818  0.20728      0.3219  14512.54224   4173.34624  1.78713          2320.0208     17.63091  0.00024  54128.28115   4.2819  0.28822  5520077.51327  44.37793  21.73311  54180.82821    50.93026       44.13961   27.69385  52.23656   51.0    0.25295    -21.287  0.96124 
  -11.45839  0.01406  5.81058     14.08148  2.06233  1.26122   2.02762  0.22988     0.28481  11555.49094    5902.3347  0.53704         4673.48261     19.14417  0.00774  54129.04161  1.61507   0.0285  4442779.73473  44.40711  21.71339  54180.82821    50.94893       44.12561   29.80456  54.19011   54.5     0.2789  -21.23353  0.99595 
  -11.84082  0.25336  5.78917     14.52175   1.8231   0.3681   6.77454  0.10902      0.0942  12672.46343   3717.06052  0.43113         4289.28397       18.277  0.00105  54128.65918  6.48977  1.71641   513276.33463  45.29407  21.71876      54179.5    50.93704       44.14276   28.44981   51.4806   48.5    0.26816  -21.24724  0.77541 
  -12.37777  0.05384  5.44185     14.20662  1.93374  0.66694   4.43915  0.15354     0.46055  13760.84492   4374.53314  0.19526         4742.69811     17.85986   0.0004  54128.12223  5.01438  0.23898  2053327.26132  44.77129  21.74909  54180.82821    50.93342        44.1301   29.80456  47.41634   49.5     0.2701  -21.29611  0.96802 
  -12.38398  0.00436  4.76241     13.85478  1.63138   1.3151   1.53119  0.33348     0.29237  12617.49878    3686.1969  0.31791         5059.63502     17.14199    8e-05  54128.11602  1.45413  0.00667  6705906.93646  44.29929  21.74933  54180.82821    50.91954         44.141   27.69385  46.81755   49.5    0.25897  -21.25576  0.99908 
  -12.83839   0.0187  5.04908     13.99987   1.8031  0.90574   3.02009  0.20108     0.40126  14069.03182   3805.43834  0.11018         5179.55069       19.274  0.01044  54127.66161  3.56595  0.05647  4270952.03422  44.48792  21.74418  54180.82821     50.9236       44.11579   31.15931  52.83536   52.0    0.25885  -21.29544  0.99252 
  -12.28765  0.30285  4.47257     13.73711  1.40294  1.56865   3.23622  0.13649     0.08206  12227.29952    5675.3576  0.29434         4758.67771      16.3287    1e-05  54128.21235   2.8862  0.98008  8744826.79084  44.17302  21.71561  54180.82821    50.91181       44.14357   27.69385  44.10804   50.5    0.23352  -21.20223  0.86913 
  -12.23035  0.00714   4.2844     13.89391  1.42898  0.76621   2.07962  0.31425     0.48825  14808.30018   3355.58882  2.27962         2172.07615     16.47037    2e-05  54128.26965  2.72033  0.01484  3970009.38781   44.5613  21.73099  54180.82821    50.96346       44.14948   29.80456   51.4806   51.0    0.25815  -21.28426  0.99797 
   -12.4198  0.03916  5.40809     14.08008  1.95047  0.86288   2.06446  0.25913     0.40679  13107.10094   5341.26586  0.18822         5842.16755     18.02627  0.00059   54128.0802  2.11566  0.08085  3663327.08866  44.52902  21.74077  54180.82821    50.91111       44.13499    29.0486  50.88181   57.5     0.2604  -21.28073  0.98914 
  -11.95026  0.01435  5.15908     14.03915  1.82005  0.93931    3.2617   0.1725     0.19175   12677.9995   4807.37209  0.43277         4822.75719      17.5692  0.00021  54128.54974  3.12733  0.04681  3756146.99932  44.52904  21.74251  54180.82821    50.93941       44.12078   31.15931  55.54486   50.0    0.26832  -21.30344  0.99366 
  -12.36493  0.09284  5.38301     14.16839  1.94416  0.70178   3.60392  0.21618     0.31457  14935.36756   3512.08079  1.92299           2010.847     19.83261  0.03779  54128.13507   4.7955   0.3346  2408860.95361  44.71371   21.7368  54180.82821    50.93051       44.13694   29.80456   51.4806   48.5    0.26736  -21.33269   0.9569 
  -12.30816  0.03153  5.23731     13.94402  1.81844  1.35107   3.46862  0.14768     0.30856  12198.18603   4087.24915  0.32779         5070.45321     17.41076  0.00014  54128.19184  3.07875  0.10935  5993645.56177  44.31264  21.73578  54180.82821    50.93244        44.1087   29.80456  55.54486   54.5    0.25309  -21.23453  0.98479 
  -12.97532  0.09104  5.42241     14.19518  1.97421  0.57823   2.23054  0.25773     0.24202  14203.96554   3838.71001  0.05894         4329.36468     17.90438  0.00045  54127.52468  2.68446  0.20306   2193992.3166  44.75462  21.73557  54180.82821     50.9267       44.14303    29.0486  49.40239   48.5    0.25236  -21.27077  0.97327 
  -12.70671  0.03109  5.26964     14.02524   1.8662  1.03954   2.39694  0.23483     0.19154   12342.9228   3861.27155  0.37816         5836.32955     16.97908    5e-05  54127.79329  2.17831  0.07452  4284101.55729  44.46438  21.72826  54180.82821    50.95072       44.15003    29.0486  52.23656   48.0    0.25859  -21.31533  0.98989 
  -11.93902  0.06148  5.04188     14.11846  1.69694  0.61921   3.18284  0.15719     0.35646  12910.70556   3864.08828  0.24362           4813.215     16.61601    2e-05  54128.56098  3.16477  0.19569  2321363.34317  44.72759  21.70075  54180.82821    50.92643       44.14066   29.80456  46.42674   54.5    0.26487  -21.21751   0.9723 
  -12.41447  0.10252  4.60606     13.96943  1.56991  0.69194   3.61653  0.17172     0.14957  14568.92987   3337.60187  1.56181         2188.53058     18.45149  0.00157  54128.08553  4.57904  0.37078  3560365.31337  44.58657  21.71675  54180.82821    50.95861       44.13506   29.80456   51.4806   48.0    0.24999  -21.27903  0.95128 
  -11.92573  0.25192  5.00506     13.90767  1.60728  1.38627   3.40795  0.17344     0.23419  13205.61746   5358.98884  0.19085         4582.25953     16.43981    2e-05  54128.57427  3.54517  0.85854  5719968.91018  44.31872  21.74595  54180.82821    50.93772       44.11654   29.80456  54.19011   55.5    0.27206  -21.23589  0.88301 
  -11.58748  0.01622  4.54231     13.99351  1.47493  0.78324    3.3553  0.15153     0.49617  11694.58672   5419.49066   0.5005         4568.09779     18.32441  0.00117  54128.91252  2.73734  0.05441  2911579.42841  44.65894  21.70997  54180.82821    50.93417       44.13773   29.80456   51.4806   55.0    0.27074  -21.21698  0.99221 
  -12.18023   0.1102  4.62429     13.89218  1.46872  1.18043   5.17766  0.12228     0.16645  12510.82765   4713.32906  0.35303         4459.51585     17.55698   0.0002  54128.31977  4.83429  0.57057  4791636.47832  44.42521  21.72315  54180.82821    50.96325       44.14773   29.80456   51.4806   50.0    0.26353  -21.22912  0.92108 
  -12.76797  0.04204  4.97082     13.92722  1.73552  1.20241   3.59134  0.18427     0.34961  14222.47282    3933.4983   0.0813         5116.99863      18.1053  0.00071  54127.73203  4.33345  0.15097  5567430.05282  44.36976  21.72792      54179.5    50.90699       44.14603   28.44981   48.7711   50.5    0.27354  -21.29155  0.97982 
  -11.96696  0.07687  5.59058     14.18908  2.00257  0.63717   2.93092  0.22494      0.3689  14696.51855   4877.17382  2.89616         2112.30486     17.22379    9e-05  54128.53304  3.77624   0.2253  2433065.05949  44.68937   21.7344  54180.82821    50.91343       44.14239   27.69385  49.40239   55.0    0.26172  -21.27905  0.96937 
  -12.17761  0.17803  5.18367     13.97452  1.77416  1.02541   3.46822  0.16441     0.19971   13985.3862   3941.12886  0.13492         4771.95894     17.47721  0.00017  54128.32239  4.04653  0.61745  4977939.36135  44.39151  21.72952  54180.82821    50.94632       44.14092   27.69385  46.81755   50.5     0.2619  -21.28127  0.91833 
  -12.07667  0.27672   5.8598     14.02982  2.03238  1.35966   3.37621  0.19775     0.45479  14397.87958   3871.50134  0.39012         2504.81884     19.33764  0.01209  54128.42333  4.17498  0.93425  5648750.24273  44.28913  21.74191  54180.82821    50.91213       44.13772    29.0486   48.1723   52.5    0.25653  -21.27936   0.8774 
  -12.27458  0.02811    4.977     14.01968  1.66268  0.84096   3.92116  0.11219     0.17689  12199.96752   4680.86584  0.37389         4276.89503     17.72243  0.00029  54128.22542  3.48144  0.11023  3492973.41186  44.55252  21.72254  54180.82821    50.94418       44.13823   29.80456   51.4806   53.5    0.26438  -21.19084  0.98421 
  -12.77861   0.0773  3.97754     13.76515   1.2513  1.09261   4.02068  0.15112     0.17856  12870.54968   3326.99884  0.21912         5143.12412     18.25123  0.00099  54127.72139  3.97302  0.31081   5421279.6682  44.43288  21.74374  54180.82821    50.91652       44.12823    29.0486  45.41833   50.0    0.25647  -21.25546  0.95772 
  -11.20649  0.48696  5.86004     14.18529  1.88911  0.76084   2.92317  0.17741     0.19807  12120.28252   4043.39618   0.3882         5990.88283      17.2586   0.0001  54129.29351  2.56158  1.42347   2566172.6223  44.60002  21.72776  54180.82821    50.91466       44.13843    29.0486   48.1723   53.0    0.25776  -21.28738  0.80893 
  -12.40104  0.04727  4.94963     13.97882  1.72152  0.89541   3.47124  0.15714      0.1556  13376.72006   5511.35239  0.19818          4211.2022     19.08825  0.00681  54128.09896  3.70519  0.16409  4317613.29359  44.48037  21.74661  54180.82821    50.93211       44.13526   29.80456   51.4806   54.5    0.24985  -21.25125  0.97792 
  -12.44591   0.1469   4.3463     13.75091  1.40105  1.51896    3.2512  0.19719       0.311  14275.85615   3284.00771  0.74126         2393.71115     18.59068  0.00216  54128.05409  3.95252  0.47759  7739159.01195  44.25037  21.73637  54180.82821    50.92576       44.13659    29.0486   48.1723   51.5    0.25024  -21.26047  0.93549 
  -12.43889  0.05033  5.14515      14.0584  1.81635  0.81024    2.5918  0.21518      0.3204  13464.61582   5188.41417  0.17118         5068.37484      18.5401  0.00193  54128.06111  2.80296  0.13044  3412014.84551  44.57224  21.72405  54180.82821    50.92447       44.13805    29.0486  52.23656   56.0     0.2642  -21.27581  0.98247 
  -11.99852  0.32191  5.16655     14.04969  1.68138  0.88759   2.76858  0.20491     0.18419  12395.73939   3966.09949  0.36362         4891.69846     16.20837    1e-05  54128.50148  2.53764  0.89124  3315189.25516   44.5476  21.74513  54180.82821    50.94444       44.12453   29.80456  54.19011   49.5    0.26192  -21.25741  0.87975 
  -12.23684  0.02626  4.95311     13.94017  1.76289   1.0982   2.96736  0.18936     0.45218  13722.14089   4723.28764  0.24675         4252.31383     19.70055  0.02788  54128.26316  3.33304  0.07794  5289965.63747  44.40186  21.72148  54180.82821     50.9366       44.14526   29.80456   51.4806   53.5    0.26588  -21.30298  0.98977 
  -12.21145  0.08778  5.00141     13.93953  1.63422  1.22187   3.21807   0.1644     0.21333  11972.19908    4214.9895  0.46877         4094.15225     16.71961    3e-05  54128.28855   2.7515  0.28249  5014735.96308  44.38372  21.73692  54180.82821    50.96195        44.1364   29.80456  52.83536   51.5    0.26141  -21.18422  0.95933 
  -12.03873  0.07679  5.37764     13.97087  1.89849  1.18835   2.53905  0.20208     0.21876  13078.50795    3620.6071  0.24566         5027.03089     16.12183    1e-05  54128.46127  2.59068  0.19497  5830022.33291   44.3204  21.73271      54179.5    50.92151       44.16044   27.28423  49.93667   51.0    0.25571  -21.25712  0.97338 
   -12.2642  0.05216  4.28943     13.89841  1.40078  0.81172   2.58069  0.21378     0.21569  12690.29139   4826.32551  0.30564         4594.76419     17.90228  0.00044   54128.2358  2.47917  0.13461   3820930.6777  44.56825  21.74649  54180.82821    50.89042       44.11426   31.15931   48.7711   50.5    0.25913  -21.24126  0.98148 
  -12.17333  0.02106  4.83098     13.92706  1.66122  1.04545   2.42077  0.21295     0.29616  13057.64214   5299.61462  0.23983         4722.33405     19.54609  0.01954  54128.32667  2.46213  0.05098  5037285.83625  44.41901   21.7267  54180.82821    50.92226       44.13912    29.0486  52.23656   55.5    0.25527  -21.25437  0.99303 
  -12.31206  0.17223  4.41135     13.76859  1.39222  1.39741   3.81344  0.14018     0.10791   12775.5731   5627.80817  0.26847         4337.63093     17.18657    9e-05  54128.18794  3.71283  0.65678  7302888.71588  44.25992  21.69893  54180.82821    50.92432       44.14943    29.0486  45.41833   52.5    0.24649   -21.2186  0.91037 
  -12.73923  0.11064  5.26202     14.02518  1.86012    0.878   3.86632  0.15583     0.12909  14037.54231    4363.1843  0.37267         2409.97724      18.0794  0.00067  54127.76077  4.54472  0.42777  4259035.89351  44.46677   21.7326      54179.5    50.91546       44.13668   27.09505  50.00119   48.0    0.25238  -21.26323  0.94393 
  -12.30762   0.0391   5.3319     14.08056  1.85795  0.97374   6.15615  0.10228     0.20306  12458.06715   4135.71129  0.32787         5103.74325     18.55217  0.00198  54128.19238  5.69951  0.24071  3384504.90991  44.55462  21.71285  54180.82821    50.95307       44.17885   28.44981  47.41634   50.0     0.2688  -21.27187  0.96734 
  -11.85544  0.25031   5.3121     14.06349  1.64768  1.00903   5.33177  0.11381     0.13762  11984.16165    4161.7871   0.3637         4558.49956     18.56805  0.00205  54128.64456  4.56788  1.33458  3222833.41894  44.52695  21.73847  54180.82821    50.96149       44.14284    29.0486   48.1723   51.5    0.26957  -21.20149  0.81883 
   -12.9574  0.04435  4.31429      14.2023  1.44738  0.36895   4.31644  0.14862     0.23204  14251.93622    4855.9399  0.13078         2624.06981     17.84986  0.00039   54127.5426  5.22998  0.19142   985405.50079    45.166  21.73245  54180.82821    50.91851       44.13788    29.0486  52.23656   54.0    0.26201  -21.27682  0.97473 
  -13.17366  0.01647  5.61619     14.24275  2.04406  0.56839   2.44155  0.25755     0.26381   13761.8751   5568.47291  1.54405         2174.86628     18.99163  0.00545  54127.32634  2.75834  0.04021   1957485.4778  44.78876  21.73323  54180.82821    50.92259       44.14457    29.0486   48.1723   55.5    0.24373  -21.23769  0.99451 
  -12.57813  0.05335  4.82555     13.92018   1.6523  1.05571   3.15712  0.18415     0.41437  13607.69128   3635.95225  0.05196         5382.80967     17.10092    7e-05  54127.92187  3.48728  0.16842  5159798.56352  44.40721  21.71992  54180.82821    50.93329       44.14091    29.0486  52.23656   52.5    0.26337  -21.24366  0.97718 
  -13.07328  0.16615  4.12082     13.88531  1.37832  0.71061   1.93095  0.33238     0.30011  14744.53299   4019.13822  0.09287         2562.30297     18.52717  0.00187  54127.42672  2.50416  0.32083  3685543.19502  44.61173  21.72775  54180.82821    50.92463       44.12744   31.15931  50.12585   47.5    0.24597    -21.305  0.95885 
  -11.84641  0.08084  5.25006     13.95577      1.9  1.08908   2.01334  0.29022     0.42476  15403.20043   4814.92067  0.56639         2293.79814     16.76983    3e-05  54128.65359  2.84948  0.16276  5961626.30442   44.3319  21.72902  54180.82821    50.93571        44.1287   31.15931  52.83536   53.0    0.25852  -21.31697  0.97859 
  -12.52198  0.09108   5.3813     13.98958  1.95156  1.19388   2.50809  0.22971     0.49809  13984.59505    5091.3626  0.17569         3020.71712     19.82855  0.03744  54127.97802  2.92598  0.22844  5505721.99007  44.35664  21.73337  54180.82821    50.93088       44.15823    29.0486  49.40239   58.0    0.25951  -21.28117  0.97021 
   -12.1433   0.0902  4.42315     13.75408  1.48124  1.36976   4.13551  0.14905     0.19542  14706.98447   3897.27419   0.5185         2601.19262     18.21255  0.00091   54128.3567  5.33585  0.37304  8351054.99511  44.22626   21.7244  54180.82821    50.92724       44.14335    29.0486  50.88181   51.0    0.25343  -21.28602  0.95081 
  -12.75958  0.11051  5.18005     13.88816  1.82743  1.49155   3.75231  0.17975      0.2416   14867.2107   4202.65819   0.4245         2736.22969     16.16535    1e-05  54127.74042  4.94749  0.41465  7620986.96146  44.22001  21.71443      54179.5    50.95696       44.20401   25.92948  48.58192   51.5    0.25581  -21.29845  0.94564 
  -12.60649  0.11066  4.86481     13.82491  1.72189   1.4866   2.08711  0.28519     0.41908  14764.37695   4583.21864  0.96727         2356.23358     17.49716  0.00017  54127.89351  2.71395  0.23095  8474795.78887  44.20259  21.71637  54180.82821    50.94758       44.12911   29.80456  56.89961   53.0    0.25246  -21.29429  0.96991 
