 texplosion  fnickel    Pspin  log(Bfield)      Mns  thetaPB   mejecta    kappa  kappagamma     vejecta  temperature    alpha  cutoff_wavelength  log(nhhost)      A_V         MJD0  kenergy   mnickel             TSD   log(L0)  Peak_mag     Peak_MJD  log(E_rad)  log(Peak_lum)  Rise_Time     E_fold  tau_1  delta_m15     r_peak     frac 
 -100.06155  0.01334  3.72562     13.81567  2.05173  0.75454  19.12344  0.04959       0.012  2289.33333    9939.0032  4.39473          2166.9317     19.19925  0.00879  57969.43845  0.59788   0.25519   6180086.22619  44.64757  19.65425  58104.68865     51.2828       44.05993   83.32045  128.55154  146.0    0.02249  -20.63332  0.98413 
  -139.8211  0.08066  3.18676     13.51827  1.58296  1.20904  50.17413  0.04613     0.10804  2998.45655   9818.40747  4.77584         2052.77804     19.21096  0.00903   57929.6789  2.69093   4.04687  13722703.04563  44.32418  19.37142  58059.58848    51.37833       44.03855  121.40979  160.69009  122.0    0.01902   -20.8938  0.78274 
 -112.23366  0.27289  3.92291     13.95943  1.57048  0.34027  23.96867  0.05826     0.16395  3300.62272   9846.76432  4.67574         2189.90616     19.22771  0.00939  57957.26634  1.55763    6.5408   2705237.02219  44.84545  19.55471  58107.69533    51.22639       43.95136   95.22337  140.45447  122.0    0.02418  -20.85351  0.57868 
 -140.48323  0.04434  3.36793     13.69407  1.92227  1.19342  43.03234  0.09622     0.15787   3585.4453   9923.86995  2.52035         2422.30417     18.65346   0.0025  57929.01677  3.29996   1.90822   8283669.90248  44.57971  19.44088  58074.62187    51.32007       43.99682  111.88746  150.91774  146.0    0.01917  -20.89402  0.90466 
 -137.65679  0.20059  4.68295     13.83184  1.74211   0.8419  44.95433   0.0713     0.08035  3476.16425   9856.92706  3.30523         2815.60561     17.66018  0.00025  57931.84321   3.2404   9.01756   7695829.86656  44.28263  19.52794  58077.62855    51.27566       43.95443  114.26804   149.9768  140.0    0.02061  -20.88579  0.46567 
  -147.8882  0.13138  3.89995     13.82278  1.66585   0.6316  57.42246  0.04153      0.2424  2454.39013   9779.72993  4.42735         2471.64903     18.69356  0.00274   57921.6118  2.06346    7.5441   5321120.32477  44.58236  19.34402  58041.54841    51.37818       44.02201  126.17096  162.83472  128.0    0.01621  -20.77143  0.58218 
 -167.21291  0.05818  3.11082     13.55755  1.64934  1.27551  62.50987  0.05367     0.22402  2976.14058   9876.11278  3.51735         2534.84098     18.65688  0.00252  57902.28709   3.3028   3.63684  11370428.53389  44.44463  19.54716   58083.6419    51.27716       43.94595  114.26804  154.73797  142.0    0.02182  -20.87853  0.82043 
  -151.1464  0.05586  2.62089      13.5821  1.48548   0.9306  22.49533  0.26699     0.35542  5490.03137   9955.45403   3.4228          2130.3948     17.42064  0.00015   57918.3536  4.04454   1.25649    6492021.4309  44.79143  19.51631  58071.61519    51.38391       44.04493  119.02921  157.11855  142.0    0.01635  -20.96747  0.94204 
 -123.11165  0.01907  2.88642     13.72981  1.48927  0.63509  43.44609  0.06727     0.06965  3108.18358   9802.63269  2.34441         2642.50584     18.61912  0.00231  57946.38835  2.50375   0.82848   3998485.95519  44.91921  19.57784  58089.65526     51.3348       43.99546  119.02921  159.49914  120.0    0.01948  -20.84575  0.95288 
 -141.48054  0.15232  4.02026     13.87212  1.80123  0.65145  45.67177  0.04487        0.22  2410.62765   9907.59316   4.1792         2504.21677      18.2277  0.00094  57928.01946   1.5832   6.95666   4871431.01609  44.62825   19.5377  58077.62855    51.28666       43.96604  116.64862  157.11855  128.0    0.01872  -20.78021  0.61769 
 -126.53115  0.22826  3.59061     13.60931  1.74376    1.324  13.51784   0.2553     0.26814  4307.91974   9955.89804  2.56893         2472.35035     17.00216    6e-05  57942.96885  1.49648   3.08563  12618987.23784  44.29897  19.44687  58089.65526    51.29883       43.99724   97.60395  145.21563  138.0    0.02105  -20.87197  0.81313 
 -132.89004  0.02175  3.14385     13.44436  1.71012  1.34717  17.35528  0.12038     0.01895  3520.58772   9977.36676  2.24283         2612.86685     18.67289  0.00262  57936.60996  1.28318   0.37745  20278486.74753  44.19991  19.43911  58062.59516    51.32775       43.99264  121.40979  158.00252  134.0    0.03117  -20.93726   0.9771 
 -120.89577  0.05925  3.45858      13.6842  1.88645  1.09566  19.51364  0.13843     0.16287  4079.89253   9962.07486  4.05921         2193.24432     18.58288  0.00213  57948.60423  1.93759   1.15615   8971247.99552  44.51384  19.45399   58083.6419    51.27871       43.96985  111.88746  148.51241  118.0    0.04247  -21.01075  0.93443 
 -130.04896  0.01811  2.98037     13.73871  1.60959  0.63935  45.48508  0.05458      0.2795  3348.67422   9904.73106  2.75515         2198.96664     17.46389  0.00016  57939.45104  3.04258   0.82363   4422387.31087  44.88136   19.6616  58113.70868    51.33191        44.0306  109.50687  145.21563  116.0    0.02331  -20.93078  0.95497 
 -183.33796   0.0162  2.41433     13.48654  1.44128  0.81751  24.48155  0.13446      0.0276  3516.92012   9890.91635  2.91817         2273.43044     17.78411  0.00034  57886.16204  1.80631    0.3965   8299821.95664  44.74293  19.44684  58068.60851    51.38659       44.02728  126.17096  165.97794  155.0    0.02162  -20.99174  0.98244 
 -162.90443  0.10078  3.09623     13.63006  1.82026  1.26588  22.52264  0.23845     0.38795  4654.30918   9946.11653  4.19371         2253.30809     17.60601  0.00022  57906.59557  2.91043   2.26984   8901960.69525  44.59783  19.43983   58083.6419    51.35288        44.0183  116.64862  154.73797  146.0    0.01736   -20.9318  0.89692 
 -174.36979    0.028  2.84072     13.69016  1.92012  1.18687  42.44522  0.10216     0.16865  2476.71454   9919.50381   2.2763         2163.76755     17.90963  0.00045  57895.13021  1.55313   1.18842   5993607.47067  44.86763  19.44663      58069.5    51.35381       44.00526  121.40979  162.82066  148.0    0.02518  -20.73729  0.95619 
 -126.53449   0.2128  3.53061     14.02797   1.5613  0.31311  25.72707  0.06063     0.07342  2456.21721   9782.95797  4.72521         2117.83527     18.40999  0.00143  57942.96551  0.92587   5.47473   1588790.07884  45.16556  19.44687  58074.62187     51.3412       44.00224  119.02921  159.49914  132.0    0.02076  -20.71303  0.67863 
 -166.77643  0.00609  3.02608     13.62017  1.96063  1.48121  41.05549  0.07696     0.01602  3063.05696   9837.87792  2.83523         2190.08506     18.70847  0.00284  57902.72357  2.29778   0.24984   9585641.83676  44.61786  19.46916   58083.6419    51.35639        44.0128  119.02921  159.49914  124.0    0.01944  -20.97058  0.98928 
 -136.29188  0.23694  5.55712     14.00985   1.9018  0.51771  51.32781  0.03752     0.04237  2694.70021    9767.4764   3.5199         2399.32942     18.01308  0.00057  57933.20812  2.22331  12.16157   5211730.15076  44.34133  19.43729  58071.61519     51.3671       44.03857  114.26804  154.73797  122.0     0.0198  -20.83825  0.33035 
 -166.15954  0.01185  3.01719      13.7691  2.04384  0.97588  59.66993  0.06966     0.17289  2963.93586    9987.0454  1.51255          2605.6957     19.44964  0.01564  57903.34046  3.12695   0.70715   5003459.44963  44.92082  19.56122  58080.63523    51.25832        43.9382  119.02921  154.73797  138.0    0.03159  -20.90957  0.97264 
 -165.81969   0.4211  4.63296     13.79008  1.52634  0.70094  36.90061  0.07325      0.1112  2635.10463   9957.96878  0.05128         4528.45988     16.50692    2e-05  57903.68031  1.52847  15.53888   7998850.52144  44.21775   19.4999  58074.62187    51.30076       43.95943  123.79038  165.92856  122.0    0.02239  -20.85522  0.29144 
 -113.65258  0.07152   3.6571     13.66555  1.80033  1.44482  42.64034  0.06512     0.25141  2999.41742   9904.40165  2.13578         2357.42165      16.7079    3e-05  57955.84742  2.28835   3.04958  10431524.58503  44.37958   19.5981  58104.68865    51.29079       44.00093   88.08161   146.1005  120.0    0.02515  -20.76208  0.81949 
 -133.62251   0.0751  3.97226     13.94557  1.98348  0.60096  58.37521  0.04195     0.16978  2767.69119   9980.26133  2.88963         2415.17025      18.7717  0.00328  57935.87749  2.66742   4.38388   3734050.77724  44.79602    19.383  58050.56845    51.38887       44.02273  126.17096  171.40206  118.0    0.01965  -20.80331  0.75352 
 -170.92236  0.01638  2.27875     14.02402  1.61747  0.39327  63.41658  0.08857     0.09282  3011.27534   9708.59439  4.83565         2308.53518       18.534   0.0019  57898.57764  3.43029   1.03887    698238.45863  45.91828  19.44044      58069.5    51.31172       44.00133  107.83214  144.50979  152.0    0.02299  -20.82477   0.9684 
 -120.19536  0.07609  3.49914     13.67458  1.80825  1.12738  19.91614  0.15378     0.06433  4448.46551    9886.5455  3.67438         2668.09085     17.73657   0.0003  57949.30464    2.351    1.5155   9201252.45024  44.47433  19.61287  58080.63523    51.40786       44.04539  126.17096  166.64089  128.0    0.02359  -21.01663  0.90903 
 -107.05673  0.02829  3.84887     13.63349  1.87874  1.40833   48.5158  0.03944     0.03427  3419.14812   9763.25726  3.14976         2664.72419     16.68951    3e-05  57962.44327  3.38334   1.37248  13975334.42063  44.22668  19.53273  58095.66861    51.28706       43.97076  111.88746   149.9768  116.0    0.03008  -20.85102  0.90403 
  -130.0697  0.35079  3.79133     13.62474  1.81939  1.43425  13.68216  0.23407     0.20994  5076.29197   9924.33655  2.80916         2387.77697     17.74862  0.00031   57939.4303  2.10317    4.7996   13672546.4372  44.23534  19.44774  58077.62855    51.28247       43.98449  107.12629  146.89446  132.0    0.02432   -21.0356  0.72665 
 -131.08307  0.04654  3.05013     13.45484  1.65806  1.19366  11.79428  0.17616     0.07478   5607.7136   9967.95569  2.99533         2365.77611     17.68983  0.00027  57938.41693  2.21243   0.54887  17634677.01903  44.27344  19.47336  58095.66861    51.27114       43.97765  102.36512  138.21377  133.0    0.03476  -21.16708  0.96776 
 -141.38406  0.05109   3.2768     13.71543  1.99223  1.13508  25.25763  0.15307     0.06832  4306.35392   9993.55482  3.60374         2153.79126        17.82  0.00037  57928.11594  2.79408   1.29042   7365360.33635  44.67009  19.54007  58089.65526    51.32764       43.97548  121.40979  161.87972  130.0    0.02799  -21.08033   0.9401 
 -171.14838  0.12287  3.58506     13.85762   1.7596  0.65271  72.00837  0.04722     0.18292  2786.82662   9776.40644  4.90809         2053.74929     19.03849  0.00607  57898.35162  3.33603   8.84766   4045680.54793  44.79827  19.47433  58086.64858    51.29598       43.99187  109.50687  147.59622  134.0    0.02462  -20.87362  0.61097 
   -198.168  0.02959  2.68408     13.54576  1.69049  0.95886  36.97643  0.09023     0.02023  3463.99253   9874.32665  2.21958         2538.48589     17.82258  0.00037    57871.332  2.64671   1.09422   9160072.24189  44.67737  19.49699  58089.65526    51.24766       43.95631   97.60395  144.51388  156.0    0.01941  -20.96673  0.95445 
    -160.41  0.32382  3.61422     13.61205  1.69384  1.27221  23.42362  0.24398     0.36364  4778.14612   9906.20751  3.14105         2324.87807     18.29124  0.00109     57909.09  3.19007   7.58505  12263761.55149  44.29307  19.54209  58089.65526    51.33983       44.05018   97.60395  145.21563  152.0     0.0173  -20.85264  0.62615 
 -155.70387  0.08276  2.83985     13.44162  1.44578  1.40559  56.35161  0.03693     0.03265  3096.69875   9755.89952  4.89549         2413.07537     19.63142  0.02378  57913.79613  3.22353   4.66389  14166350.27327   44.3711  19.56565  58092.66194    51.25262       44.05035   57.13402  126.17096  122.0    0.02447  -21.04596  0.77672 
  -167.1566  0.12235  3.54015     13.63089  1.92307  1.52531  28.29472  0.15164     0.06182  3414.14337   9990.75803  2.86558          2665.8075     18.80854  0.00357   57902.3434  1.96742   3.46198  12248096.84289  44.36673   19.3378  58059.58848    51.36926       44.05111  111.88746   149.9768  158.0    0.01587  -20.79704  0.82265 
 -155.77995  0.00598  3.26769     13.63788  2.06107  1.38642   45.0407   0.0674     0.01472  3289.54764   9902.59152  2.27668         2232.72127     18.82424  0.00371  57913.72005   2.9074   0.26957   10830109.8174  44.51982  19.60057  58095.66861    51.26675       44.02304   69.03694  132.12308  126.0    0.02862  -20.99898  0.98735 
 -105.97916  0.11007  3.79648     13.61131  1.80338   1.5045  13.74269  0.17364     0.11735  4350.52286   9903.11841  4.43509         2673.18526     17.79689  0.00035  57963.52084  1.55161    1.5127  14455813.63848  44.20613  19.39939  58038.54174    51.39172       44.01815  128.55154  176.16323  130.0    0.03087  -20.92465  0.89211 
 -169.81698  0.16066  4.04573     14.18411  1.69394  0.26123  67.75017  0.02491     0.04324  1691.95891   9785.30175   4.9663         2313.20694     16.65925    3e-05  57899.68302  1.15696  10.88453   1102758.58713  45.24127  19.51058  58098.67529     51.3093       43.99737  107.12629  145.21563  152.0    0.01478  -20.60249  0.47676 
 -160.35374  0.15867     4.02     13.74615    1.749  0.82574   59.3477  0.03523     0.28463  2006.64615   9703.34873    4.763         2366.68105     18.92294  0.00465  57909.14626  1.42552   9.41682   8448005.66814  44.37643  19.54512    58110.702    51.31115       44.07836   88.08161  128.55154  142.0    0.01712  -20.69773  0.52925 
 -149.06241  0.04583   3.4912     13.64726  1.94513  1.01466  26.54292  0.12651     0.31243  4362.77216    9693.3177  4.54598         2095.53598     16.31593    1e-05  57920.43759  3.01371   1.21647  11173807.32506  44.42365  19.43107  58086.64858    51.28563       43.99252   99.98453  142.83505  150.0    0.02003  -20.96049  0.93087 
 -102.18643  0.01759  3.49282     13.60118  1.79936  1.33043  17.96317  0.13756     0.05015  4346.28368   9932.93263  3.78194         2228.69484     18.64824  0.00247  57967.31357  2.02417   0.31596  12791837.92924  44.33068  19.61819  58098.67529    51.28388       43.95916  116.64862  154.73797  124.0    0.03972  -20.92942  0.97914 
  -157.6967  0.19703  3.30635     13.61372   1.7914  1.38208  20.38058  0.25209     0.32103  4890.78828   9951.87211  3.42441         2174.78769     17.52028  0.00018   57911.8033  2.90805   4.01565  10771452.17953  44.45107  19.59924   58083.6419    51.32741        44.0675    90.4622  140.70689  146.0    0.01689  -20.93217  0.80657 
 -142.40964  0.13754  2.76588     13.67073  1.41444  0.84444  33.60461  0.05206     0.35439  1584.96507   9809.51958  4.32905         2663.76604     18.14977  0.00078  57927.09036  0.50358   4.62212   4577321.94497  44.87515  19.45248  58071.61519    51.37847       44.05428  111.88746  154.73797  150.0    0.01434  -20.60998  0.78908 
  -98.30911  0.32207  5.20775     14.00082   1.7571  0.37135  29.02208   0.0427     0.22707  3475.91335   9806.74795  4.98616         2094.04281     19.70054  0.02788  57971.19089  2.09167   9.34717   4408316.99648  44.43607  19.54896  58092.66194    51.28589       43.97022  114.26804  157.20816  120.0    0.02848  -20.82973  0.37584 
  -156.6635  0.04099  3.39919     13.80391  2.14877  0.96863  23.09864  0.23178     0.12557  4799.98842   9881.19027  4.25828         2313.14031     18.42465  0.00148   57912.8365  3.17464   0.94689   5687588.84522  44.78336  19.53264      58099.5    51.21501       43.94753   88.08161  140.45447  142.0    0.01905  -20.99123  0.95711 
  -195.1049   0.1298  2.59238     13.60659  1.75949  1.39906  23.62763  0.30234     0.42152   4044.7926   9927.60938  4.14784         2226.42568     17.67918  0.00027   57874.3951   2.3059   3.06688   6720666.36097  44.85942  19.59753  58095.66861    51.31493        44.0305   97.60395  142.83505  164.0    0.01398  -20.73463  0.89933 
 -157.87241  0.10472  3.96595     13.80127  1.97405  0.97077  63.94063  0.05665     0.03319  3085.03508   9815.27446  4.95391         2385.33744     18.58441  0.00213  57911.62759  3.63015   6.69585   7200059.04004  44.51017  19.44192  58080.63523    51.32737       44.01288  119.02921  159.49914  140.0    0.02338  -20.88311  0.66795 
  -120.6581  0.04273  3.46816     13.85984   1.8974  0.68985  41.20922  0.07868     0.10728  3432.11475   9991.21755  3.71375         2047.43726     18.05254  0.00063   57948.8419  2.89564   1.76071   4041001.76081  44.86032   19.5759  58092.66194    51.28505       43.95237  119.02921  159.49914  128.0    0.03831  -20.86487  0.90462 
 -173.21188  0.16261  3.67868     13.75671  1.62348  0.78477  63.59381  0.05321     0.17171  2579.43061   9889.46807  0.14202         3956.80378     17.57775  0.00021  57896.28812    2.524  10.34114   6254992.20723  44.55168  19.32053  58053.57513    51.34248        44.0596  102.36512  145.21563  138.0    0.03712  -20.77982  0.52877 
 -134.04542  0.08821  3.55229     13.70948  1.78924  1.15894  44.41645  0.06603     0.17572  2820.47864   9921.22181  4.66875         2523.23236     18.79534  0.00347  57935.45458  2.10774   3.91812   7990042.16395  44.51795  19.34801  58086.64858    51.35882       44.08323  102.36512  142.83505  118.0    0.02138  -20.83184  0.78913 
 -155.44898  0.02465  3.49978     13.69328  2.08165  1.38298  44.34889  0.09673     0.04178  3478.99634   9896.24278  3.42741         2398.62901     18.12588  0.00074  57914.05102  3.20197   1.09327   9721900.66331  44.51142   19.5332   58083.6419    51.30982       43.97779  116.64862  155.62194  152.0    0.01777  -20.84713  0.94494 
 -100.64617  0.44249  5.14774     13.80947  1.88344  0.91713   16.5464  0.16507     0.15479  5062.49785   9828.07749  4.40471          2265.1976     18.73695  0.00303  57968.85383  2.52965   7.32154  11144542.75002   44.0735  19.52712  58098.67529    51.27335       43.96812  109.50687   146.0996  132.0    0.02223  -20.86673   0.4915 
  -99.99637  0.10365  3.00013     13.72993  1.47231  0.59541   12.4126  0.21539     0.11936  4705.98314   9886.73021  3.03375         2274.14589     19.12648  0.00743  57969.50363   1.6398   1.28659   4268058.58869  44.85233  19.40678      58069.5    51.36792       44.02778  116.64862  157.11855  120.0    0.03941  -21.01808  0.92112 
   -69.3114  0.17192  4.03265      13.6205  1.70081  1.19196  17.43495   0.0354      0.4195  3415.12307    9784.2851  4.68884         2042.57557     18.09143  0.00069   58000.1886    1.213   2.99746  14745103.80303  44.11967  19.44107   58083.6419    51.27737       43.99128  102.36512  145.21563  128.0    0.03176  -20.71627  0.76942 
 -160.60624  0.11303  3.70632     13.77415  2.14372  1.28513  42.71087  0.07935     0.17571  2888.51491   9786.73922  2.97051         2261.70634     18.71155  0.00286  57908.89376  2.12576   4.82776   7736905.90708  44.57356   19.3087  58032.52838    51.37891       44.03649  119.02921  164.26031  126.0    0.01843  -20.89783  0.78575 
 -137.98061  0.03988  2.98101     13.85266  1.67974  0.52397  36.21318  0.10104     0.41969  4255.36498   9920.68765  2.47038         2066.48694     17.58987  0.00022  57931.51939  3.91172   1.44431   2731827.19924  45.10891  19.62633  58095.66861    51.30056       43.94788  136.39915  165.93504  132.0     0.0274  -21.03187  0.92862 
 -151.43537  0.29944  4.25936     13.68242  1.89056  1.31591  26.47194  0.17452     0.16948  4692.59514   9926.90182  3.81986         2537.95289     18.48363  0.00169  57918.06463  3.47728   7.92685  13748567.89995  44.14849  19.42024  58068.60851    51.32167       44.00212  109.50687   149.9768  148.0     0.0158  -20.90813  0.57276 
 -131.06019   0.0281  3.39765     13.86374  1.91122  0.69976  24.52737  0.15913     0.10132  3694.44532   9847.09851  4.27334         2498.77504     17.21756    9e-05  57938.43981  1.99699   0.68913   3837121.24867  44.90379  19.51334  58089.65526    51.28624       43.95865  114.26804  150.86167  140.0    0.02155  -20.89069  0.96249 
 -131.98294  0.06333  3.70216     13.69836  2.04352  1.29928  23.20242  0.14829     0.15241  4161.46498    9953.3496  2.35035          2627.1528      17.7616  0.00032  57937.51706  2.39692    1.4694  10432452.48074  44.42393  19.40383      58069.5    51.30052       44.01993    98.3098   142.1292  136.0    0.02357  -20.95076   0.9167 
 -119.25129  0.01926  3.24753     13.73277  1.84802  1.00163  25.52124  0.11739     0.08742  3142.39146   9968.90663  3.47099         2252.19231     18.86541  0.00408  57950.24871  1.50331   0.49142   6195761.21006  44.72035  19.49854  58095.66861    51.30337       43.98397  109.50687  148.49345  114.0    0.02249  -20.85737  0.97412 
 -134.84742  0.03543  3.63813     13.71242  2.10321  1.48319  38.03736  0.07055     0.03679  3030.32497   9911.46574  3.72876         2330.24857     18.44154  0.00154  57934.65258  2.08361   1.34773   9718918.38898  44.48235   19.5737  58086.64858    51.31588        43.9585  126.17096  164.26031  116.0    0.02259  -20.89218  0.92912 
 -170.15408  0.12822  3.42403      13.7832  1.73475  0.73909  49.84473  0.08431     0.18812  3177.49918   9803.94445  3.53733         2311.12821     18.59543  0.00219  57899.34592  3.00205   6.39122   5125399.87037  44.72928  19.63686  58095.66861    51.28996        43.9757  109.50687  150.86077  154.0     0.0167  -20.81798  0.69959 
 -160.14001  0.03912  3.45775     13.74845  2.16524  1.26423  29.32466  0.14312     0.03895  3315.39075   9986.07026  4.54288         2331.18007     19.32745  0.01181  57909.35999  1.92278   1.14722   7656066.48663  44.64276  19.47741   58083.6419    51.30965       43.97744  121.40979  155.62194  148.0    0.01687  -20.88506  0.94734 
 -143.22138  0.03807  2.91099     13.54662  1.56476  1.13157  44.38622  0.06997     0.14559  3259.21612   9918.21373  3.64048         2252.07693     17.33443  0.00012  57926.27862  2.81256   1.68977   9933517.91828  44.53811  19.59633  58086.64858    51.36504        44.0147  123.79038  164.26031  126.0    0.02485  -20.92167  0.91246 
 -129.27161  0.04867  3.79469     13.87827  1.94699  0.56994  39.84489  0.04689     0.02027  3164.84112   9931.71177  3.37441         2672.31922     18.37362  0.00131  57940.22839  2.38069    1.9392   4560355.98829  44.74086  19.54674  58074.62187    51.29246       43.96286  133.31271  159.49914  124.0    0.02407  -20.89221  0.87731 
 -193.26392  0.08595   2.9061     13.73922  2.07215  1.21589  27.25535  0.29265     0.21596  4503.22177   9840.26931  2.98666         2413.02158      18.9344  0.00478  57876.23608  3.29705   2.34269   5400266.77314  44.92623  19.60754  58089.65526    51.33403       43.99436  119.02921  161.87972  164.0    0.01461  -20.73898  0.92259 
 -127.88229  0.41279  4.42583     13.70409  2.01403  1.44818  15.08424  0.20065     0.35271  4415.31077   9996.69145  4.50032         2400.05834     17.47866  0.00017  57941.61771  1.75418   6.22665  14311365.88765  44.12524  19.46896  58062.59516    51.36673       44.13552   71.41752   135.6933  136.0    0.02449   -20.9677  0.63423 
  -95.71405  0.05419  3.48997     13.71251  1.70583  0.82487  20.77144  0.08689      0.4991  3731.48792   9940.22915  3.98736         2232.21259     18.69344  0.00274  57973.78595  1.72527   1.12568    7250729.7585  44.55476  19.51514   58083.6419    51.28246       43.97427  111.88746  146.88389  108.0    0.03076  -20.89657   0.9244 
 -156.43009  0.04998  2.61658     13.46326  1.44163  1.27459  30.03763  0.12788     0.40469  3438.91687   9980.79077  4.90971         2297.77143     16.74847    3e-05  57913.06991  2.11903   1.50121  10854451.65691  44.55663  19.53261  58068.60851     51.2874       43.96843  114.26804  164.26031  144.0    0.02239  -20.93525  0.92809 
 -157.70407  0.03945   2.7794     13.63887  1.56796   0.9647   56.2146  0.06337     0.20659  2839.03244   9789.15538  3.62153         2562.81232     18.60468  0.00224  57911.79593  2.70282   2.21773   5933402.94261  44.80297  19.28732  58053.57513    51.41028       44.08902  111.88746  152.35739  124.0    0.01533  -20.88131  0.89947 
 -165.81978  0.43861   7.3975     14.19891  1.99262  0.36478  44.58968  0.02849      0.0169  1419.58492   9690.54052  3.84664           2199.108     17.55822   0.0002  57903.68022  0.53602  19.55751    4051266.4369  44.22251  19.48983  58086.64858     51.3189       44.03068   104.7457  145.21563  158.0    0.01241  -20.50574   0.1466 
 -185.28501  0.02104  2.57488     13.58423  1.74482  1.18921  61.96621  0.06969     0.36241  3174.04856     9952.141  1.63433         2077.47799     17.20413    9e-05  57884.21499    3.724   1.30346   7288332.03078  44.82645  19.47637  58077.62855    51.30566       43.97992  111.88746   149.9768  154.0    0.01587  -20.90014  0.95412 
 -134.91445  0.09088  3.24506     13.82853  1.57892  0.62053  55.66986   0.0511      0.3142  3096.74848   9953.34122  3.53409         2455.21248     17.13922    8e-05  57934.58555  3.18463   5.05909   3400586.37728  44.91321  19.56455  58092.66194     51.2491       43.93601  109.50687   149.9768  114.0    0.02321   -20.9245  0.74228 
 -156.34624  0.02432  2.93408     13.73892  1.86009  0.90388  52.44129  0.06155     0.38906  2443.73731    9986.4659  3.03221         2063.31425     18.42701  0.00149  57913.15376  1.86814   1.27537   4948362.27867  44.90897  19.45594  58071.61519    51.31999       43.98479  119.02921   156.4168  120.0    0.01628  -20.79756  0.94749 
 -136.03088  0.02237  3.13102     13.59247  1.77166  1.37972  43.58937  0.07691     0.02556  3674.88702   9851.83418  3.09254          2337.0511     19.40472  0.01411  57933.46912  3.51152   0.97501  10534759.78616  44.50323   19.4469  58086.64858    51.29979       44.00261  107.12629  147.59622  128.0    0.03252  -20.98176  0.94969 
 -154.60142  0.03443  3.50347     13.69361  2.08643  1.35086  45.43886  0.08493     0.04569  3510.87118   9906.38091  3.57771         2386.10738     17.52747  0.00019  57914.89858  3.34106   1.56439   9749895.60379  44.51025  19.56869      58099.5    51.34874       44.01103  116.64862  157.11855  146.0    0.02425  -20.93354  0.92303 
 -189.61988  0.03406  2.85598     13.57518  1.80252  1.13757   22.1589  0.19983     0.07055  3845.11374    9878.2949  4.14341         2439.35672     17.81514  0.00036  57879.88012  1.95431   0.75483   9657043.02415  44.62837  19.44969   58083.6419    51.36417       44.02136  116.64862  159.49914  159.5    0.02006  -20.90095  0.96761 
 -174.86444  0.01841  2.65412     13.68851  1.76823  0.99705  52.03819   0.0728     0.09456  2730.54474   9813.30519  2.03504         2491.89898     17.41312  0.00014  57894.63556  2.31445   0.95803   4854945.40854  44.98236  19.51918  58098.67529    51.33372       44.02094  123.79038  152.35739  128.0    0.01885  -20.86314   0.9649 
 -140.12007  0.14976  3.77601     13.99677  1.87453  0.56308  36.24024  0.12832     0.10473  3893.36663   9872.90095  2.73099         2539.39522     18.27823  0.00105  57929.37993  3.27694   5.42739   2519018.20177  44.98644  19.64341  58119.72204    51.24738       43.93686  109.50687  147.59622  144.0    0.01747  -20.85114  0.72011 
 -166.33504  0.02137  2.99311      13.8708  1.68211  0.47058  66.60457  0.05532     0.01224  3074.05021   9843.06905  4.40354         2551.08662     18.93177  0.00475  57903.16496  3.75451   1.42315   2536963.69524  45.13814  19.59014  58101.68197    51.28433       43.96757  111.88746   149.9768  152.0    0.02021  -20.86608  0.92849 
 -102.48853    0.305   4.2941      13.8791    1.549  0.40452  26.85714  0.04687     0.46658  3237.53262   9850.94271  4.36778         2202.41341     19.79861  0.03494  57967.01147  1.67925   8.19136   4628255.38397  44.52773   19.4487  58077.62855    51.34314       44.00204  119.02921  162.79591  122.0    0.02338  -20.81907  0.46422 
 -194.16149  0.01256  2.87384     13.72414  2.16512  1.53193  38.34232  0.15987      0.4377  3372.96799   9710.13966  0.97091          2603.5026     17.27424   0.0001  57875.33851  2.60214   0.48159    5914815.8459  44.91546  19.39418  58074.62187    51.25142       43.99116   97.60395  137.41093  168.0    0.01143  -20.71448  0.98446 
 -137.98038  0.03406  2.72861     13.55163  1.51033  1.11257  23.67722  0.18441     0.36512   4462.9692   9976.18287  3.19547         2207.72734     17.24793   0.0001  57931.51962  2.81323    0.8065   8231974.94002  44.66053  19.54751      58099.5    51.24271       43.95507   95.22337  142.14876  136.0    0.01927  -20.96468  0.95987 
 -194.60083  0.03834  2.60779     13.75671  1.61989  0.58168  84.26017  0.03056     0.26237  1833.08863   9959.60758  3.52782         2042.76789     18.59809   0.0022  57874.89917  1.68895   3.23074   3136400.56338  45.14935  19.37334  58065.60184    51.29929       44.02096   97.60395  141.64542  142.0     0.0139  -20.63446  0.87855 
 -137.10343  0.02275  2.51072     13.56098   1.4571  1.22829  35.28624  0.12012     0.37691  3214.46278   9975.22047   4.2718         2198.96945     17.71807  0.00029  57932.39657  2.17495   0.80271   6440890.36029  44.82379  19.23993  58047.56177    51.31349        44.0754   85.70103  145.21563  126.0    0.03021  -20.87207   0.9649 
 -128.01702  0.31706  4.09105     13.69759  1.89519  1.31074  18.80253  0.20212     0.24927  4821.20893   9914.89116  4.56629         2361.73468     17.85434   0.0004  57941.48298  2.60709   5.96157  11856673.63864  44.24887  19.32434  58062.59516    51.33204       44.04945   104.7457  140.45447  136.0     0.0202  -20.96184  0.66311 
 -118.30628  0.02491  3.12806     13.58347  1.59075  1.14634   40.7353  0.06398     0.09404  3506.64503   9888.42057  2.88554         2718.49426      18.0021  0.00056  57951.19372  2.98801   1.01466   9840909.54187  44.48686  19.49139  58086.64858      51.341        44.0071  123.79038  158.05949  116.0    0.02233   -20.9318  0.93912 
 -158.78515  0.03347  3.27215     13.68852  1.84775  0.98646  83.01089  0.03947     0.12526  2756.48936   9867.48175  2.33606         2515.89401     18.88669  0.00428  57910.71485  3.76249   2.77797   7710535.42936  44.61874  19.24308  58041.54841    51.40405       44.08575  114.26804  159.49914  134.0    0.01922  -20.84898  0.86562 
  -142.0717  0.16626  4.66297     13.80522  1.88145  0.85094  55.89623  0.04012     0.08831  2974.58441   9797.98645  4.03382         2545.74354     18.57478  0.00209   57927.4283  2.95027   9.29306   9315065.80309  44.23683  19.51692  58071.61519    51.31046       43.96448  128.55154  161.87972  120.0    0.01948  -20.91642  0.48318 
 -113.94776  0.20483  4.42367     13.80649  1.67404  0.65764  33.14231  0.06394     0.26607  3912.39811    9911.8775  3.00295         2751.51422     18.98283  0.00534  57955.55224  3.02619    6.7887   7415935.93669  44.33088  19.32761  58062.59516    51.37672        44.0881   99.98453  142.31865  128.0    0.03221  -20.91901  0.54004 
 -132.24653  0.06603  3.28081     13.56172  1.74239  1.14765  36.75816  0.04636     0.02267   2923.4668   9894.23548  4.01175         2046.90127      19.9096  0.04512  57937.25347  1.87403   2.42711  13106532.18562  44.36054  19.54562  58065.60184     51.2987       43.94066  128.55154  169.02148  126.0    0.02219  -20.87572  0.86679 
  -68.03173   0.1665  5.58808     13.96274  2.11125  0.63863  34.00677  0.01242     0.08394  2855.11174   9767.42265  4.71067         2606.22936     18.23254  0.00095  58001.46827  1.65363   5.66206   7267808.37469  44.23746  19.53328  58098.67529    51.29279       43.99745  111.88746  145.21563  154.0    0.03347  -20.68075  0.55022 
 -163.16094  0.01039  2.80782     13.70319  1.86939  1.04586  74.90861  0.06185     0.11845  3150.04052   9872.44445   0.3541          2409.4419     18.24974  0.00099  57906.33906  4.43395   0.77856   5368851.16087  44.91393  19.40023  58080.63523    51.34535       44.04248  111.88746  151.69444  142.0    0.03562  -20.88429  0.97037 
 -165.34811  0.04748  2.66603      13.5735  1.54132  1.14089  67.46641  0.06469     0.42554  3203.18201   9924.68774   2.7897         2315.80194     18.10342   0.0007  57904.15189  4.12932     3.203   7251659.56839  44.74457  19.39325  58074.62187    51.35914       44.05715  111.88746   149.9768  148.0    0.02155  -20.89301  0.86782 
 -174.25296  0.00831  2.41558     13.68606  1.65863  0.92277  79.78558  0.06829     0.11185  3134.54272   9994.48057  4.38709         2166.58614     18.57614  0.00209  57895.24704  4.67627   0.66329   3814901.14485  45.14107  19.57546  58095.66861    51.35152       43.98354  128.55154  169.11108  158.0    0.01341  -20.78593  0.97774 
 -184.54281  0.02437  2.78492      13.5901  1.76764   1.2625  62.79105  0.04524     0.03165  2303.52442     9787.268  2.03149          2363.5617     18.89726  0.00439  57884.95719  1.98752   1.53005   8407018.39998  44.70197   19.5135  58095.66861    51.33579       44.01143  109.50687  152.35739  130.0    0.01774  -20.76916  0.93882 
 -183.55325  0.12918  2.68089     13.65302  1.83647  1.53916  22.48984  0.24166     0.14878  3351.91892   9916.79363  4.07125         2047.98963     18.80263  0.00353  57885.94675   1.5073   2.90527    6057908.1997  44.89395  19.53924  58095.66861    51.29892       44.00575   92.84278  145.21563  156.0    0.01637    -20.805  0.90436 
  -95.65667  0.08451  4.08888     13.89775  1.96481  0.62446  21.50237  0.09876     0.06521  3927.31695    9924.7514  2.90145         2445.87047      18.1532  0.00079  57973.84333  1.97836   1.81715   4884741.55698  44.65012   19.5172  58080.63523    51.30118       43.96471  116.64862  157.11855  122.0    0.04498  -20.85351  0.87062 
 -146.53519  0.04531  2.97176     13.70142  1.66154  0.82387  44.90244  0.08723     0.26599  3675.06893   9862.22837  4.10786         2244.34602     18.77565  0.00331  57922.96481  3.61766   2.03468   5389032.19786  44.81182  19.52721   58083.6419    51.23543       43.93101  116.64862  149.26447  134.0     0.0289  -20.97233  0.90201 
 -136.53499  0.07954  2.89954     13.59407  1.57288   1.2214  20.02182  0.21863     0.37117  3766.58008   9947.20001  2.90485         2485.54551     16.92334    5e-05  57932.96501  1.69444   1.59251    7962195.8908  44.63985  19.60354  58095.66861    51.28257       43.95258  119.02921  154.73797  140.0    0.01937  -20.87864  0.91988 
 -196.16619  0.25558  2.76629     13.51431  1.60047  1.52208  17.30031  0.26808     0.41403  3410.70677   9861.38149   3.9523         2500.62348      18.6105  0.00227  57873.33381  1.20052   4.42159  10647152.03893  44.56206  19.48591  58077.62855    51.32613       43.97761  121.40979  159.49914  159.0    0.01801  -20.82089  0.82161 
 -141.67145  0.03528  2.90926     13.57945   1.5988  1.22295  25.67346  0.15133     0.10917  3307.39113   9984.50313  4.59605         2395.25845      17.6243  0.00023  57927.82855  1.67526   0.90566    8715349.1059  44.60479  19.42476  58062.59516    51.32933       44.00918  111.88746   149.9768  138.0    0.02874  -20.85627   0.9533 
  -166.5641  0.01876  3.15823      13.7554  2.12429   1.3027  44.52234   0.0791     0.06666  2409.40069   9829.47837  2.42261         2320.84045     17.72995   0.0003   57902.9359  1.54178    0.8353   6068865.16878  44.81406  19.56551  58104.68865    51.26822        43.9536  107.12629  147.59622  124.0    0.01509  -20.75598  0.96696 
 -156.01332  0.02009  2.94702     13.68692  1.87052   1.0803  55.62797  0.07453     0.30372  3272.23184   9899.67571  2.31511         2076.69456     17.30415  0.00011  57913.48668  3.55311   1.11767   6378139.92786  44.79735  19.56829  58092.66194    51.29112       43.98174  110.21272  149.27095  134.0    0.03846  -20.94684   0.9536 
 -141.04973  0.00853  3.49221     13.75795  2.13183  1.09133  47.39161  0.08814     0.02144  3599.01761   9939.81604   3.7858         2069.78956     18.68925  0.00272  57928.45027  3.66182   0.40424   7359726.90202  44.64453  19.53462  58080.63523    51.26662        43.9548  107.12629  149.26447  148.0    0.01585  -20.87263  0.97982 
   -119.612   0.3139  4.09822     13.65717  2.02509  1.55996   10.9664  0.20227     0.45237  3937.05959   9897.85572  4.95523         2350.80453     19.34723  0.01236    57949.888  1.01399   3.44231  15314605.55856  44.16499  19.46924  58086.64858    51.27012       43.98851   104.7457  154.73797  126.0    0.03387   -20.9762  0.78562 
 -162.02825  0.10012  2.90433     13.81875  1.72911  0.72031  38.41487  0.15461     0.23478  4075.91687   9841.34968  4.03959         2302.57474     18.78878  0.00342  57907.47175  3.80695   3.84607   3120515.37261  45.08635  19.39677  58086.64858    51.30448       44.02368   95.22337  136.88425  150.0    0.01587  -20.90348  0.84665 
 -143.69687  0.25154  3.93613     13.88696  1.56272  0.49557  31.99012  0.08004     0.18135  3220.66378   9895.82743  2.19025         3108.64186     18.96672  0.00515  57925.80313   1.9794   8.04672   3783695.57935  44.69467  19.47062  58092.66194    51.32235       44.01864  100.69038  141.46625  126.0    0.02587  -20.95766  0.53651 
 -141.00152  0.00413  2.99161     13.64474  1.89103  1.55906  41.11775  0.05849     0.01569  2218.68915   9969.30588  0.07732         4028.61936      17.9702  0.00052  57928.49848   1.2074   0.16993   8069528.90826  44.68689  19.30049  58053.57513     51.3821       44.06464  114.26804  161.87972  118.0    0.01785  -20.69309  0.99257 
 -192.87087  0.03609  2.75946     13.71898  1.87124  0.95532  64.91307  0.06502     0.10348  2577.37088   9850.43273  4.82092          2207.3123     18.22705  0.00094  57876.62913  2.57225   2.34267   4826508.88904  44.97569  19.41291   58056.5818    51.34113       44.00605  116.64862  154.73797  158.0    0.01846  -20.76652  0.91852 
 -159.06479   0.1023  2.68144     13.76362  1.47654  0.54166  37.38612   0.1071     0.28852  3926.68376   9980.05025  2.40975          2051.5924     17.71445  0.00029  57910.43521  3.43866   3.82449   2927902.83394   45.1148  19.63038  58101.68197    51.30111       44.00259   99.98453  146.13183  140.0    0.01943  -21.02449  0.83402 
   -81.6927  0.09205  4.34433     13.61134  1.87508  1.51712   36.5031  0.01755     0.05195  2838.65008   9719.04488  4.66453         2462.69312     16.98753    5e-05   57987.8073  1.75461   3.36001  19678525.91175  43.97203  19.37518  58074.62187    51.30382       44.03024   91.16805  138.55899  152.0    0.02857   -20.6845  0.74326 
 -194.86459  0.01017  2.34007     13.62911  1.77231   1.2597  58.88192  0.13235     0.08554  3697.25325   9976.72656  1.49537         2711.28141     19.50397  0.01773  57874.63541   4.8014   0.59909   4972601.50359  45.08234  19.48589  58086.64858    51.22276       43.94996   92.84278  140.45447  174.0    0.01232  -20.65434  0.98287 
 -132.11329  0.01595  3.14762     13.75305  1.80484  0.80849   37.2969  0.07488     0.10893   2973.6105   9895.78523  3.36206         2363.46791     18.21658  0.00091  57937.38671  1.96729   0.59502   5177416.00095  44.81521  19.62444  58095.66861    51.31918       43.98301  123.79038  158.01579  114.0    0.02272  -20.88167  0.96942 
 -140.22378  0.01454  3.43849     13.75688   2.0096  1.04343  39.88846  0.08343     0.09221  3048.79969   9905.61511  3.77404          2648.6314     17.13002    7e-05  57929.27622  2.21173   0.58008   6759375.16779  44.66931  19.45615  58074.62187    51.29196       43.98068  107.12629  147.59622  126.0     0.0208  -20.89017  0.96979 
  -125.9256  0.02334  2.73543     13.45659  1.41565  1.12815  24.17887  0.13566     0.08026  4976.43173   9883.27503  1.71905         2292.38516     19.02495  0.00588   57943.5744   3.5719   0.56428  12012834.52565   44.4661  19.54755  58107.69533    51.27792       43.98108   104.7457  142.13329  132.0    0.02598  -21.01389  0.96776 
 -132.97158  0.07017  3.82119     13.80367  1.99174  0.83654  50.73936  0.05474     0.14496  3279.52527   9996.45366  3.47985         2355.37326     18.72417  0.00294  57936.52842  3.25532   3.56021   6669715.25175  44.57957  19.50176  58092.66194    51.30157       43.99962  107.12629  145.21563  126.0    0.02898  -20.90848  0.80311 
 -167.74684   0.0779  3.22485     13.63247  1.67575   1.0084  57.97601  0.05292     0.27561  2458.98005   9691.38744  4.52636          2453.3917      18.7775  0.00333  57901.75316  2.09115   4.51621   8792216.33306  44.53194  19.51583  58071.61519    51.31537        43.9632  128.55154  163.56035  132.0    0.01553  -20.78567  0.77813 
 -138.10861  0.16385   4.3509     13.92022  1.76197  0.51216  50.34102  0.02934     0.25937  2018.57137   9932.94532   4.8487         2561.80986     19.37605  0.01321  57931.39139  1.22359   8.24828   4472242.70299  44.58716  19.48802  58071.61519    51.30779       43.97955  119.02921  157.11855  144.0    0.01892  -20.68127  0.52019 
 -159.80088  0.16817  3.88972     13.71916  1.71129  0.87585  50.48164  0.06052     0.16579  3003.07913   9941.59348  3.80334         2550.19195     18.75272  0.00314  57909.69912  2.71578   8.48941   8762931.86144  44.37968  19.48612  58089.65526    51.31902       43.99165  111.88746   149.9768  136.0    0.02519  -20.90685  0.56483 
 -182.70657  0.03615   2.3935     13.66033  1.49716  0.79007  77.72495  0.04364     0.43277  2103.50858   9991.10183  4.10121         2056.21863     18.32825  0.00118  57886.79343  2.05152   2.80955   3806205.59443  45.10555  19.49094   58083.6419    51.27753       43.98428   99.98453  148.51241  132.0    0.01339  -20.67367  0.89976 
 -163.29786  0.45372  4.67681     13.77103  1.54136  0.82232  31.92427  0.12965     0.15362   3266.1781   9975.41211  0.15595         4222.29441     16.34767    1e-05  57906.20214  2.03155  14.48471   8985844.63728  44.16329  19.36744  58038.54174    51.38003       44.02113  126.17096  169.02148  150.0    0.01535  -20.80616  0.30869 
 -170.02927   0.0161  2.19277     13.58355  1.34562  0.86524  92.46073  0.03707     0.27286  2148.77788   9975.44666  2.54046         2442.31868     18.57586  0.00209  57899.47073  2.54664   1.48908   4089123.41452  45.10415   19.4368  58074.62187    51.28856       43.98895   104.7457  145.21563  126.0    0.01235  -20.68589  0.94537 
 -129.20213  0.29144  6.60239     14.09757  2.04613  0.33368  51.19089  0.01287     0.02091  2535.43817   9734.48645  3.30815          2411.0251      18.1283  0.00075  57940.29787  1.96303  14.91926   5284608.05668  44.21736  19.50244  58104.68865    51.26959       44.00287   88.08161  130.93213  152.0    0.02535  -20.79929  0.20765 
 -128.79838  0.07371  3.06164     13.65837  1.71861  1.31862  30.70794  0.15508      0.1709  4087.97924   9855.75341  2.98846         2047.12654     18.18938  0.00086  57940.70162  3.06123   2.26343   7213708.96537  44.67395  19.44312  58071.61519    51.33447       43.99242  116.64862  157.11855  140.0    0.01554  -20.89779  0.89286 
 -146.46057  0.06404  3.49229     13.77603  1.96497  0.67857  12.34255  0.24678     0.05568  3679.57814   9981.14914  2.32889         2196.77297     16.32188    1e-05  57923.03943  0.99685   0.79036   6242180.89314  44.68065  19.49713   58083.6419    51.31024       43.98083  116.64862  154.73797  154.0    0.01837  -20.87119  0.95446 
 -186.71861  0.01231  2.94235     13.72766  2.02751  0.96467  57.00065   0.0626     0.03162   3139.3815   9931.28943  3.75498         2274.36544     17.62192  0.00023  57882.78139  3.35116    0.7014   5712765.25651  44.88157    19.728  58095.66861     51.3535       44.05545  119.02921  148.78717  142.5    0.03206  -20.96586   0.9736 
 -143.59831  0.14889   4.4175     13.86042  1.60959  0.57326  76.32335  0.02412     0.10949  2721.95329   9871.77197  3.83276         2286.06733     17.63069  0.00024  57925.90169  3.37323  11.36384   5546915.45858  44.44116  19.33226  58068.60851    51.41875       44.07358  119.02921  159.49914  120.0    0.01888  -20.87071  0.40096 
 -135.86756  0.04845  3.30924     13.91374    1.811  0.51695  40.34274  0.09372     0.12826  3911.38369    9883.7274  3.86068         2265.80192     18.27538  0.00105  57933.63244  3.68174   1.95464   2739708.64573   45.0496  19.47084  58092.66194    51.29465        43.9998  107.12629  142.83505  142.0    0.01709  -20.93544  0.89675 
 -146.09602  0.02992  3.27337     13.69493  1.89946  1.02096  28.85205  0.12365     0.13797  3825.07409   9977.35209  2.23808         2524.78557     16.92955    5e-05  57923.40398  2.51816   0.86325   7701392.03103  44.63092  19.52238   58083.6419    51.26311       43.94656  111.88746  149.27684  136.0    0.03084  -20.98329  0.95585 
 -116.91227  0.10675  3.90448     13.73358  1.98509  1.23842  25.83932  0.15954     0.18776  4495.12072   9888.22982  4.64731         2382.29329      18.2096   0.0009  57952.58773  3.11452   2.75848    9584112.4584  44.40195  19.66145  58086.64858    51.33548       44.00677  123.79038  154.73797  140.0    0.01978  -20.84688  0.83533 
 -174.84857  0.13202  3.58663     13.77385  1.55341  0.74235  80.37498  0.03965     0.35573  2085.69807   9739.28933  4.88587         2410.79457     18.21384  0.00091  57894.65143   2.0857  10.61125   5257445.43763  44.62998  19.48963  58071.61519    51.28909       43.96165  121.40979  156.40622  132.0    0.01259  -20.69755  0.52074 
 -122.74742  0.17911  3.87661      14.1085  1.92038  0.35712  20.55624  0.13708     0.07621   4076.8145   9855.30687  2.27074         2518.51615     18.34298  0.00122  57946.75258  2.03804    3.6818   1625935.70646  45.16422  19.48396  58086.64858    51.33443       44.00856  119.02921  152.35739  130.0    0.03258  -20.97149  0.78267 
 -106.48624   0.0138  3.11246     13.70345   1.6883  0.72481  35.08314    0.041     0.01366  3033.75595   9988.10406  0.17629          2824.6702     19.44971  0.01565  57963.01376  1.92614    0.4842   5950802.42221  44.73551   19.4572  58062.59516    51.33737       43.98749  111.88746  159.49914  112.0    0.02408  -20.83396  0.97236 
 -125.83432  0.16525  3.45033     13.61448  1.51175  0.90572  29.52315  0.07895     0.17086  3700.24386   9761.08479  3.70669         2585.77941     16.98657    5e-05  57943.66568   2.4113   4.87863   9863978.68836  44.37855  19.48179  58092.66194    51.23609       43.98255   92.84278  138.97022  120.0    0.02517  -20.98087  0.70425 
 -147.07748  0.03811  3.52279     13.70963  2.07378  1.54222  31.32833   0.0901     0.02371  2443.95612    9970.3578  2.62345         2557.75753     18.27439  0.00105  57922.42252  1.11622   1.19378   9101041.52063  44.53274  19.43993  58059.58848    51.32984       44.00133  116.64862  154.73797  124.0    0.01828  -20.75544  0.93956 
  -133.3937  0.40481  6.88271     13.96235  2.10833  0.55676  35.84803  0.02622      0.0199  2212.02263   9705.58283  3.44894         2287.21613     18.74196  0.00307   57936.1063  1.04634  14.51178  11029829.14453   43.8747   19.6421  58092.66194    51.29756       43.99955  111.88746  142.83505  148.0    0.01982  -20.69228  0.21551 
 -171.87035  0.11669  3.87677     13.73132   1.8886  0.85768  74.56045  0.02753     0.08108  2486.45451   9710.60416  4.67052         2226.17586     18.04138  0.00061  57897.62965  2.74977    8.7002   9083563.70543  44.40979  19.59219  58104.68865    51.27767       43.99766   85.70103  143.73139  132.0    0.02021  -20.87062  0.59334 
 -139.82174  0.04308  3.23615     13.52953  1.72682  1.55396  35.09485  0.07283     0.01681  2945.49115   9808.65499  2.96915          2706.2954     19.80586  0.03553  57929.67826  1.81629   1.51186  14657438.67779  44.31998   19.3852   58056.5818    51.32723       44.01296  111.88746  151.69444  128.0    0.02202  -20.89111   0.9144 
  -96.27145  0.29243  4.99326     13.97678  1.91418   0.5309  19.36398  0.08825     0.12633  4094.59982   9892.17615  4.01065         2581.50456       18.472  0.00165  57973.22855  1.93662   5.66256   4931859.07997  44.46105   19.3596  58038.54174    51.39157       44.02836  128.55154  169.02148  122.0     0.0412  -20.87989  0.57341 
 -129.87154  0.27277  5.58157      14.0779  1.66303  0.29471  50.16433  0.02555     0.06621  2484.29781   9914.93949  2.92539         2199.41176     16.18493    1e-05  57939.62846  1.84684   13.6834   3360749.41618   44.4698  19.50694  58086.64858    51.29449       43.96383  123.79038  157.11855  128.0    0.01722  -20.74002  0.24184 
 -163.40145  0.00294  3.22431     13.58235  1.99537  1.40648  38.86827  0.07975     0.01161  3205.30601    9842.8811  3.34805         2174.26116     18.26361  0.00102  57906.09855  2.38211    0.1142  13183160.87617  44.43198  19.54012  58101.68197    51.28522       43.97256  107.12629  147.68583  140.0    0.02997   -20.9433  0.99438 
 -154.00758  0.03203  3.40036     13.67803  2.00542  1.50089  36.24112  0.09756     0.02309   2861.6185   9960.19866  2.61161         2490.98847     18.73028  0.00299  57915.49242  1.77032   1.16085   9484367.25358  44.53099  19.57409  58095.66861    51.31999       43.97765  130.93213  161.87972  136.0     0.0237  -20.81873  0.94215 
 -145.97845  0.04655  2.71102     13.67242  1.52636  0.64926  18.98484  0.18814     0.08327  4681.13843   9943.42372  3.21097         2013.65893     19.24759  0.00982  57923.52155  2.48163   0.88367   4708705.40609  44.91333  19.56484  58098.67529    51.26445        43.9514  114.26804  147.59622  134.0    0.02426  -21.09669  0.95661 
 -143.06268  0.43597  5.09408     13.72663  1.53379  0.72425  36.33638  0.05819      0.2333  3608.31582   9973.39302  0.01446         4325.63194     17.05685    6e-05  57926.43732  2.82214  15.84142  13015242.78443  43.92603  19.53902      58069.5    51.29843       43.95055  122.11564  163.55446  116.0     0.0385  -21.05598  0.23921 
 -152.84186  0.03201  2.75908     13.65542  1.63002  1.01459  51.68026  0.08269     0.36492  3150.25449   9983.76067  1.14291         2422.81365     18.24701  0.00098  57916.65814  3.05945   1.65407   5632453.44137  44.84881  19.55119  58092.66194    51.21375       43.94779   97.60395  140.45447  134.0    0.03752  -20.85378  0.92846 
 -130.52689  0.04455  3.48264     13.78849  1.85465   0.8475  51.16061  0.06033     0.04467  3268.15252   9906.82136  3.40945          2414.5485     18.36018  0.00127  57938.97311  3.25962   2.27928   5532494.26946  44.71037  19.40206  58092.66194    51.26598        44.0164    90.4622   133.4526  124.0    0.03013  -20.88096  0.87556 
 -171.19274  0.06786   3.5702      13.7037   2.1676   1.5176  50.28854  0.07194     0.26467  3281.08047   9970.88208   2.4949         2218.61559     18.76641  0.00324  57898.30726  3.22946   3.41252  10041013.50403  44.49766  19.59863  58104.68865    51.26734       44.06779    59.5146  119.27235  146.0     0.0257  -20.92594  0.84859 
 -117.60549  0.06686   3.3024     13.54373  1.70344  1.30497  17.96879   0.1348     0.13224  4779.10596    9902.6772  3.48329         2289.13034     19.50064  0.01759  57951.89451  2.44816   1.20132  14103801.42929  44.31318  19.37662  58068.60851    51.33948       44.03248   104.7457  144.55268  126.0    0.04115  -21.05636  0.92654 
 -170.41998  0.06891  3.35532     13.76401  1.93176  0.85717  61.91727  0.06011     0.20018  3181.41371     9839.804  1.82971         2132.19667     18.52042  0.00184  57899.08002  3.73834   4.26673   5986995.74174  44.72612  19.44918  58077.62855     51.3572       44.01412  121.40979  157.11855  144.0    0.03052  -20.89846  0.81048 
