 texplosion  fnickel    Pspin  log(Bfield)      Mns  thetaPB   mejecta    kappa  kappagamma      vejecta  temperature    alpha  cutoff_wavelength  log(nhhost)      A_V         MJD0   kenergy  mnickel            TSD   log(L0)  Peak_mag     Peak_MJD  log(E_rad)  log(Peak_lum)  Rise_Time    E_fold  tau_1  delta_m15     r_peak     frac 
  -27.75428  0.01921   1.8148     13.89086   1.5049  1.53874  11.45768  0.10638     0.08006   5577.60036   3311.04941  0.56991         4993.91534     20.24087  0.09674  58629.45572   2.12627  0.22008   760795.88786  46.04743   19.8532  58703.32456    51.31976       44.48879   33.90996  50.86494   59.5     0.1126  -21.49979  0.99529 
  -33.06083  0.07368  2.45911     13.70234  1.39972  1.47997   7.02886  0.19213     0.02316   6758.57184   4063.63548  0.43136          5926.3551     19.92639  0.04689  58624.14917   1.91524   0.5179  3095541.22034  45.14259  19.89742  58704.72584    51.19777       44.28881   46.82979  64.64213   57.5    0.11593  -21.60064  0.97732 
  -26.57316  0.00834  1.54242     14.23778  1.89985  0.98467  19.68102  0.17156     0.02414    9161.3086   5324.07696  0.09753         5563.17453      18.4556  0.00159  58630.63684   9.85348  0.16415   140400.79912  47.02379  19.89476     58706.16    51.23256       44.38943   33.90996  58.91338   51.0    0.10773  -21.53894  0.99825 
  -29.31015  0.02041   1.0181     14.19972  1.69982   0.8734  16.86522  0.29822     0.01353   8563.88726   3318.75708  0.16891         5684.44795     18.68615   0.0027  58627.89985   7.37838  0.34414    65218.05946   47.6693  19.85879  58703.32456    51.20711       44.33928   48.98105  54.63271   53.5     0.0979  -21.50931  0.99821 
  -23.26871  0.02603  2.62318     13.94135  1.51867  1.35588  10.56075  0.17746     0.02179    6618.3061   6635.29458  3.50813         3359.25103     16.17684    1e-05  58633.94129   2.75941  0.27485   1271255.6409  45.50842  19.87118     58705.16    51.14985       44.31194   38.77536   56.5166   59.0     0.1042  -21.41659   0.9879 
  -35.45668   0.0223  3.29447     13.82264  1.74477  0.93487   5.65652  0.28231     0.02232   7558.69683   6299.37154  1.37408         3266.22754     17.83629  0.00038  58621.75332   1.92784  0.12615  3979666.06746  44.87517  19.92463     58706.16    51.20375       44.30545   37.67773  67.81992   55.0      0.124  -21.48257  0.99257 
  -41.54157  0.11159  2.85809     13.84547  1.63515  0.85797   7.81159  0.27168     0.01857   7824.55262    5641.5217  0.25121          3618.3901     17.94701  0.00049  58615.66843    2.8529  0.87173  2526853.39677  45.16767  19.88027  58707.38212    51.11528       44.23779   38.31915  61.63943   54.5    0.11883  -21.49115  0.95943 
   -35.0041  0.00554  2.77511     14.04971  1.76036  0.71278   4.88261  0.32138     0.02374   5679.10381   8131.88165  1.31722         3769.32577     20.37413  0.13148   58622.2059   0.93937  0.02707  1001283.12872  45.62733  19.84293  58703.32456    51.12809       44.25997   45.21328   56.5166   57.5    0.09359  -21.48443  0.99891 
  -29.80438  0.00203  2.08327     14.24407  1.76434  0.61449   8.72569  0.27957     0.01398    7328.3057   8856.07906  0.33731          5773.0035     16.55436    2e-05  58627.40562   2.79534  0.01775   231072.84693  46.51419  19.91651  58704.72584    51.14664        44.2529   43.51211  62.16826   44.0    0.12125  -21.52658  0.99961 
  -33.43881  0.00249  3.49041     14.12878  1.95197  0.65413  11.62169  0.08726     0.02569   6622.71442   6001.10746  0.40771         5336.63115     17.38096  0.00013  58623.77119   3.04066  0.02899  1220331.52828  45.38709  19.81924      58699.2    51.18443       44.31986   43.51211  54.63271   66.5    0.11939  -21.45078  0.99841 
  -36.81348   0.1548  2.32751     13.63917   1.2576  1.25729   9.06257  0.23222     0.01418   7305.36937   6782.66412  2.40721         2186.18634      19.6062  0.02244  58620.39652   2.88511  1.40287    3332708.892   45.1118  19.88664  58704.72584    51.11327       44.26728   43.32939  54.63271   56.0    0.11226  -21.43038  0.93782 
  -32.40444  0.00773   3.0841     13.97593  1.95361  1.35491  13.15922  0.15649     0.01161   6654.97865   4882.93316  2.76996         3198.91055     20.36105  0.12758  58624.80556   3.47657  0.10172  1927713.92172  45.29638  19.86367  58704.72584    51.09969       44.23916   47.09717  54.69013   59.5    0.09366   -21.5122  0.99569 
  -22.01385  0.17458  1.64046     14.03323   1.4704  1.51974   9.59452  0.16669     0.02388   6064.91476   5169.84716  1.18385         4000.53555     19.90954  0.04511  58635.19615   2.10523  1.67499   315300.05757  46.50762  19.88357     58705.16    51.13911       44.27179   47.70395  55.90982   59.0    0.10801  -21.38233  0.97082 
  -18.30754  0.41758  0.76411     14.28133  1.61634  0.73252  13.69036  0.25049     0.01141   9541.76762   3905.32882  1.35636         3096.28032      20.7164  0.28915  58638.90246   7.43532  5.71679    23988.21255  48.33107  19.93297     58706.16    51.25001       44.37515   32.20879  62.68116   50.5    0.11685  -21.81992  0.98513 
   -23.9065  0.09858  2.15604     14.13849   1.5932  0.84199  10.72661  0.27009     0.03447   7908.61381   5382.54939   1.6873         3583.05167     19.17082  0.00823   58633.3035   4.00212  1.05738   363422.85072  46.24339   19.8789  58703.32456     51.1888       44.31703   47.41977   56.5166   58.5    0.09411  -21.44888  0.97143 
   -29.6475  0.12063  1.30329     14.17112  1.61873  0.94459  11.78215   0.2445     0.01213   6986.95343   8643.93145  0.73091         4436.07173     18.76004   0.0032   58627.5625   3.43105  1.42127   116102.24875   47.1831  19.88737  58703.32456    51.20132       44.28594   57.51081  61.17405   48.5    0.10013  -21.45061  0.98655 
  -29.26377  0.00966   1.2799     14.18078  1.76493   1.0977   9.64587  0.29325     0.02071   6694.45215   4365.12406   0.5334         4987.81688     17.11945    7e-05  58627.94623   2.57869  0.09319   116773.18447  47.23388  19.81232    58696.757    51.24066       44.43426   31.84397  54.62778   54.5    0.09281  -21.41974  0.99925 
  -40.64741  0.05627   3.0037     13.86964  1.70687  0.83478   6.25499  0.28012      0.0383   8115.77104    4146.2291  0.16487         3581.95155     19.96663  0.05145  58616.56259   2.45761  0.35196  2606384.80077   45.1297  19.82365  58703.32456     51.1986       44.34771   49.30366  52.74883   57.5    0.11039  -21.54563  0.98257 
  -40.11107  0.37452  3.45196     13.92362  1.88834  1.24481   7.86004  0.22644     0.01858   7609.11929   8490.59319  0.30972         4908.76179     17.78686  0.00034  58617.09893   2.71469  2.94378  2970259.90476    44.996  19.89369  58702.06956    51.24793       44.30279   44.62329  62.75825   48.5    0.11734  -21.49505  0.85709 
  -39.09574  0.00656  2.79696     13.89496  1.52384  0.48168   3.75474  0.27884      0.0243   6255.20371   5239.08177  0.49569          3836.8073     18.30212  0.00111  58618.11426   0.87638  0.02462  1795571.11731  45.30421  19.84621  58703.32456    51.27755       44.43444   37.67773  55.14561   62.5    0.11709  -21.41475  0.99869 
  -24.37833  0.00146  1.83951     14.08742  1.74512   1.4714  12.65553  0.17687     0.01361   7281.07751   6723.83303  0.72754         3848.50697     17.11078    7e-05  58632.83167    4.0022  0.01853   366612.47678  46.41706  19.88365     58705.16    51.27048       44.39209   39.86707  59.97893   48.5    0.10977   -21.4298  0.99968 
  -21.39326  0.01475  1.18301     14.49574  1.56281  0.40244  10.74098  0.25084     0.02038   8018.69358   7163.80388  0.67935         3783.02245     16.34284    1e-05  58635.81674   4.11982  0.15846    20711.77056  48.00056  19.87956  58703.32456    51.16747       44.27861   52.74883  58.40049   48.0    0.11073  -21.44901  0.99871 
  -21.82472  0.00148  0.95385     14.49195  1.96476  0.59909  20.11134  0.23649     0.01042   9492.57909   8993.31285  0.47065         4495.97681     17.27275   0.0001  58635.38528  10.81027  0.02978    17225.91173  48.36701  19.85804  58703.32456    51.12086       44.22643   54.33697  57.98582   42.0    0.11964   -21.5487  0.99991 
   -39.7584  0.05641  2.79904     13.85672  1.82431  1.52751  12.88306  0.26464     0.01096   7944.88457   7081.16999  1.80657         2856.26873     17.02377    6e-05   58617.4516   4.85089  0.72667  2567416.56261  45.22643  19.90126  58703.32456    51.16712       44.28452   28.29294  69.70381   55.0     0.1028  -21.47774  0.97246 
  -30.31404  0.06366  2.07891     14.04731  1.80963  1.45575  10.17467  0.26649     0.01771   7993.18452    6243.0904  0.52152         2155.16537     18.37576  0.00132  58626.89596   3.87781  0.64769   584064.63273   46.1243  19.82363  58702.06956    51.20446       44.37111   32.52698   56.5166   49.5    0.11107  -21.44194  0.98636 
  -27.77436  0.03366  1.52683     14.06335  1.66263   1.4255  18.12946  0.11964     0.01424   7252.48597   6412.73406  0.27304         5214.89127     17.99797  0.00055  58629.43564   5.68834  0.61025   268843.89583  46.69256  19.91738  58703.32456    51.15525        44.2541   47.09717  62.16826   51.0    0.11246   -21.4718  0.99219 
  -37.29915  0.00622  2.84198     13.71748  1.45095   1.2185    9.8384  0.12188     0.30418   6160.20274   3153.87749  0.77054         4056.96651     17.05529    6e-05  58619.91085   2.22711  0.06116  3997164.31518   44.9215  19.91197  58704.72584    51.24113        44.3305   31.83688  71.77688   77.0    0.09759   -21.3863   0.9965 
  -39.78752  0.09974  2.37116     13.72273  1.37395  1.57041   8.20483  0.19736     0.01445   5830.85552   5700.21756  0.61193         5357.87872     16.50601    2e-05  58617.42248   1.66403  0.81837  2571874.69249  45.24665  19.85003  58703.32456    51.08037       44.21566    43.8303   56.5166   59.0    0.09852  -21.45576  0.96626 
  -20.61975  0.04695  1.41868     14.08988  1.78588   1.4182  13.29788  0.32849     0.01374  10504.34079   7852.16633  1.52859         2839.40424     20.31563  0.11491  58636.59025   8.75281  0.62439   220632.01903  46.87326  19.83003  58704.72584    51.17058       44.29884   53.87234  54.02593   43.5    0.13185   -21.6996  0.99382 
   -35.5779  0.02958  2.43024     14.14566  1.28811  0.33722   4.93984  0.29071     0.28029   7159.46789   3396.21226  0.51501         3400.58306     18.70846  0.00284   58621.6321   1.51043  0.14613   361199.72003  46.04975  19.81321     58700.16    51.19383       44.34316   31.74767  60.70233   68.5    0.10901   -21.4251  0.99281 
  -31.92271  0.01572  1.87797     13.96715  1.64584  1.30666  15.30148  0.20878     0.01055   7992.21984   5763.69247  0.63572         2981.20026     16.29825    1e-05  58625.28729   5.83036  0.24059   627011.85626  46.14058  19.93144  58707.38212    51.19442       44.29659   41.02755  64.52752   51.0    0.10923  -21.50016  0.99519 
  -39.32073  0.11887   2.9607     13.82166  1.77081  1.32124   5.16343  0.31006     0.01725   6243.25019    3499.9784  0.53434         5216.49785      16.1185    1e-05  58617.88927   1.20057  0.61378  3276841.33329  45.05877  19.90552  58704.72584    51.23384       44.30951   57.79005   62.7787   56.0    0.12068   -21.5009  0.97259 
  -41.29909  0.02441  2.78491     13.70399  1.46042  1.28754  16.20429  0.14221     0.01153    6756.8755   5645.02242  2.85403         3305.76523     17.87746  0.00042  58615.91091   4.41315  0.39556  4110856.03762  44.92977  19.84989  58702.06956    51.17598       44.31341   37.67773  60.28437   63.0     0.0865  -21.44655  0.97891 
  -23.49844  0.01573  1.29893     13.93462  1.34402  1.39495  17.99728   0.1834     0.03142   9171.75472   6866.61107  1.57098         2105.47606     17.94973  0.00049  58633.71156   9.03106  0.28312   284541.74273  46.71594  19.91283     58705.16    51.15609       44.26335   46.20749  61.17405   52.5    0.10406  -21.50299  0.99638 
  -24.94034  0.18486  2.85066     14.18914  1.80326  0.86357  10.26314  0.17311     0.05869   6277.31074    3296.3319  2.99396         3474.90051     20.14089  0.07685  58632.26966   2.41243  1.89723   569476.82376  45.85954  19.89239  58703.32456    51.16611       44.31858   28.57217  64.05215   68.0     0.0997  -21.45248  0.92854 
  -43.41436  0.01647  2.44821     13.81068  1.69821  0.95644   6.13666  0.31363     0.01154   6598.63087   5820.46891  0.13436         4505.82929     19.97762  0.05277  58613.79564   1.59392  0.10104  2260135.62717    45.367  19.86937     58705.16     51.2051       44.32145   49.30366  58.40049   55.0    0.12382    -21.459  0.99664 
  -39.86803  0.03073  3.03512      13.6806  1.63595  1.20302   6.08635  0.16334     0.03062   7315.61871   3873.88585  0.05709         5783.69964     16.90129    4e-05  58617.34197   1.94306  0.18702  6091547.19158  44.73354  19.88026  58703.32456    51.16243       44.26871   45.21328  62.16826   65.5    0.10798  -21.45629  0.98968 
  -38.13345  0.04528  2.65019     13.98103  1.66045  0.98364   8.47804  0.19109     0.01558   5524.20191   3542.96307  0.89103         4083.07082     16.00869    1e-05  58619.07655   1.54334  0.38392  1181774.79519  45.56998  19.86471     58705.16    51.23354       44.39332   45.21328  52.74883   61.0    0.09049  -21.30735  0.98491 
  -31.64897   0.0041  2.16242     14.51388  1.98445  0.39846  12.86073  0.21742      0.0507   8356.29631   4617.59102  0.17529         2546.84051     19.55448  0.01992  58625.56103   5.35698   0.0527    80832.06424  46.98902  19.93685  58703.32456    51.21692       44.31267   39.56162  64.05215   56.0    0.10325  -21.49098  0.99894 
  -41.03487  0.00461    3.016     13.87196  1.84007  0.97872    6.3515  0.28046     0.01622   6734.87257   6644.99058  0.52703         2691.33502      18.6805  0.00266  58616.17513   1.71855  0.02925  2802837.32062  45.12722  19.89083  58707.38212    51.15887       44.26327   50.86494  59.57396   55.5     0.1119  -21.39206  0.99868 
  -38.53488  0.01954  3.03727      14.0746  1.72826  0.45656   4.75739   0.1823     0.04894   6131.41436   4540.41153  0.48906         5011.28606     20.15391  0.07918  58618.67512   1.06688  0.09295   1050007.2901  45.52029  19.87796  58702.06956    51.18625       44.30906    48.9078  57.10659   77.0    0.10247  -21.52405   0.9953 
  -28.50306  0.03805   2.9342     13.75633  1.49164  1.49023   6.41823  0.31645     0.03407   8260.83054   3942.72731  3.41834         3241.85228     18.66922  0.00259  58628.70694    2.6127  0.24419  3662647.30933  44.94373  19.88278     58706.16     51.1118       44.22353   47.09717  60.28437   54.5    0.11438  -21.57764  0.98597 
   -25.4458  0.00107  0.77379     14.38296  1.57785  0.50572  14.80155  0.17582     0.07186   7926.88143   7181.34987  0.23602          3684.2983     20.34307  0.12241   58631.7642   5.54803  0.01589      15038.613  48.51246  19.86827  58704.72584    51.18553       44.30007   42.73941  60.93177   52.0    0.10354  -21.55557  0.99995 
  -34.22146  0.10242  3.09652     14.05321  1.67983  0.70373  13.11412  0.14502     0.01459   7398.58212   4289.57984  2.60795         2471.92847     16.24251    1e-05  58622.98854   4.28217  1.34319  1170615.15661  45.44395  19.83044  58702.06956    51.16249        44.2804   47.08959  58.40806   58.0     0.0978  -21.40344  0.93235 
  -44.86003  0.00103   2.4543     13.46952  1.42309  1.32045   6.28126  0.29723     0.01163    6690.5155   6042.31718   1.1339          2800.3965     17.09048    7e-05  58612.34997   1.67723  0.00646  9159217.99662  44.68036  19.83607     58705.16    51.18347       44.32525   43.32939   56.5166   62.0    0.10869   -21.4009   0.9997 
  -39.99319  0.04421  2.95989     14.06044  1.60781  0.42193  10.97624  0.13184      0.0118    7103.6094   7615.09605   0.2264         5177.56893     17.73443   0.0003  58617.21681   3.30399  0.48529   990216.15581   45.5368  19.93108     58705.16    51.20137       44.31846    48.9078  58.99047   54.5    0.11915  -21.47319  0.97449 
   -34.2478  0.00796  2.84474     13.79611  1.59223  1.30234   6.23211   0.2954     0.02389   7630.93223   8244.89585  0.72466         3567.25523     16.56832    2e-05   58622.9622    2.1648  0.04958  3059771.19244  45.07708  19.80789  58702.06956    51.14932       44.29031   52.74883  52.74883   48.0    0.12634  -21.49113  0.99755 
  -29.79133  0.16737  2.47305     14.02371  1.83126  1.31935   8.79577  0.31714     0.01706   7785.53844   4737.17996  1.18639         3351.29985     19.50312  0.01769  58627.41867   3.18038  1.47219   932424.12408  45.77552  19.86715  58703.32456    51.17067       44.30364   48.09138  55.52239   53.0    0.10991  -21.51965  0.95792 
  -32.10541  0.00156  3.05435     13.91325  1.77489  1.18541   8.21032  0.17623     0.02542   7063.48587    3540.9944   0.5669         4071.77953     19.25814  0.01007  58625.10459   2.44357  0.01279  2292581.54549  45.18785  19.85845     58705.16    51.19431       44.31962   51.17997  54.64028   57.0    0.10945  -21.47463  0.99938 
  -29.99505  0.00115  1.42133     14.27525  1.48287  0.50479  17.72516   0.2117     0.01097   7508.12233   7250.67932  0.78283         3527.69529     17.87822  0.00042  58627.21495   5.96046  0.02042    78307.43727  47.24075  19.86042     58700.16    51.21232        44.3626   32.02607  58.40049   54.0    0.08755  -21.39782  0.99973 
   -28.5479  0.14212  2.94987     13.87497  1.56847  1.21175    5.5445  0.31757     0.05008   8236.78978    7681.1174  1.75471         2929.25713     18.90428  0.00446   58628.6621   2.24391    0.788  2254031.06078  45.17176  19.89013  58703.32456    51.18292       44.28788   43.51211   58.4579   53.0    0.11367  -21.49238  0.95904 
  -33.82792  0.00635  2.74144     14.17777  1.80836  0.65727  10.89493  0.16277      0.0404   7327.17654   4259.17656   0.5117         2811.08191     17.88555  0.00043  58623.38208   3.48919  0.06915   556556.41589  45.90466  19.86812  58704.72584    51.08703       44.15253    56.5166  65.25563   59.5    0.10914  -21.40728  0.99741 
  -38.18151   0.1743  2.84759     14.18566   1.6145  0.37095   6.09459  0.29768     0.02883   8203.00744    7539.8486  0.45249         3332.80133     19.22044  0.00923  58619.02849   2.44635   1.0623   516999.01118  45.85444   19.8665  58703.32456    51.18166       44.30403   53.25799  54.64028   52.0    0.12436  -21.57525  0.95063 
  -32.92097  0.13857    2.581     14.32514  1.97788  0.61752  10.19028  0.26567     0.02378   7391.00215   7771.75006  1.56955         2873.60386     19.76215  0.03213  58624.28903   3.32063   1.4121   273725.08567  46.30415  19.93522  58704.72584    51.17611       44.29496   49.49779  58.40049   56.5    0.08674  -21.42663  0.96078 
  -28.84359  0.05565  2.16968     14.08388  1.86119  1.52828   7.79307  0.31526     0.03014   8240.19453   8501.96804  0.26457         4479.64395       17.964  0.00051  58628.36641   3.15654  0.43367   552895.81714   46.1232  19.87903  58703.32456    51.10706       44.21763   52.74883  57.68298   44.0    0.11518  -21.50161  0.99043 
   -27.9203  0.03838  2.54082     13.90945  1.50737  1.24591   15.1146  0.10476     0.01976   7014.46513   5559.51584  0.81588         4334.96756      16.1681    1e-05   58629.2897   4.43622  0.58002  1371112.82077  45.50005  19.88648     58705.16    51.20509       44.31636   41.44551  62.22567   58.0    0.11854  -21.47487  0.97603 
    -24.133  0.20761  2.13767     14.25584  1.84669  0.91006   9.39339  0.25907     0.05379   8658.83812   7754.49987  0.55381         3364.22164      16.6873    3e-05    58633.077   4.20115  1.95018   241221.20552  46.49294     19.82  58703.32456    51.07051       44.17623    55.1623   57.8709   51.5    0.11403  -21.45313  0.95924 
  -36.89356  0.05826  2.32114     13.99019  1.59564  0.81003  11.46504  0.32633     0.01655   7958.53925   6228.90985  3.17865         2429.74028     16.61647    2e-05  58620.31644   4.33181  0.66799   835182.61236   45.8186  19.85229  58704.72584    51.42543        44.6158   35.97656  50.86494   57.5    0.08711  -21.44418  0.97878 
  -41.70942  0.03554  2.37383     14.04278   1.9306  1.21514   6.62365  0.31364     0.02259   5542.42641   7822.63852  0.54413         4941.19778      19.5944  0.02183  58615.50058   1.21374  0.23538   829552.00963   45.8848  19.82158     58700.16    51.11094       44.24502   47.27988   56.5166   58.5    0.08343  -21.31145  0.99406 
  -36.59815  0.01311  3.08653     13.67016  1.53938  1.12896   6.99427  0.18203     0.01701   6654.47871   3295.46765  3.15523         2898.94975     19.18457   0.0085  58620.61185   1.84756  0.09172  6219817.60463  44.68347  19.88455  58703.32456    51.16733       44.29146   33.90996  64.05215   62.0    0.11313   -21.4256  0.99423 
  -41.11898  0.47825   3.2942     13.79824  1.91878  1.17786   7.75091  0.26782     0.01019   7436.46454   3269.68468  0.85986         2616.07076     18.81727  0.00365  58616.09102    2.5569  3.70684  4896135.06653  44.82652  19.89827  58703.32456    51.17486        44.3142   34.58963  60.70233   56.0    0.12142  -21.44064     0.84 
  -26.56033  0.02526  2.04747     14.29638  2.16805  1.00236   8.72487  0.28671      0.0281   7494.59522   6921.70244  0.50909         4062.52544     18.95066  0.00496  58630.64967   2.92336  0.22037    215557.7682  46.64892  19.88904  58704.72584     51.2243         44.356   49.49779  54.63271   51.5    0.10254  -21.44997  0.99656 
  -17.59957  0.02945  2.06031     14.01715  1.42438  1.20169  19.28501  0.09908     0.01195   6591.42423   5004.60233  3.12889         3445.79098     18.58741  0.00215  58639.61043   4.99811  0.56794   518810.86538   46.0796  19.88587  58707.38212    51.17628       44.29432   43.32939  62.16826   58.0    0.10557  -21.39512  0.98325 
  -25.73296  0.00603  1.96907     14.08145  1.94826  1.42972  12.58833  0.23919     0.01327   8636.67286   6541.88508  1.37533         2571.18233     20.35034  0.12447  58631.47704   5.60129  0.07597   482046.87206  46.28688  19.86362  58704.72584     51.2021       44.33328   39.74433  58.40049   48.0    0.11865  -21.60657   0.9987 
  -30.95164  0.39648  2.43752     14.05062  1.62511   0.8482   9.73468  0.27262     0.01327   8262.44931    6291.1218  1.03949         2463.41852     18.05727  0.00063  58626.25836    3.9643  3.85957   710173.32316  45.85447  19.87254     58705.16    51.22547       44.36995   37.44249  58.81844   51.5    0.12204  -21.49948  0.88178 
  -40.81632  0.09184  2.92247     13.79438  1.60018  1.04879   8.69209  0.21334     0.02076   7919.11144     6841.884  0.55735         2208.15582     16.28474    1e-05  58616.39368   3.25165  0.79826  3271352.21232  45.02679   19.9114  58704.72584    51.23682       44.35155   39.14366  62.58622   54.5     0.1155  -21.46077  0.95989 
  -45.48652  0.01039  2.65819     13.68665  1.61924  1.53504   8.41366  0.30021     0.01647   7581.37348   7518.70037  0.50021          2085.6718     17.32059  0.00012  58611.72348   2.88475  0.08744  4497738.86889  44.97599  19.85039  58702.06956    51.23541        44.3725   41.44551  55.14561   53.5    0.10702  -21.45214  0.99629 
  -45.93395  0.00177  2.46719      13.6072   1.4189  1.44561   6.56211  0.28673      0.0159   6349.10356    6431.3107  0.27572         4613.93266      19.0784  0.00665  58611.27605   1.57796  0.01164  4895214.73146  44.94662  19.83485  58702.06956    51.19687       44.38204   32.03101  54.66243   58.0    0.10563  -21.39165  0.99948 
  -25.72656  0.31963  2.90711     14.30719  2.00798  0.81784  12.59953  0.07448     0.04223   5251.21033   3643.35173  0.84634         5541.16278     16.80785    4e-05  58631.48344   2.07253  4.02722   382924.20865  46.06157  19.91026  58702.06956    51.25519       44.41004   36.09929  58.09504   72.0    0.11431  -21.49545  0.87396 
  -40.04131  0.00532  3.26645     13.91798  1.79347  0.70847  11.46142  0.11257     0.01794   7562.33417   3993.48666  0.99321         2021.43719     16.96763    5e-05  58617.16869      3.91  0.06099  2592383.43666  45.08069  19.87284     58705.16     51.1587       44.25098   51.17997  62.25378   62.0     0.1094  -21.45177   0.9966 
  -36.25896  0.04115  3.38644     13.74558  1.88698  1.03854   3.20502  0.24985     0.05598   7591.23091    3447.9379  0.06328         5696.13807     18.85713    0.004  58620.95104   1.10175  0.13189  6485092.48155  44.67321  19.86256  58702.06956    51.21663        44.3307   45.53589  60.28437   67.5    0.10908  -21.47729  0.99254 
  -36.94187  0.00204  2.74347     14.00726  1.86343  1.21361  12.47408  0.12716     0.03944   5752.40556   6984.85992  0.56239         4067.31699     17.97719  0.00053  58620.26813   2.46227  0.02539  1259511.24562  45.56236  19.88238  58703.32456     51.1593       44.31464   30.45606  60.28437   65.0    0.09594  -21.30284  0.99909 
  -23.18277  0.02103  1.15964     14.17362  1.78988  1.46796  24.52452  0.15174     0.07138   9908.24103    6044.0538  0.00358         4855.52157     18.40249   0.0014  58634.02723  14.36219  0.51569   100473.34801  47.39097  19.88302  58703.32456    51.20141       44.30722   44.62329  62.75825   53.0    0.10842  -21.53698  0.99681 
  -24.80952  0.03363  2.56298     14.07875  1.58118  0.86293  13.38267  0.09821     0.02468   5462.37646   4582.40335   1.8019         3873.55289     18.08915  0.00068  58632.40048   2.38195     0.45   671108.64794  45.82354  19.90981  58702.06956    51.14749       44.23904   36.89147  69.70381   63.0    0.10587  -21.39103  0.98233 
  -35.46407  0.02765  2.97697     14.20143  1.76003  0.51976   5.98713   0.2228     0.03723   5783.08242   7529.60768  0.81243         4871.03648     16.05655    1e-05  58621.74593   1.19444  0.16553   572839.47006  45.80879  19.84032  58702.06956    51.18789       44.30046   44.62329  60.87436   62.0    0.10383  -21.46251  0.99238 
  -26.79548  0.00518  1.80956     14.42872  2.14272  0.70819    18.426  0.18754     0.02818   7745.10912   6260.04365   1.1336         3585.55275     16.94875    5e-05  58630.41452   6.59346  0.09543    90465.73339  47.12818  19.77976      58699.2    51.13583       44.27031   39.56162   56.5166   61.0    0.08633  -21.42268  0.99882 
    -35.617  0.01003  3.21456     13.93968  1.75293  0.85667   6.52784  0.32111     0.02659   7803.76278   8297.58944  3.07922         2807.95257     16.58773    2e-05    58621.593    2.3714  0.06547   2220512.4299  45.15192   19.8411  58702.06956    51.15289       44.32836   34.21541  56.21115   52.5    0.10941  -21.48115   0.9964 
  -27.64036  0.00135  1.89765     13.84027  1.45434  1.43881   5.65499  0.29482     0.04953   6676.12771   8636.75788  0.89832         3922.38837      20.5376  0.19157  58629.56964   1.50352  0.00766  1014803.18958   45.8687  19.84038  58703.32456     51.1567       44.33457       29.0  58.39555   53.0    0.10797  -21.61674  0.99981 
  -32.24674  0.05747  2.46008     14.17456  1.92991  0.77911  10.08227   0.2003     0.05682   7510.87776   3265.39918  0.19605         5243.47066      20.1673  0.08166  58624.96326   3.39287  0.57948    485427.1613  46.08636  19.83832  58704.72584    51.14377       44.28378   32.16562  62.16826   59.0     0.1039  -21.55493  0.98443 
  -43.16562  0.10351  2.95127     13.86756  1.84344  1.43348  10.96435  0.21987     0.01234   7414.28359   8354.91264  0.27205         4137.63653     19.01359  0.00573  58614.04438   3.59541  1.13489  2743777.01174  45.15611  19.87999  58704.72584     51.1337       44.22837   54.95532  60.28437   49.0    0.11582  -21.43908  0.95375 
  -37.58124   0.0887  3.60951     14.00487  1.99653   0.8302   7.44051  0.26568     0.02202   7738.56732   7574.18232  1.76457         3153.65954     17.75984  0.00032  58619.62876   2.65798  0.65994  2361835.93459  45.08098  19.90397     58706.16    51.17876       44.32695   39.74433   56.5166   55.0    0.10859  -21.49928  0.96344 
  -19.61348  0.02447  0.74872     14.50805    1.876  0.61647  12.92337  0.29566     0.05219   8400.27399   8188.69989  0.80249         3974.67543     19.72937  0.02979  58637.59652   5.43989  0.31626      9409.9902  48.81985  19.84602  58703.32456    51.22801       44.39531   32.02607  58.39237   53.0    0.09057   -21.5146  0.99952 
  -25.43624  0.01304  1.34992     14.12831  1.48899  0.85106  11.23494  0.16166     0.01701   5822.13554   3836.64368  0.79325         4994.63202      17.7206  0.00029  58631.77376   2.27176  0.14647   139540.74193  47.03642  19.88183  58702.06956    51.24306       44.27467   47.09717  63.34173   54.5     0.1016  -21.46079  0.99827 
  -36.39879  0.00769   2.8558     13.91129  1.73298   1.3295  10.18192   0.2209     0.02911   7697.92913    4726.3532  1.09055         2911.73585     18.86554  0.00408  58620.81121   3.59919  0.07826  1974636.45942   45.3007  19.88814  58703.32456     51.1819       44.29686   47.41977  58.40049   59.0    0.09411  -21.43491   0.9966 
  -28.52278  0.13248  0.75229     14.20218  1.80516  1.38883  19.90615  0.22478     0.01545   8962.64393    9331.9995   0.3218         5007.03392      20.2216  0.09254  58628.68722   9.53865  2.63721     37388.4563  48.19985  19.80739  58703.32456    51.17892       44.35055   36.53061  52.74883   46.0    0.08403  -21.66963  0.99495 
  -25.70098  0.07645  2.36204     14.21029  1.67473  0.64343  12.35566  0.23245     0.01067   7630.24101    4445.6784  2.21587         3343.06433     17.78101  0.00034  58631.50902   4.29111  0.94464   329424.85199  46.22846  19.87797  58702.06956    51.23746       44.31917   44.62329  58.99047   53.0    0.10882   -21.4686  0.97148 
  -41.19943  0.00534  2.98458     13.76745  1.77681  1.12922   6.87051  0.22549     0.01102   6098.03302   4420.52428  0.59872         4280.09219     17.53295  0.00019  58616.01057   1.52404  0.03672  4288664.61113   44.9364  19.84401     58705.16    51.17945       44.31307   41.62822  58.40049   57.5    0.11902  -21.43732  0.99828 
  -21.81056  0.00383  1.30628     14.22705  1.97229  1.54389  22.60118  0.15321     0.02517   9460.42777   9629.91464  0.55583          4927.6478     20.08854  0.06812  58635.39944  12.06646  0.08653   109841.33867  47.29098   19.8387  58703.32456    51.17409       44.31069   50.29787   53.6385   45.0    0.10613  -21.66084   0.9994 
  -35.34339  0.01252  1.37669     14.08369   1.8604  1.54677  13.06538  0.33788     0.01208   7865.77289   6041.81662  0.05965         4888.64401     18.15597   0.0008  58621.86661   4.82205  0.16356   222695.04235  46.91307  19.87952  58704.72584    51.12478       44.17616   59.44681  66.60993   54.0    0.10262  -21.37056  0.99856 
  -45.96015  0.03049  2.70517     13.63506  1.55924  0.84592  11.71388  0.13935      0.0139   7773.94332   5566.11474  0.99454         2532.59686     20.24928  0.09863  58611.24985    4.2229   0.3571  5688404.88608  44.84238  19.86599     58706.16    51.18957       44.32112   34.22383  62.22567   63.0    0.10953  -21.57953  0.98294 
  -28.32389  0.00259  1.80597     14.02531   1.6678  1.49381   8.48219  0.33742     0.03591   8204.45661   8561.90294  0.40706         5823.52946     18.19703  0.00087  58628.88611   3.40592  0.02196   449527.62569  46.32481  19.87541      58699.2     51.1435       44.22409   41.94641  64.05215   47.5    0.10822  -21.59032   0.9996 
  -34.82155  0.06592  2.68474     14.03186  1.73336   0.8883   8.52017  0.30948     0.02977   8204.16943   3293.17516  1.93578         2209.05618     17.22511    9e-05  58622.38845   3.42093  0.56167  1001809.50833  45.64914  19.86095     58705.16    51.19436       44.31904   50.29787  55.52239   55.0    0.09972  -21.46527  0.97889 
  -37.12505  0.09909  3.25697     14.27623  1.80777  0.40827    9.4266  0.18014     0.26417   8408.03706   3655.31559  0.05074         2373.62723     16.95495    5e-05  58620.08495   3.97532  0.93404   499021.05313  45.80224  19.84996  58702.06956    51.24161       44.39994   50.27495  51.44681   66.0    0.10839  -21.47738   0.9522 
  -40.03491  0.01019   2.3695      13.6001  1.35014  1.15686   5.83228  0.23435     0.01223    6009.7183    6745.5337  0.42644         5104.47592     16.07483    1e-05  58617.17509   1.25653  0.05945  4439227.54251   45.0026  19.86034  58702.06956    51.16049       44.28457   49.30366   56.5166   56.0    0.12407  -21.47354  0.99736 
  -24.16817  0.05899  1.88838      14.3328  1.99677  0.72873   5.53928   0.2652     0.02385   5636.29171   5105.59613  1.26792         4065.06958     20.47013    0.164  58633.04183   1.04971  0.32674   142800.05176  46.86226   19.9245  58703.32456    51.17726       44.30444   32.02607  65.93603   55.5    0.10077  -21.54137  0.99509 
  -34.11881  0.02891  2.78609     13.94581  1.77884  1.46738   7.34142  0.25395     0.01526   6132.31955   4770.62505   1.0982         4001.68687     17.22714    9e-05  58623.09119   1.64686  0.21224  1645561.80135  45.41268   19.8475  58704.72584    51.22234       44.36847   43.32939   56.5166   54.5    0.10182  -21.41967  0.99163 
  -38.99638  0.00232  2.01437     13.87045  1.31091  0.81365   8.52672  0.32709     0.04104   8122.78001   4478.86487  0.48264         2237.47006     17.09606    7e-05  58618.21362   3.35597  0.01977   896955.63052  45.82537  19.85761  58704.72584    51.19848         44.336   33.12864  62.16332   57.5    0.09375  -21.45012  0.99935 
  -27.96554  0.02617  1.49342     14.13594  1.89631  1.40466   8.69857   0.3137     0.02221   7605.47335   8643.03018  0.88382         2178.54605      19.7823  0.03365  58629.24446   3.00142  0.22762   209996.14362  46.87618  19.93524  58707.38212    51.18425        44.2734   36.09929  69.47631   44.0     0.1064  -21.45005  0.99771 
  -40.51076  0.00185  3.41198       14.023  2.05612  0.76279   8.46923   0.1704     0.01847   7341.56408   4691.84065    0.189         3580.23259     19.47453  0.01657  58616.69924   2.72301  0.01569  1999302.71317    45.215  19.83396      58699.2    51.06639       44.19133   41.75938  60.28437   57.5    0.11836  -21.47401  0.99923 
   -25.7664  0.00924  1.96465     14.09097  1.71414  1.04749  12.23722  0.22584     0.01426    8202.2276    6871.9714  0.97761          2767.8078     18.89397  0.00435   58631.4436   4.91104  0.11306   404107.18367  46.30982  19.86096  58703.32456     51.1113       44.23897   52.45308  54.92846   47.5    0.11326  -21.46296  0.99767 
  -33.40156  0.00339  1.43385     14.23333  1.77549  0.77436  27.33724  0.14194     0.01137   8326.50437     7061.416  0.08015         2555.45623     16.06567    1e-05  58623.80844  11.30596  0.09265    115742.1271  47.14166  19.85881  58704.72584    51.16881       44.28514   53.26556  56.57401   53.0     0.0945  -21.45915  0.99905 
  -19.30479  0.04916  1.31131     14.18064   1.6439  0.90415  15.40372  0.31402     0.01406    9705.9543   6064.35261  1.36382         3114.53543     18.48964  0.00172  58637.90521   8.65624  0.75718     114242.662  47.19148  19.91265  58704.72584    51.19518       44.31369   48.09138  59.29016   50.5    0.10855  -21.51893  0.99284 
  -30.28695  0.37208  1.66721     14.08831  1.64569  1.11932  11.24912  0.33182     0.01099   7908.57411   5827.03892  1.25423         2929.79257     18.59586  0.00219  58626.92305   4.19703  4.18555   282823.19179   46.5897  19.85575  58704.72584    51.17113       44.33768   41.03823  53.33881   56.5     0.1044  -21.43779   0.9383 
  -48.69922  0.00627  3.25886     13.73131  1.94279  1.40569   9.16299  0.17074     0.01297   6530.73601   7428.26393  0.44483         3955.49024     19.69311  0.02741  58608.51078   2.33125  0.05744  6603221.21297  44.71138  19.88119     58700.16     51.2051       44.34087   41.44551  55.14561   60.5    0.10763  -21.44217  0.99715 
  -30.11703  0.00148  3.57982     14.13238  2.07484  0.78773   6.60583  0.15914     0.03268   5893.68339   4757.44149  1.43735         3773.52456     20.07043  0.06534  58627.09297   1.36876  0.00979  1342014.47012  45.35035  19.93274  58707.38212    51.15612       44.27682   50.86494   56.5166   67.0    0.11288  -21.46484  0.99949 
  -27.70247  0.02035  2.75997     14.14161  1.99475  0.99393  10.54251   0.2835     0.01886   9221.46684    8552.5887  2.71964         2168.01699     18.48951  0.00171  58629.50753   5.34775  0.21456   735000.44201  45.82064  19.93463  58703.32456     51.1421       44.25265   48.98105  60.28437   42.5    0.12289   -21.5014  0.99303 
  -29.63588  0.00146  3.07225     14.23575  1.94175  0.62383   8.11093  0.26551      0.0172   7172.78223   6250.26107  1.51759         3456.96387     19.04681  0.00619  58627.57412   2.48928  0.01188   574668.72836  45.82271  19.86519  58699.41328    51.16595       44.32803   32.33994   57.0295   52.0    0.11407  -21.45234   0.9995 
   -33.1115    0.335  2.99323     14.00374  1.68858  0.83591   5.56006  0.28295     0.01715   6075.09519   4204.72681   0.9372         3825.11736     18.90773  0.00449   58624.0985   1.22409  1.86259  1380838.92816  45.40394  19.83438  58704.72584     51.3064       44.47083   29.66731  58.09504   56.5    0.11157  -21.38885  0.91484 
   -30.0885  0.01335  1.40592     14.36292  1.80627  0.61208  13.76713  0.19256     0.26342   7541.04666   4336.47776  0.04442         2527.26023     18.30513  0.00112   58627.1215   4.67018  0.18383    62328.04339  47.43502   19.8971  58703.32456     51.1085       44.20264   41.80851  66.51064   55.0     0.0993  -21.39052  0.99825 
  -38.77184  0.16649  2.95752     13.99268  1.65823  0.71334   9.35254  0.14403     0.01207    6073.0516    7592.7115  0.45364          4959.3891     18.15995   0.0008  58618.43816   2.05765  1.55709  1392995.53472  45.40268  19.86065  58702.06956    51.16195       44.29164   35.79385  62.16826   57.0    0.10741  -21.42312  0.92721 
  -22.11946   0.0763  0.85808     14.15622  1.34903  0.83048   6.71241  0.30706     0.02341   5570.37929   6171.38926   0.9662         4693.79823     16.70205    3e-05  58635.09054   1.24244  0.51215    44921.49922  47.87935  19.88158  58704.72584    51.21322       44.31433   50.86494  60.28437   57.5    0.09317  -21.37463  0.99752 
  -38.31965  0.05409   2.7522     13.98493   1.6569  0.73422  10.33515  0.18432     0.02001   7517.30655   5021.32596  0.21495         4448.91512     19.77351  0.03298  58618.89035   3.48392  0.55904  1249125.75949  45.51217  19.82713  58703.32456    51.18776       44.32529   51.17997   52.7564   57.0    0.10902  -21.50406  0.97623 
   -35.2449  0.15075  2.36956     13.91003   1.5123  1.34382   16.4821  0.12985     0.01025   6817.68097   3479.60061  0.66785         4098.79264     16.37115    1e-05   58621.9651   4.56997  2.48475   1193255.0837  45.62241  19.87598  58702.06956     51.2286       44.34774   45.53589  58.40049   58.5    0.09524  -21.42087  0.91674 
  -36.43341   0.0067  2.83238     14.11517  1.85694  0.57672   7.00977  0.19386     0.01258   6012.66813   6360.81549  0.36814         5806.88897     19.91208  0.04537  58620.77659    1.5117  0.04696   813906.94582  45.72277  19.89288     58705.16    51.22275       44.34038   37.86045  62.16826   54.5    0.12114  -21.52249  0.99818 
  -30.73782   0.0473  1.57793     13.89345  1.45919  0.87176  16.33195  0.11098     0.01362   7990.53861   9792.63372  0.21928         4487.48508     20.80864  0.35758  58626.47218   6.22038   0.7725   551068.92071  46.29557  19.92882  58703.32456    51.21814       44.31347   45.31206   64.4701   42.5     0.1199  -21.85242    0.987 
   -30.1777  0.26231  3.55767     13.84395  1.73067  1.18779   5.41164  0.19908     0.01933   6161.63855    4569.2847  2.02514         3652.58614     19.82226   0.0369   58627.0323    1.2256  1.41953   4173123.1129  44.78427  19.88611  58702.06956     51.1185        44.2256   52.45308  57.97872   59.5    0.11436  -21.47066  0.91041 
  -27.88502  0.00231  0.94592     14.05801  1.55054  1.51542  19.88825  0.20279     0.01001   8183.27599   8334.72525  0.49147         4304.53864     19.46038  0.01604  58629.32498   7.94471  0.04593    98623.72906  47.51364  19.89243  58703.32456    51.14952       44.28196   53.26556  54.63271   47.5    0.10503  -21.48431  0.99977 
  -26.37463  0.09211  1.60273     14.08216   1.5821  1.22571  12.33078    0.198     0.02967   7659.54952    3698.3093  0.58458         3642.84425     18.04484  0.00062  58630.83537   4.31543  1.13577   258499.09683   46.6459  19.85505  58704.72584    51.17919       44.32985   35.00759  60.28437   54.5    0.10408   -21.4062  0.98288 
  -42.70109   0.3835  2.19387     13.65618  1.28515  1.15024   6.17919  0.24673     0.01078   5487.22475   6060.65553  0.47037         4851.13899     19.90837  0.04499  58614.50891   1.10985  2.36973  2797866.89338  45.24855  19.82271      58699.2    51.05958       44.20772   35.79385  58.40049   59.5    0.11054  -21.40524  0.91229 
  -32.22029  0.00218  1.94444     14.05271  1.72927   1.0619  11.52998  0.27177     0.01627   7639.41677   3245.05862  0.31481         4159.78148     18.93801  0.00482  58624.98971   4.01399  0.02509   476271.35008  46.25126  19.87108     58705.16    51.20889       44.37596   38.17864  54.63271   53.0    0.09725  -21.47024   0.9995 
  -31.39669   0.0096  2.33884     14.12684  1.80635  0.88388   9.42557  0.22096     0.03535   7104.04492   8230.30848  0.35683          5060.3542     17.55543   0.0002  58625.81331   2.83757  0.09053   511607.91192  46.07871  19.85149     58706.16    51.16169       44.30478   45.38842  54.64028   52.0    0.10744  -21.47624  0.99755 
  -31.52968  0.02721   1.4735      14.0787  1.62094   0.9252   6.91424  0.33094     0.01264    5752.0251   4006.10979  0.61546         5927.38511     19.59014  0.02162  58625.68032   1.36463  0.18811    227450.3056  46.78502  19.89568  58703.32456    51.17014       44.28609   50.86494  58.40049   52.5    0.10402  -21.55178  0.99764 
  -34.44901  0.00922  1.91729     14.24021  1.74456  0.62094  18.48906  0.13792     0.01977   7298.89777    3206.9269  0.52355         2873.08604      19.8474   0.0391  58622.76099   5.87566  0.17054   196999.65716  46.65069  19.89017     58706.16    51.18297       44.28001   57.79005  59.01093   57.0     0.0947  -21.44067  0.99674 
  -32.19982   0.0264  2.67959     13.97329  1.65008  0.90742   8.19502   0.1578     0.04533   6462.84694   8231.12531  0.40572         5952.23009     17.99359  0.00055  58625.01018   2.04186  0.21638  1244142.33793  45.53534  19.90858     58706.16    51.18608       44.28723   55.62693  59.29016   58.5    0.11619  -21.51225  0.99115 
  -24.75974  0.05306  1.42057     14.01012  1.51246  1.55128    9.7975  0.18883     0.01226    6213.2182   9017.76332  0.87355          4499.9181     20.11617  0.07259  58632.45026   2.25619  0.51984   270510.18494  46.71142  19.84402      58699.2    51.25737       44.39495   33.99291  53.20144   47.5    0.10678  -21.48891  0.99336 
  -28.59548  0.09407  1.80898     13.94433  1.55202  1.26844   5.79914  0.30625     0.02999   6221.55199   4815.01623  0.97141         3692.14561     20.47427  0.16558  58628.61452   1.33902  0.54552   609434.45429  46.15995  19.89128  58703.32456    51.20205       44.30633   49.30366   58.4579   58.5    0.10067   -21.5151  0.98901 
   -38.2043  0.00237  2.20061     13.75662  1.39659  1.44883   10.6723  0.26271     0.01876    7474.3933   5415.85491  0.72413         3654.44571      18.0366   0.0006   58619.0057   3.55662   0.0253  1926300.41837  45.44411  19.86803  58703.32456    51.23449       44.35301   43.32939  60.28437   56.0    0.09289  -21.45986   0.9991 
  -37.98549  0.00947  3.23077     13.91947    1.962  1.54172    9.1829   0.1511     0.02576   6482.84352   6775.07505  0.39192           5258.342      16.5897    2e-05  58619.22451   2.30217    0.087  2755375.82282  45.10275   19.9292  58702.06956    51.21695       44.31272   41.75095  61.86281   63.0    0.10024  -21.46944  0.99596 
  -23.71574  0.00227  0.88302     14.09091  1.56181  1.45778  13.28737  0.26092     0.01116   7834.43156   9776.99201  0.52376         5726.09239     18.55383  0.00199  58633.49426   4.86498  0.03023    74399.42134  47.69896  19.86232     58705.16    51.21356       44.34016   30.45606  64.05215   42.0    0.11312  -21.56277  0.99988 
  -36.46131  0.07562  3.14208       13.866  1.78698  1.10281   6.97745  0.32194     0.01099   6139.13569   7231.73809  3.38904         3468.70927     16.26089    1e-05  58620.74869   1.56869  0.52766  3036410.08466  45.04417  19.93543  58707.38212    51.13979       44.21585   52.74883  64.05215   58.0    0.11287  -21.46543  0.97372 
  -34.87286  0.00578  1.85937     14.14113  2.00038  1.04552  15.46072  0.28083     0.01314   8703.01612   7508.72909  0.50191         3392.38306     20.11632  0.07262  58622.33714   6.98548  0.08929   335281.56114  46.50582  19.90915     58700.16    51.15603       44.26996   46.82979  58.99047   50.0    0.10047  -21.56414  0.99869 
  -34.14395  0.01255  2.26839     14.10269  1.79214  0.89285  16.51733   0.1396      0.0153   6813.56327   6359.89192  0.40796         5428.56078     19.14368  0.00773  58623.06605   4.57421  0.20736    533640.1268  46.08353  19.88568  58703.32456    51.16779       44.30358   35.60681  60.28437   57.5    0.09306  -21.50024  0.99466 
   -41.9088  0.33825   3.1994     13.88585  1.80484  1.21697   7.46934  0.24349     0.01866    7298.2513   3948.92757  0.02735         3921.16615     17.39745  0.00014   58615.3012   2.37327  2.52652   2901949.7336  45.05246  19.83501  58703.32456    51.17539        44.3367   36.09929  56.21115   56.0    0.11436  -21.39094   0.8838 
  -27.35281   0.1258  2.24134     14.44313  1.73339  0.38108   8.37472   0.2657     0.09811   7185.51217   3238.61184  2.50001         2660.97632     20.19917  0.08788  58629.85719   2.57936  1.05351   105064.83613  46.78527   19.9094     58706.16     51.1788       44.30669   52.37589  55.52239   64.0    0.09034   -21.4554   0.9728 
  -36.62074  0.02826  2.37205     13.93077  1.80222   1.2625  11.95975  0.32405     0.01286   8282.48392   5006.27436  0.96023         2420.59734     16.22316    1e-05  58620.58926   4.89407  0.33803  1295171.70212  45.66208  19.86601     58700.16    51.28543       44.38936   43.95745  61.86281   54.5    0.10887  -21.48603  0.99055 
  -41.04421  0.00704  2.63174     13.98453  1.60291  0.71699   6.63356  0.19139     0.01138   4714.63173    3857.8982  0.86267         5022.37161     18.47382  0.00165  58616.16579   0.87957  0.04671   1106994.5213  45.58912  19.77811  58703.32456    51.09482       44.21243   48.98105  58.40049   61.0    0.09885  -21.38223  0.99805 
  -27.83414  0.11272  2.89447     14.11087   1.8851  0.91936   9.36906  0.31291     0.02366    8528.0655   4772.98284  3.51466          2653.7054      17.2049    9e-05  58629.37586   4.06466  1.05605   880133.53855  45.67649  19.86121  58704.72584    51.32457       44.49812   26.87532  58.40049   54.5    0.10077  -21.49666  0.96016 
  -32.64069  0.03809  2.52676     13.97641  1.76153   1.5058  11.73697  0.17933     0.02576   7101.99998   6370.40781  0.44746         4518.86973     18.13618  0.00076  58624.56931   3.53138  0.44704  1164148.83152   45.6436  19.93901  58704.72584    51.13177       44.24139   48.37061  59.01093   59.5    0.09625   -21.4586  0.98543 
  -32.38293  0.00227  3.23431     13.75045  1.66015  1.42007    4.2831  0.33585     0.07246   8742.53412   3820.86476    0.746         3194.58089     16.66906    3e-05  58624.82707   1.95281  0.00972  5088955.71643   44.7628  19.90899  58704.72584    51.15373       44.26138   57.87994  58.40049   58.0    0.11724  -21.53948  0.99941 
  -34.21514  0.08919  2.77687     13.93363  1.80628  1.45921   7.45605   0.2714     0.02391   7646.80209   7931.68889  0.28607         3894.31849     17.29103  0.00011  58622.99486   2.60073  0.66499  1755666.01261  45.39408  19.88208     58705.16     51.1764       44.29754   50.29787  55.52239   48.5     0.1145  -21.49216  0.97493 
  -41.66993  0.00335  3.11747     14.05994  1.86707  0.65126    8.2594  0.16647     0.01509   5966.13279   6585.22755  0.29968           5091.755     19.09495  0.00691  58615.54007   1.75373  0.02765    1278494.869   45.4457  19.84098  58703.32456    51.13582       44.27881   47.09717  54.63271   60.0    0.10334  -21.37243   0.9987 
   -40.7593  0.08565  2.41812     13.76881  1.33566  0.55488   5.57257  0.32401     0.01494   7324.52514   8246.13766  0.72619         3626.00565     18.90676  0.00448   58616.4507   1.78337   0.4773  2103038.67349  45.30474   19.8333     58705.16    51.14844       44.27718   46.00277  57.79371   50.0     0.1322  -21.50796  0.97765 
  -35.71002  0.02353  3.45893      13.8271  1.87757  0.98595   8.21235  0.13514     0.01696   7342.46082   5412.31903  0.79029         2957.45216     18.67714  0.00264  58621.49998   2.64106  0.19323  4624812.25164  44.79946  19.82817  58703.32456    51.17894       44.31966   43.51211  54.63271   61.0    0.12125  -21.45171  0.98874 
  -38.57256   0.0682   3.0868     14.04797  1.73117   0.4457   6.06902  0.23791     0.02447   7839.38115   6145.44406  0.45754          2123.3516     19.18705  0.00855  58618.63744   2.22489  0.41391  1228108.69486  45.43893   19.9569     58706.16    51.13901       44.23728   41.03823  66.52602   57.5    0.12059  -21.50345  0.97858 
  -28.68316  0.01351  1.61573      14.1016  1.61625  1.02952  10.79827  0.14752     0.02862   5238.23798    3439.9588  0.83512         4833.02113     16.76281    3e-05  58628.52684   1.76747   0.1459   245390.60777  46.67076  19.84717  58702.06956     51.1323       44.26712   43.32939  56.57401   60.5    0.10018  -21.38732   0.9978 
  -30.56401  0.07645  2.90355     13.92404   1.6865  1.38727   9.25932  0.18401     0.06731   7437.16473   4702.08185   0.7323         3438.77654     18.86957  0.00411  58626.64599   3.05507  0.70786  1873158.78473   45.2974  19.90009  58702.06956    51.20546       44.33364   41.44551   56.5166   62.0    0.10995  -21.42745  0.96787 
  -35.17297  0.15172  2.94387     14.07699  1.75084  0.79136  12.38031  0.23041      0.0111   6625.68437   5592.59549   3.4873         3451.33703     16.86168    4e-05  58622.03703   3.24205  1.87832   988361.23244  45.57934   19.7763  58702.06956    51.19474       44.32909   49.30366  54.63271   62.5    0.08488  -21.45923  0.92111 
  -41.29003   0.0835  2.96369     13.96648  1.66228  0.43344    4.6204   0.3101     0.02732   7893.83326   5697.43756  0.84763         2217.25061     19.39651  0.01384  58615.91997   1.71744   0.3858  1582078.75783  45.34665   19.9522  58703.32456    51.16163       44.25537   45.21328  64.13009   58.0    0.12152  -21.50353  0.98009 
  -39.58725  0.03985  3.39786     13.94167  2.06526  0.81458   6.76338  0.24294      0.0184   7820.00057   5086.08402  0.27414         3763.54587     19.73005  0.02984  58617.62275    2.4672  0.26955   2896390.0861  45.05955  19.80398  58702.06956     51.1553       44.30022   39.56162   56.5166   55.5    0.12793  -21.54584  0.98698 
  -26.07817  0.02757  1.34809     14.02337  1.52866  1.44465  12.46785  0.22477     0.10731   8760.71325   3822.69618   0.0891         4212.04565     18.85015  0.00393  58631.13183   5.70818  0.34378   231643.59327   46.8289  19.84237  58704.72584     51.2295       44.37334    33.1237  58.91338   51.5    0.11277  -21.50474  0.99612 
