 texplosion  fnickel    Pspin  log(Bfield)      Mns  thetaPB   mejecta    kappa  kappagamma      vejecta  temperature    alpha  cutoff_wavelength  log(nhhost)      A_V         MJD0   kenergy  mnickel           TSD   log(L0)  Peak_mag     Peak_MJD  log(E_rad)  log(Peak_lum)  Rise_Time    E_fold  tau_1  delta_m15     r_peak     frac 
  -10.13137  0.01965  1.20311     14.52673  2.11134  0.88685  36.09096  0.09936     0.02271   9025.60123   3064.49357  1.59079         2785.86369     16.29423    1e-05  57901.92863  17.53791  0.70925   25091.87267  48.03326  14.47561  57956.65514    51.03017       44.15388   27.37636  65.70327   53.0    0.09593  -21.06941  0.99704 
   -7.72817  0.00482   1.2207     14.24879  1.69145   1.0993  19.22461  0.26052     0.03487  10944.16095   3035.28277  3.46255          2273.9559     18.58772  0.00215  57904.33183  13.73566  0.09273    74425.5628  47.45216  14.20677  57962.29862    51.07215       44.18118   35.58927  65.70327   52.5    0.10038  -21.34942  0.99932 
   -8.93613  0.01523  1.36476     14.26289  1.81015  1.42082  13.24342  0.27408     0.04673       9078.7   3009.09241  2.87237         2485.39051     19.13064  0.00751  57903.12387   6.51141  0.20168   93298.13169  47.28657   14.4487  57959.47688    51.06746        44.2044   24.63873  65.70327   54.0    0.10653  -21.24225  0.99831 
  -10.52033  0.00366  1.21011     14.08919  1.46971  1.33647  14.78193  0.27912     0.02993   9270.67776   3075.87715   1.4172         2735.68337     18.41495  0.00144  57901.53967   7.57847  0.05406  132530.39379  47.14811  14.45055  57956.65514    51.04954       44.17823   35.58927  62.96564   53.5    0.10319  -21.22368  0.99949 
  -10.94603  0.00414  1.27252     14.42501  1.55145  0.51893   26.6003  0.14878     0.01646   9043.94732   3019.01354  1.46246         2794.84339     16.68766    3e-05  57901.11397  12.97866  0.11018   32951.42816  47.73238   14.4018  57959.47688    51.04334       44.17097   27.37636  65.70327   52.0    0.09787  -21.16792  0.99895 
   -6.69981  0.03666  0.94201     14.47628  1.60096  0.61267  33.17892  0.10753     0.01235   9338.45594   3105.90528  2.13995         2708.54706     19.06481  0.00645  57905.36019  17.25995  1.21648   14714.39209  48.35737  14.40956  57962.29862    51.06204       44.20126   35.58927    60.228   53.5      0.116  -21.30786  0.99545 
   -8.93212  0.00117  0.99883     14.61633  1.73049  0.44627    20.353  0.17813     0.02417   8227.22248   3103.58247  2.21563         2751.36091     16.10755    1e-05  57903.12788   8.21792  0.02378    9382.05905  48.53573  14.56962  57962.29862    51.01722       44.13256   32.85164  65.70327   55.0    0.08925   -21.1988   0.9999 
   -7.54643  0.00117   0.7482     14.32837  1.74149   0.8442   31.1278  0.22152     0.01007  10970.12222   3109.06981  1.39068         2892.08147     18.59404  0.00218  57904.51357  22.34594  0.03648   19953.77355  48.46171  14.43737  57959.47688    51.07249       44.20677   27.37636  68.44091   48.5    0.08145    -21.409  0.99993 
  -10.70199  0.00748  1.18816     14.21837  1.65554  1.04367  22.42958   0.1775        0.02   8824.54215    3018.6158  2.88516         2358.74693     20.11671  0.07268  57901.35801  10.41916  0.16787   79389.12704  47.43827  14.27763  57962.29862    51.19048       44.32609   27.37636  65.70327   54.5    0.09164   -21.2021  0.99877 
  -10.33845  0.09727    1.246     14.46391   1.8126  0.66763  20.45177  0.19969      0.0116   9299.83047   3016.41094  1.57549         2734.78028      19.2776  0.01053  57901.72155  10.55135  1.98944   30855.44256  47.84678  14.32525  57965.12035    51.05684       44.15458   32.85164  71.17854   51.5    0.09929  -21.22797  0.98673 
    -6.2686   0.0366  0.83326     14.41538  1.81697  1.00345  19.89236  0.18434      0.0269   9159.35264   3004.13067  2.23839         2774.34186     18.76223  0.00321   57905.7914   9.95504  0.72799   17296.70745  48.44866  14.53938  57959.47688    51.02665       44.15285     30.114  62.96564   53.0    0.10151  -21.28299  0.99871 
  -10.75963  0.00155  1.34582     14.21938  1.76446  1.55921  16.67273  0.22671     0.02424   8840.31333   3191.55744  1.37052         2868.13441     16.25966    1e-05  57901.30037   7.77265  0.02578  108054.27222  47.22384  14.42842  57962.29862    51.05421       44.16439   35.58927  68.44091   52.5    0.10573  -21.14042  0.99978 
   -10.2834   0.0059  1.03837     14.05908   1.3162  1.18313  15.45076  0.22244      0.0237   8059.51277    3028.3664  1.28813         3141.53381     17.45845  0.00016   57901.7766    5.9868  0.09114  100387.19542  47.35378  14.53207  57959.47688     51.0231       44.14009     30.114  65.70327   54.0     0.0954  -21.16857  0.99928 
  -10.99547  0.01746  1.22043     14.32707  1.45022  0.66321  19.55013  0.15779     0.03794   8220.20303   3041.64157  1.59067         2940.32804     19.63696  0.02408  57901.06453   7.88029  0.34144   44477.42793  47.60912   14.3913  57965.12035    51.06867       44.18094   38.32691  65.70327   54.5    0.10301  -21.07335  0.99677 
   -8.38538   0.0012  0.77368     14.50475  1.68622  0.54439  41.21173  0.13439      0.0172   11156.9972   3139.65312  1.31776         2702.58946     19.93365  0.04768  57903.67462  30.60149  0.04949    9169.75759  48.75628  14.41357  57959.47688    51.23434       44.39455   27.37636    60.228   52.0    0.10242  -21.42714   0.9999 
   -8.81859  0.00772  1.06426     14.29665  1.84799  1.35428  16.92786  0.28125     0.04217   9985.81042   3042.83394  2.16943         2434.47768     16.39749    1e-05  57903.24141  10.06922  0.13061   49579.30824  47.78615  14.45316  57959.47688    51.07595       44.21503   24.63873  65.70327   53.5    0.08429   -21.2825  0.99945 
   -8.24142  0.00133  1.22756     14.36975   1.6993  0.73924   23.8337  0.17382      0.0276   9797.63759   3079.10928  1.66733         2693.95572     17.14544    8e-05  57903.81858  13.64776  0.03178   43319.03788  47.68435  14.41034  57962.29862    51.03937       44.16945   27.37636  68.44091   52.5    0.09541  -21.33932  0.99976 
   -9.55277  0.00389  1.32915     14.34318  1.89071  0.93606  28.40578  0.15266     0.01284   9221.59123   3044.82101  2.37072         2530.82812     16.05934    1e-05  57902.50723  14.40939  0.11041   63860.72274  47.49309  14.58381  57959.47688    51.00916       44.15552   27.37636  62.96564   53.0    0.09468  -21.28581  0.99917 
   -7.97852  0.06198  0.82425     14.40985  1.68682   0.6532  18.19858   0.3279     0.01486  10484.24672   3084.36533  1.43613          2936.2107     18.42012  0.00146  57904.08148  11.93271  1.12795   16117.50872   48.4565  14.32122  57962.29862     51.1535       44.29105   27.37636  65.70327   50.0    0.09121  -21.41082    0.997 
   -9.77631  0.00503  1.17707     14.18912  1.50614  0.88657  24.18307  0.18055     0.01482   9459.62627   3031.15785  1.14647         3056.72869     17.63452  0.00024  57902.28369  12.90882  0.12154   81105.92691  47.39605  14.35542  57959.47688    51.18082       44.33365   24.63873  65.70327   51.0    0.09269  -21.34939  0.99897 
   -8.80915  0.00286  0.88822     14.29951  1.71124  1.10856  35.01993  0.13016     0.02172   9708.66804   3147.14998  1.63999         2833.66234     17.45758  0.00016  57903.25085  19.69073  0.10011   31560.33098  48.10597  14.31024  57962.29862    51.09207       44.20664   32.85164  65.70327   54.5    0.08265  -21.30236  0.99971 
   -7.90927  0.04296  1.05562     14.31527  1.60708  1.06759  16.98485  0.16122     0.04093   7925.22487   3019.00324  1.94401         2925.52629     17.54525  0.00019  57904.15073   6.36373  0.72964   38933.88431  47.83754  14.51868  57959.47688    51.02669       44.14901   27.37636  68.44091   54.0    0.10344  -21.12876  0.99639 
   -9.77608  0.00165  1.33115     14.41613  1.76039  0.65865  17.34601  0.23612     0.02706   9520.45528   3128.93729  1.30398         2874.35819     18.21929  0.00092  57902.28392   9.37869   0.0287   42619.82939  47.63639  14.44784  57962.29862    51.04971       44.16575   38.32691  65.70327   52.5    0.10217  -21.30357  0.99976 
  -16.05316  0.00762  1.85687     14.13511  1.72099  1.16136  12.22144  0.31773     0.02473   8784.80959   3035.37084  0.75546         2784.68852     18.97443  0.00524  57896.00684   5.62619  0.09314  295759.84053  46.49612  14.41473  57959.47688    51.05726       44.17932   32.85164  65.70327   51.0    0.10324  -21.10645   0.9983 
   -9.19726  0.00154  1.15733     14.21107  1.76348  1.31912  17.97872  0.29105     0.02219  10053.64305   3126.56482  2.86733          2360.1764     19.33876  0.01212  57902.86274  10.84009  0.02774   82978.26643  47.46934  14.52296  57959.47688    51.01949       44.15793   27.37636  65.70327   52.0    0.08891  -21.36006  0.99983 
   -8.56089  0.00274  1.36954     14.24534  1.66004  1.00261  15.35933  0.23593     0.04176   9075.17562   3013.66758  1.87803         2829.53376     17.55377   0.0002  57903.49911   7.54587  0.04202   93410.54779  47.24542  14.40483  57962.29862    51.09078       44.21016   27.37636  68.44091   53.5    0.10577  -21.30206  0.99958 
  -14.90376  0.00103  1.66301     14.29717  1.50923  0.61803  13.97489  0.24419      0.0343   8312.80056   3011.11868  2.61677         2320.47694     17.06802    6e-05  57897.15624   5.76063  0.01446     98631.241   47.0118  14.42714  57959.47688    51.08481       44.20042     30.114  68.44091   54.0    0.09907  -20.99752  0.99975 
  -15.01274   0.1817  2.02973     14.36082  1.84589  0.67513  10.30898  0.28423     0.01384   7609.55883   3133.36189  3.28428         2218.29274     20.21669   0.0915  57897.04726   3.56092  1.87319  134045.81306  46.79292  14.49197  57959.47688    51.12089       44.25644   27.37636  65.70327   51.0     0.1082  -21.11842  0.96456 
  -15.99868  0.05935  1.45967     14.18162  1.64015  0.97849  13.88642  0.33405     0.01217   8397.49837   3221.47822  2.70558         2215.16682     17.00915    6e-05  57896.06132   5.84141  0.82419  140590.76526  47.00726  14.46115  57959.47688    51.03485       44.14724     30.114  68.44091   51.0    0.10677  -20.94062  0.99029 
   -8.75871  0.12961  0.75575     14.17939  1.71263  1.24873  16.45589   0.3299     0.01179  10179.99967   3019.14569  2.48165         2312.12854     20.50683  0.17847  57903.30129  10.17288  2.13282   39760.77175   48.1463  14.23056  57962.29862    51.07846       44.19597   35.58927  62.96564   50.0    0.09051   -21.5948  0.99531 
  -10.00506  0.00529  0.92648     14.26226  1.78699  1.06116  19.08859  0.28082      0.0107   9071.23731    3377.1624  2.49904         2505.55423     19.66873  0.02591  57902.05494   9.36988  0.10089   42568.24335  47.95821  14.42434  57959.47688    51.18559        44.3387   27.37636  62.96564   51.5    0.08297  -21.23314  0.99965 
   -8.73322  0.00102  1.27463     14.24905  1.80182  0.87394  18.53069  0.31826     0.01083   10111.0595   3040.43887  2.20747         2506.05643     19.39112  0.01367  57903.32678  11.30087  0.01898   86337.46482  47.37759  14.36027  57962.29862    51.05077        44.1561   35.58927  65.70327   49.5    0.10912  -21.45818  0.99985 
   -7.00444  0.00586  1.02286     14.23326  1.63258  1.25291  26.07437  0.13743      0.0194   8742.82561    3059.4844  1.95951         2915.22124     17.77323  0.00033  57905.05556  11.88898  0.15271   54175.82006  47.72828  14.23121  57965.12035    51.08974       44.19259   32.85164  68.44091   53.0    0.09879  -21.25806  0.99926 
   -6.78111   0.0118  0.87174     14.31782   1.8514  1.17932   29.9455  0.18751     0.02054   11257.1413   3022.87462  1.76689         2643.80175       18.096  0.00069  57905.27889   22.6368  0.35348   30230.29927  48.17513  14.17278  57962.29862     51.0881        44.1971     30.114  68.44091   53.0    0.07233    -21.442  0.99916 
   -9.79599  0.01363  1.38117     14.17153  1.70248   1.4729   24.5072  0.15575     0.01417    8665.8901   3018.05206  2.01387         2609.29537     18.26006  0.00101  57902.26401  10.97861  0.33394  136876.67275   47.0831   14.4982  57962.29862    51.03652       44.15224     30.114  68.44091   54.5    0.08905  -21.25565  0.99673 
   -8.53017  0.00778  1.31515     14.25476  1.80112   1.3024   25.0918  0.16446     0.01846   9356.66978   3199.49043  3.27511         2414.47271     16.20798    1e-05  57903.52983  13.10393  0.19513   89491.42434  47.33466  14.49013  57959.47688     51.1387       44.27798   32.85164    60.228   54.5    0.10191  -21.26753  0.99847 
  -11.09937  0.00171  1.39917     14.22506  1.84509  1.53715  25.40465  0.17044     0.01738   9350.26615    3090.2884  1.28989         2770.74698     17.69855  0.00028  57900.96063  13.24916  0.04334   118972.3662  47.16768   14.4917  57959.47688    51.02056       44.15897   27.37636  65.70327   53.5    0.10318  -21.17926  0.99962 
   -12.1181  0.00322  1.23964     14.41604  1.75896  0.63555   13.0828  0.29345     0.02314   8358.39872   3200.52953  1.91623         2446.48379     20.12077  0.07337   57899.9419   5.45223  0.04217   36947.87295  47.75992  14.50126  57959.47688    51.03254       44.16779     30.114  65.70327   52.0    0.08974  -21.07724  0.99969 
   -7.63459  0.11404  0.70491     14.11771  1.43189  1.23078  17.96014  0.26764     0.01465  10305.41211   3033.69041  3.08259         2287.75507     20.39544  0.13809  57904.42541  11.37804  2.04825   38422.00903  48.14391  14.32506  57962.29862    51.05656       44.16073     30.114  71.17854   51.0    0.10277  -21.55283  0.99514 
   -9.12238  0.01097  1.07508     14.21266  1.57599  1.27408  33.46154   0.1129     0.01679   9114.49615   3090.95608  2.17195         2651.24612      18.4089  0.00142  57902.93762  16.58206  0.36703   63522.46366  47.60059  14.48182  57959.47688    51.06433       44.19726     30.114  62.96564   54.0    0.09347  -21.24845  0.99784 
   -5.83113  0.00103  0.71098     14.30135  1.67021  1.15741  17.00848  0.21967     0.31574   8723.36448   3143.42613  2.20687         2895.86036     19.72772  0.02968  57906.22887   7.72077  0.01759    19570.7904  48.49629  14.22132  57962.29862    51.08029       44.18772   38.32691  65.70327   56.0    0.10722  -21.29214  0.99998 
   -8.51284  0.00275  0.97337     14.21852  1.70994  1.46356  29.26706  0.18394     0.01847  10479.42972    3175.5072  2.96676          2310.9702     17.31135  0.00011  57903.54716  19.17262  0.08042   54995.20684  47.78494  14.40619  57962.29862    51.05196       44.17692   38.32691  62.96564   52.0    0.09631  -21.31413  0.99968 
   -8.93639  0.01191  1.06913     14.42616  1.81018  0.72462  26.14163  0.16975     0.01044   9019.01995   3144.95885   1.9717         2777.24662      18.5037  0.00177  57903.12361  12.68465  0.31125   26994.90189  48.03722  14.41064  57959.47688    51.03185       44.16633   24.63873  65.70327   50.5     0.0783   -21.2923  0.99855 
  -12.87686  0.00647  2.02876     14.29808  1.97664  1.16359  13.69045   0.2128     0.03096   8001.10494   3115.02453  1.52261         2784.80172      16.9924    5e-05  57899.18314   5.22811  0.08863  191444.75642  46.66827  14.53467  57959.47688    51.05595       44.19979   24.63873  65.70327   54.0    0.10345  -21.04284  0.99845 
   -8.98927  0.00276  1.73796      14.3934  2.15055  0.94105  15.11232  0.29634     0.03582  10697.57341   3005.57656  1.56236         2690.81063     17.87583  0.00042  57903.07073  10.31641  0.04168   98549.86049  47.12766  14.43635  57959.47688    51.03068       44.16382     30.114  62.96564   51.0    0.10508  -21.43986  0.99954 
   -7.80356  0.05178  0.87502     14.22098  1.58707  1.18072   18.8033  0.20297     0.01091   8196.27736   3171.37834  1.52704         3172.74227     17.53307  0.00019  57904.25644    7.5352  0.97366   40784.58634  47.97491  14.40968  57962.29862    51.05398       44.16931   32.85164  65.70327   52.5    0.10719  -21.29565  0.99672 
   -9.58242  0.01118  1.12572     14.44899   2.0183  0.98613  13.52719  0.27517     0.06183   8858.46163   3140.94213  1.94517         2738.95335     19.25193  0.00992  57902.47758   6.33215  0.15128   30039.21042  47.99328   14.3204  57959.47688    51.04967       44.16655     30.114  68.44091   54.5    0.10231  -21.15682  0.99941 
   -8.07099  0.00118   0.9936     14.15323  1.61349  1.41047  19.09621  0.24665     0.01779   9419.82364   3082.65339  2.21292         2601.63955       19.844  0.03879  57903.98901  10.10787  0.02244   73037.33175  47.61864   14.3701  57962.29862    51.11639       44.24904     30.114  65.70327   53.5    0.08566  -21.34094  0.99989 
   -8.32809  0.00264  1.03988     14.12446  1.56172  1.38591  18.05904  0.30651      0.0277    10758.656   3002.67713  1.91031         2550.08088     17.18779    9e-05  57903.73191  12.46918  0.04768   88400.53095  47.48203  14.39611  57959.47688    51.05944       44.18232     30.114  65.70327   52.0    0.11052  -21.41325  0.99972 
  -10.75086   0.0013  1.43365     14.31233  1.70536   0.9196  14.54306  0.24194     0.07441   8949.93325   3006.78412  1.69113         2654.08762     16.09103    1e-05  57901.30914     6.949  0.01897     77241.053  47.29993  14.43293  57959.47688    51.03992       44.16807   27.37636  65.70327   52.0    0.10114  -21.10126   0.9998 
   -9.18837   0.0019  1.38583      14.2353   1.7374  1.19955  17.69684  0.21454     0.03604   9485.20119   3029.92658  1.62989          2727.4245      19.1227  0.00737  57902.87163   9.49765  0.03356  104839.97769   47.2048  14.38807  57962.29862    51.05375       44.15964   32.85164  68.44091   53.5    0.10633  -21.31826  0.99968 
   -7.32976  0.02889  1.03069     14.35766  1.65179    0.857  29.81278  0.13025     0.01579   9780.70926   3053.82269  2.82327         2464.64743     18.06854  0.00065  57904.73024  17.01259  0.86139   31384.14448  47.96383   14.4636  57959.47688    51.03616       44.15828   27.37636  68.44091   52.0    0.10079  -21.29866  0.99596 
  -12.20693  0.00269  1.84986     14.17455  1.76085  1.27674   14.5548  0.20959     0.02091   7871.52037   3026.71422  1.71198          2669.1164     18.66188  0.00255  57899.85307   5.37961  0.03908  250448.78133  46.58157  14.37489  57962.29862     51.1462       44.28415   32.85164  62.96564   53.5    0.10036  -21.11992  0.99932 
    -8.9576  0.04593  1.44061     14.29662  1.97351  1.41846  20.11351  0.22354     0.01935  10146.20263   3019.56735  1.96805         2437.21386     16.67195    3e-05   57903.1024  12.35157  0.92383   97030.72854  47.26008  14.40147  57959.47688    51.05559       44.18589   32.85164  62.96564   50.0    0.08726  -21.33836  0.99238 
   -6.16501  0.03048  0.84973     14.51847  1.73224  0.65126  13.42347    0.272     0.04903    8912.7183   3015.71121   2.0824          2809.6759     18.17208  0.00083  57905.89499   6.36081  0.40919   10667.20093  48.62084  14.49047  57956.65514     51.1311       44.28742   27.37636    60.228   52.5    0.10254  -21.29483   0.9991 
  -11.08427   0.0026  1.15083     14.18092  1.61282  1.53096  15.87411  0.20499     0.04936   8011.27739   3046.34537   1.6661         2677.70084     19.90794  0.04494  57900.97573   6.07743  0.04134   86215.48398  47.41882  14.40123  57962.29862    51.05174       44.18456   32.85164  62.96564   55.0    0.10393  -21.02855  0.99972 
   -8.35431  0.02676  1.06923     14.26349  1.83832  1.42482  30.96859  0.16358     0.01558  10545.66867   3037.15887  1.29041         2789.01438     17.91648  0.00046  57903.70569  20.54456  0.82859   57996.18484  47.71172  14.33746  57962.29862    51.05423       44.17027   27.37636  71.17854   52.5    0.08701  -21.40048  0.99628 
   -7.94124   0.0037  1.38856     14.43428  1.75897  0.64635  17.13326  0.22079     0.03722   9652.39551   3055.07295  2.09213         2664.79781     17.92317  0.00047  57904.11876    9.5222  0.06337    42624.1724  47.59932  14.43474  57959.47688    51.04161       44.16552   27.37636  65.70327   53.5    0.11215  -21.33738  0.99941 
    -8.5791  0.00881  1.21815     14.20529  1.65404  1.13121  24.12697  0.15401     0.01684   9108.87733   3113.93396  2.51196         2479.56783      20.1042  0.07062   57903.4809  11.94152  0.21254   88549.04691   47.3688  14.33657  57962.29862    51.06961       44.17023   32.85164  71.17854   52.0    0.10126   -21.3412  0.99836 
   -9.23935  0.02253  1.50149      14.3185  1.79917  0.95904  14.56972  0.27841     0.03538   9887.31758   3044.06982  2.94845         2304.05804     16.36007    1e-05  57902.82065   8.49641  0.32832   86883.13323  47.23194  14.28974  57962.29862    51.06376       44.17414   38.32691  62.96564   50.5    0.10886  -21.29037  0.99652 
   -9.51556  0.00822  1.02347     14.18455  1.47438  1.23483  12.88898  0.25721     0.06931   8145.85069    3023.4906  2.10821         2741.04406      17.2081    9e-05  57902.54444   5.10174  0.10597   61302.97509  47.62982  14.46431  57959.47688    51.04426       44.17217   27.37636  65.70327   54.0     0.0925  -21.11228  0.99938 
   -9.87482   0.0073  1.27346     14.57083  1.84905  0.49759  15.20263  0.23202     0.02082   7958.42098   3071.45149  1.51955          3114.0523     16.90699    4e-05  57902.18518   5.74381  0.11098   20093.94059  48.02276  14.40156  57962.29862    51.06435       44.19491   32.85164  62.96564   54.0    0.09808  -21.19936  0.99923 
  -12.79418  0.00142  1.49207     14.23803  1.59377  0.73066  17.07724  0.27636     0.01671   9331.42818   3110.44242  2.08264         2332.16494      16.6009    2e-05  57899.26582   8.87036  0.02433   110092.7741  47.08193  14.35116  57962.29862    51.05784       44.17194     30.114  68.44091   51.0    0.09372  -21.19553  0.99968 
  -14.36215  0.02074  1.60133     13.98627  1.34725  1.48968  15.23769  0.17539     0.01571   7114.20325   3111.08408  1.98281         2660.55899     18.67698  0.00264  57897.69785   4.60044  0.31598  341736.83522  46.45564  14.40645  57962.29862     51.0768        44.2092   32.85164  62.96564   54.0    0.09607  -20.98402  0.99387 
   -9.54873  0.02381  0.98142     14.29528  1.87837  1.04958  23.50397  0.28261     0.01098  10643.82372   3091.33286  2.02286         2445.52009     19.18251  0.00846  57902.51127  15.88414   0.5597    43126.7385  47.92417      14.3  57962.29862    51.04796       44.16058   35.58927  65.70327   50.5    0.09011  -21.35718  0.99796 
   -7.11808  0.05525  0.99915     14.47721  1.71459   0.6416  23.12643  0.19444     0.02097  10730.43497   3020.54581  1.46767         2862.85747     17.62973  0.00024  57904.94192  15.88439  1.27779   17652.81749  48.25693  14.40376  57959.47688    51.03983       44.14117     30.114  71.17854   50.5    0.10878  -21.42105  0.99486 
   -6.06048   0.0067  0.92987     14.39914  1.94267  0.96205  42.18343  0.10709     0.01126  10180.39772   3099.08666  1.72313         2952.36758     19.84929  0.03927  57905.99952  26.07946   0.2827   24818.63308  48.22562  14.42344  57962.29862    51.05328        44.1708   32.85164  65.70327   52.0    0.09146  -21.40241  0.99926 
   -8.83733  0.01094  0.99605     14.46744  1.58835  0.39368  20.18298  0.14406     0.01259   8185.46896   3093.34597  3.80111         2205.29627     20.80299  0.35296  57903.22267   8.06677  0.22071   17000.09702  48.24277  14.47186  57959.47688    51.05162         44.182   27.37636  65.70327   53.0    0.08532    -21.591  0.99878 
    -6.7961  0.01905  0.86847     14.28281  1.75248  1.11321  34.25452  0.17318     0.01346  11390.62443   3050.82922  1.93424         2548.83637     17.69264  0.00027   57905.2639  26.51186  0.65259   33369.54339  48.11164   14.3242  57962.29862    51.05318       44.17146   32.85164  62.96564   50.5    0.09514  -21.44793  0.99821 
  -12.87201  0.03084  1.50028     14.34988  1.79886  0.77299  14.23717   0.3132     0.03797   9978.28436   3027.01203  0.97381         2674.46493     16.10979    1e-05  57899.18799   8.45595  0.43902   75058.81599   47.2961  14.46262  57962.29862    51.03702       44.15603   32.85164  65.70327   52.0    0.10201  -21.15919  0.99529 
   -6.93571  0.00488  1.03779     14.21505  1.64525  1.18695  18.50488  0.30955      0.0734  12522.90855   3005.75877   2.2135         2371.32911     19.30696  0.01126  57905.12429  17.31107  0.09029   61116.42789   47.6667  14.21396  57962.29862    51.07528       44.17785     30.114  71.17854   51.0    0.11337  -21.46087  0.99953 
   -8.64094  0.00244  1.08839     14.23369   1.6479  1.37427  10.41787  0.31474     0.05601   8235.66028   3195.85663  2.04012         2857.26333     17.91254  0.00045  57903.41906   4.21505  0.02537   61791.97445  47.62127  14.48094  57959.47688    51.05704       44.18583     30.114  65.70327   54.5    0.08829  -21.21566  0.99986 
   -8.36066  0.00547  1.23405     14.38763  2.11532  1.39025  25.01188  0.13268     0.01618   7850.51842   3067.62154  1.97838         2872.22912     17.73344   0.0003  57903.69934   9.19539  0.13685   50186.48459  47.71097  14.37023  57959.47688     51.0433       44.18298   27.37636  65.70327   54.0    0.09201  -21.19177  0.99935 
   -8.33696  0.02807  0.92225     14.25873  1.77265  1.31151  26.05058  0.21136     0.02165   11433.5073   3005.36725  1.31486         2611.32197     19.59667  0.02195  57903.72304  20.31438  0.73113   42528.15128   47.9591  14.44699  57959.47688    51.03819       44.15919     30.114  68.44091   51.0     0.0923  -21.45375  0.99767 
  -10.81919  0.02514  0.99385     14.25074  1.66127  1.23424  25.62964  0.17443     0.01867    9641.8936    3142.8022  1.74076         2559.30903     16.39056    1e-05  57901.24081  14.21328  0.64436    48018.8646  47.81323  14.42287  57959.47688    51.03855       44.14741     30.114  68.44091   53.0    0.09776  -21.06265  0.99723 
   -9.47717  0.00183  1.23753     14.29386  1.63406  0.90398   13.7583  0.26634      0.0663   8818.13254   3009.21064  1.88833         2723.54701     16.27954    1e-05  57902.58283   6.38183  0.02521   60045.96547  47.51852  14.25898  57962.29862    51.08761       44.19695     30.114  68.44091   53.5    0.09346  -21.21085   0.9998 
  -11.68222  0.00688  1.12916     13.97428  1.26718  1.36933  15.98051    0.167     0.03605   8019.58149   3058.37526  2.09573          2521.4819     20.50184  0.17643  57900.37778   6.13086  0.10998  168891.61818  47.03856  14.39431  57959.47688    51.04505       44.15891   27.37636  71.17854   52.5     0.1049  -21.20343  0.99887 
   -6.97384  0.01779  0.75673     14.31644  1.84534  1.12047  21.99901  0.17312     0.03981  10048.73324   3020.09927  2.80569         2344.62556     20.61997  0.23158  57905.08616  13.25113  0.39134   22850.97601  48.41813  14.54005  57956.65514    51.01327       44.16033   24.63873  62.96564   53.5    0.11957   -21.5081  0.99938 
   -9.13751  0.04665  0.88519     14.51493  1.82235  0.58448  21.52042  0.22731     0.01384   9797.32199   3078.37628  1.58939         2803.07009     19.85243  0.03955  57902.92249  12.32233  1.00384   12378.20071  48.54275  14.33774  57962.29862    51.06379       44.18867   32.85164  65.70327   51.5    0.08533  -21.45266   0.9973 
   -9.69036  0.07385  0.83081     14.31563  1.54367  0.97241   17.8111  0.18664     0.01825   8138.55327    3021.5919  1.54077         2988.67571     18.80134  0.00352  57902.36964    7.0374  1.31542   23126.59169  48.25429  14.36548  57962.29862    51.06854       44.17672   38.32691  65.70327   55.5    0.08951  -21.06965  0.99653 
  -15.40068   0.0044  1.89521     14.21602  1.64032  0.80685   9.96527  0.32989     0.02512   7892.92371   3014.62088  1.70062         2496.68489     17.69003  0.00027  57896.65932   3.70333  0.04381  202307.36931  46.62245   14.3381  57965.12035     51.0632       44.16697   35.58927  68.44091   52.5    0.09452  -21.04859   0.9991 
  -12.38423  0.00206  1.36995     14.16649  1.52828  1.00601  19.69679  0.19319     0.02171   9033.68631   3043.07639  2.28341         2371.74322     19.66283  0.02556  57899.67577   9.58854  0.04057  123721.08028  47.08719  14.36507  57959.47688    51.05805       44.18588     30.114  65.70327   52.5    0.10065  -21.11331  0.99953 
   -6.81875  0.02963  0.78473     14.44188  1.73857  0.87161   21.9479  0.15101     0.02183    8304.5857   3060.81894  2.37678         2730.65045     18.71677  0.00289  57905.24125   9.02934  0.65037   12992.62176   48.6059  14.46934  57959.47688    51.04119        44.1505   38.32691  65.70327   55.0    0.10487  -21.17533  0.99899 
   -8.97067  0.00173  0.96091     14.29213  1.82427  1.19814  20.02585  0.20809     0.03334   9165.53912   3005.07185  1.96091         2658.96105     20.10309  0.07044  57903.08933  10.03539  0.03466   40738.39118  47.95457  14.47977  57959.47688    51.08468       44.21649   38.32691    60.228   56.0    0.09417  -21.32336  0.99988 
  -11.62385  0.00127  1.14087     14.21864  1.70606  1.22163  33.82629  0.11162     0.01602   8492.81821   3012.20076  1.39992         2880.11126     19.95731  0.05035  57900.43615   14.5541  0.04309   75335.89786  47.50937  14.44834  57962.29862    51.03553         44.137   38.32691  65.70327   56.0    0.09635  -21.08975  0.99973 
  -11.32639  0.01281  1.24776     14.70754  2.07511  0.42478  19.14863  0.16889     0.02775   8193.63233   3006.06638  2.26683         2441.40178     20.41596  0.14477  57900.73361   7.66863  0.24538    11535.7805  48.33158  14.26423  57962.29862    51.17371       44.30088     30.114  62.96564   54.5     0.0985  -21.12347  0.99868 
   -9.71995  0.01499  1.13525     14.28303  1.75701  1.23081  25.05453  0.16081     0.02491   9112.25646   3023.54348  1.96946         2571.62869     18.71521  0.00288  57902.34005  12.40981  0.37547   57110.37574  47.64672   14.3657  57965.12035    51.07237       44.18197   32.85164  68.44091   54.5    0.10817   -21.1637  0.99792 
   -7.82029   0.1347  1.16458     14.26457  1.66113  0.96252  20.33087  0.24139      0.0121  10654.59389   3027.64786  1.68237         2724.59643     16.88209    4e-05  57904.23971  13.76756  2.73852   61860.41383   47.5655    14.234  57965.12035    51.08612       44.20764   35.58927  62.96564   48.5    0.12634  -21.45285  0.98159 
   -9.39416  0.02251  0.92319     14.23773  1.66091  0.98863  11.20536  0.29197      0.0483   8811.61364    3102.6719  3.08957         2342.55585     20.66086  0.25444  57902.66584   5.18996  0.25221    43982.3131  47.91533  14.40351  57959.47688    51.04734       44.18321     30.114  62.96564   53.5    0.08979  -21.46408  0.99901 
  -11.68689  0.00161  1.49043     14.35257  1.80769  0.75575  16.01619   0.2972     0.02377   9737.39112    3053.2256  1.98449         2365.28876     16.51956    2e-05  57900.37311   9.05882  0.02574   73522.75891  47.31293  14.26802  57962.29862    51.07507       44.18348     30.114  71.17854   50.5     0.0932  -21.17916  0.99973 
   -8.03349  0.02491  0.98121     14.21621  1.80261  1.39241  22.38905  0.26936     0.01471   10758.8238   3002.03729  1.57579           2663.825     16.59968    2e-05  57904.02651  15.45939  0.55762   59541.18367  47.76641  14.38966  57962.29862     51.0652       44.18048   32.85164  68.44091   50.5    0.08278  -21.43579  0.99781 
    -6.0574  0.02773   0.8356     14.20829  1.63453  1.17307  25.51959  0.25006     0.01783  12103.27968   3078.82823  1.64096         2817.32373     17.32291  0.00012   57906.0026  22.30011  0.70776   40610.29151  48.02961  14.29416  57962.29862    51.07894       44.19619   32.85164  68.44091   51.0    0.11766  -21.48542   0.9979 
   -9.00885   0.0194  1.27047     14.45945  2.03771  0.72282   23.8859  0.16299      0.0207    9847.9921   3038.77516  2.30435          2351.2963       20.447   0.1555  57903.05115   13.8186  0.46349   36812.20801  47.80407  14.40085  57962.29862    51.04206       44.16072     30.114  68.44091   52.5    0.09978  -21.48757  0.99722 
   -8.39834   0.1633  1.25688     14.34177  1.79886  1.33942  13.73219  0.18963     0.01124    7476.5429    3421.8832  3.67874         2433.79041     19.25161  0.00992  57903.66166   4.57898  2.24252   54685.43157  47.58738  14.25847  57962.29862     51.0756       44.17999   32.85164  68.44091   52.0    0.09193  -21.09459  0.98593 
   -6.58011  0.09442  0.72472     14.38155  1.76927  1.06068  12.53252  0.32437     0.02524   9326.33661    3189.7718  1.83788         2834.57299     18.17123  0.00082  57905.47989   6.50261  1.18333   14888.03213  48.62346  14.34454  57962.29862    51.06056       44.18539     30.114  65.70327   52.0    0.07468   -21.2016   0.9986 
   -9.04838  0.00375  0.84378     14.27679   1.7655  1.50939  20.27405  0.17917     0.03639   8555.21668    3084.5653  1.37191         3026.01111     19.86724  0.04092  57903.01162   8.85176  0.07611   32625.70356  48.14969  14.34193  57962.29862    51.03946       44.15245   32.85164  65.70327   54.0    0.11715  -21.23902  0.99983 
   -6.79831  0.13002  1.04053     14.23913  1.75301  1.32004  20.40366  0.29965     0.01516   12043.5055   3004.35135  2.35909         2392.94127     17.29325  0.00011  57905.26169  17.65391  2.65295   58593.14921  47.71028  14.43658  57959.47688    51.03636        44.1659     30.114  62.96564   48.5    0.13108  -21.48748  0.98787 
   -8.32758  0.00848  0.73506     14.12026  1.38299  1.54898  17.74959   0.2041     0.04138   8798.86136   3001.04264  1.43564         2933.46754     19.99208  0.05455  57903.73242   8.19726  0.15056   39881.32827  48.07625  14.36906  57962.29862    51.05965        44.1759   32.85164  65.70327   54.5    0.09848  -21.28702  0.99961 
  -14.66637  0.00553   1.7203     14.09312  1.54846  1.34261  17.99355  0.15703     0.02149   7677.53877   3111.84422  1.03041         3269.61535     17.96644  0.00051  57897.39363   6.32686  0.09953  277126.20113  46.54486   14.3923  57962.29862    51.05189       44.16931   32.85164  65.70327   54.0     0.1068   -21.0241  0.99819 
   -7.91776  0.01425  0.99135     14.40975  1.70635  0.79273  39.81288  0.09879     0.01705   9624.51032   3068.13064  1.75131          2755.2032     18.15241  0.00079  57904.14224  21.99926  0.56734   23595.65426  48.13563  14.40658  57959.47688    51.04491        44.1815   27.37636  65.70327   54.0    0.10653  -21.27244  0.99779 
  -10.80996   0.0064  1.78283     14.33576  1.71622  0.68059  18.46458  0.15889     0.01284   7784.57582    3194.3712  2.27634         2643.24737     18.62356  0.00234  57901.25004   6.67477  0.11817  107916.84206  46.96811  14.46878  57959.47688    51.04128       44.16765   27.37636  68.44091   51.5    0.09524  -21.21092  0.99802 
  -11.07383  0.02126  1.47831     14.23234  1.76061  1.39326  19.30416  0.16625     0.01446    7450.5837   3103.16512  3.23573         2431.20749      16.4027    1e-05  57900.98617   6.39232  0.41041  122553.35433  47.08665  14.24252  57965.12035     51.0771       44.17849   32.85164  68.44091   54.5    0.09075  -20.98405  0.99566 
    -8.6977  0.00813  0.93991     14.67865  2.06824  0.43171  24.78528  0.18264      0.0262  10649.26429   3022.51851  2.24692         2325.86919     20.58035  0.21139   57903.3623  16.76718  0.20157    7452.18673  48.76599  14.42542  57962.29862    51.09014       44.20225   32.85164  68.44091   52.0    0.08633  -21.62032  0.99947 
    -6.7297  0.01566  0.74869     14.56645  2.03342  0.75173  14.29837   0.2408     0.06955   8338.30513   3019.23447  1.71966         3080.26431      20.0513  0.06252   57905.3303    5.9302  0.22395     7793.7678  48.93672  14.36166  57962.29862    51.06133       44.17908   32.85164  65.70327   55.5    0.07059  -21.36105  0.99979 
   -9.58207  0.00596  0.88628     14.24932  1.70917  1.06918  25.55091  0.24323     0.01257   10397.8182   3186.70744  1.70329         2536.96736     16.34496    1e-05  57902.47793  16.47851  0.15228   39546.47454  48.00938  14.43631  57959.47688      51.033       44.17149   27.37636  65.70327   50.0    0.09097  -21.30786  0.99951 
  -11.50309  0.02647  1.44071     14.28276  1.69585  1.04153  16.22366  0.18477     0.03522   7873.92067   3026.21432  2.28075         2560.19731     18.29476   0.0011  57900.55691   6.00009  0.42947   88886.12785  47.23224  14.41807  57959.47688    51.04166       44.16818     30.114  65.70327   55.5    0.09892  -20.98168  0.99548 
  -12.06509  0.00875  1.26121     14.22255  1.38775  0.67416  13.54127  0.28123     0.02088   8201.30179   3158.36848  2.36665         2543.80202     16.73824    3e-05  57899.99491   5.43315  0.11852   73553.98555  47.34297  14.42032  57962.29862    51.06002       44.18462     30.114  68.44091   54.0    0.08946  -21.09609  0.99866 
  -11.64983  0.03529  1.25232     14.24329  1.61556  1.09568  13.27967   0.2497     0.03095   7896.74417   3082.75868   2.5582         2602.52349      16.3302    1e-05  57900.41017   4.93981  0.46867   76734.56502  47.39675  14.48741  57956.65514    51.04117       44.17194     30.114  62.96564   54.5    0.09772  -20.95114  0.99612 
   -11.8717  0.00143  1.33309     14.07056  1.54206   1.3612  18.08708  0.22439     0.01188   8207.40837   3111.10421   2.0867         2566.65295     19.00165  0.00558   57900.1883   7.26788   0.0259  183870.99161  46.94271   14.2994  57962.29862    51.08707       44.19921   27.37636  71.17854   53.0    0.09033  -21.15575  0.99972 
   -8.62828  0.00114  0.83721     14.39951  1.52327  0.49399  14.23098  0.21153     0.03708   8339.23381   3063.59511  3.10083         2352.94091     20.73652  0.30287  57903.43172   5.90356  0.01618   15748.33354  48.40872   14.4089  57962.29862    51.03927       44.14687     30.114  68.44091   55.5    0.08653  -21.54732  0.99994 
  -10.78689  0.09584  1.25371     14.38665  1.88732  1.01341  13.82508  0.24501     0.02094   8134.30015   3065.69779  1.51012         2826.59333     16.65714    3e-05  57901.27311   5.45677  1.32494   46426.54163  47.68153  14.36922  57962.29862    51.05834       44.17319   32.85164  68.44091   53.5    0.09455  -21.02487  0.99194 
  -14.35702  0.02128  1.53407     14.16884  1.54596  0.86055  18.17022  0.14835     0.01872   7735.89165   3024.99757  3.05796         2224.96139     20.47525  0.16595  57897.70298   6.48647  0.38672  155244.02255  46.89534  14.31057  57962.29862    51.06167       44.16694     30.114  71.17854   54.5    0.09749  -21.14929  0.99442 
   -7.06633  0.00756  0.96509     14.44461  2.13367  1.51115  32.98904  0.10492     0.02232   8501.90849   3088.34213  1.81209         2960.73861     17.09725    7e-05  57904.99367  14.22426  0.24944   23815.49876  48.25197  14.36824  57962.29862    51.05911       44.16985   32.85164  68.44091   53.5    0.08655  -21.13227  0.99951 
   -9.57934  0.00278  1.34373     14.28426  1.85103  1.34957  13.92332  0.22265     0.02687   7658.90153   3204.77946  1.80267         2909.20736      17.3395  0.00012  57902.48066   4.87195   0.0387   83817.21506   47.3563  14.30396  57962.29862    51.13654       44.26119     30.114  65.70327   55.5     0.1017  -21.14235   0.9997 
   -8.38714  0.00102   1.1154     14.41221  2.09676   1.2372  17.16415   0.2277     0.06176   9012.69046   3031.63505  1.47233          2948.2074     18.03718  0.00061  57903.67286   8.31684  0.01745   36292.16527  47.93572  14.38707  57962.29862    51.08803       44.22198     30.114  65.70327   54.0    0.10418  -21.24204  0.99994 
  -10.33285   0.0131  1.29039     14.22201  1.83136  1.47471  17.54275  0.27328     0.02557   9738.67847   3039.20277  1.64913         2654.82617     18.79074  0.00343  57901.72715   9.92487  0.22972  101862.42431  47.30216  14.38913  57962.29862    51.03487        44.1595   32.85164  65.70327   52.5    0.09533   -21.2585  0.99829 
   -10.7687  0.13928  1.48584     14.26182  1.88199  1.11647  18.04664  0.28933     0.01136  10169.95539   3018.69596  3.80389         2195.95661       18.743  0.00307   57901.2913  11.13427  2.51356  115541.56463  47.13678  14.53027  57959.47688    51.01694       44.14547     30.114  65.70327   49.0    0.10924  -21.30777  0.97584 
   -9.01591  0.00498  1.11892     14.24905  1.69894   1.2609  15.84986  0.21898     0.03661   8282.73252   3098.31763  1.83934         2805.96045      18.5529  0.00198  57903.04409   6.48634  0.07892    62733.2015  47.60393  14.41724  57962.29862    51.05891         44.181   32.85164  65.70327   55.5    0.10553  -21.19966  0.99955 
  -11.64963  0.04287  1.42349     14.10282  1.46056   1.1253  14.76524   0.2184     0.01799   8228.67891   3036.85873   1.3793         2801.31094     17.15769    8e-05  57900.41037   5.96386  0.63298  171158.24183  46.89326  14.33371  57965.12035    51.06645       44.16976   38.32691  65.70327   51.5    0.09791  -21.16151  0.99156 
    -7.8522  0.00383   1.1631     14.31806  1.86366  1.10396  16.87271  0.26705     0.03571   9788.75426    3028.7397  2.06252         2694.18253     16.67777    3e-05   57904.2078   9.64421  0.06459   54113.73327  47.67467   14.5197  57959.47688    51.04157       44.16872   35.58927  62.96564   52.5    0.09158  -21.33068  0.99965 
   -9.48796  0.00188   1.2312     14.24595  1.75458  1.15312  13.98889  0.27681     0.03031   9188.77327    3281.5311  2.63386         2371.30879       20.052  0.06262  57902.57204   7.04572  0.02636   79569.59755  47.43162  14.29502  57962.29862    51.06243       44.16422   35.58927  68.44091   52.0    0.10229  -21.30869  0.99981 
   -9.09234  0.05863  1.50943     14.30657  2.02954  1.42467  15.59499  0.32727     0.02725  11128.13573   3044.66605  3.54199         2205.07477      18.2648  0.00102  57902.96766  11.52013  0.91441  104641.20682  47.19891  14.29799  57959.47688    51.06179       44.18377     30.114  65.70327   50.0    0.10981  -21.37348  0.99197 
   -9.87598  0.02584  0.99309      14.2309  1.65546  1.29451  14.42136  0.33557     0.04283   9992.68087    3024.2997  1.82548         2599.00411     16.39341    1e-05  57902.18402   8.59009  0.37258   52349.95685  47.77487  14.27939  57962.29862     51.0903       44.22322   27.37636  65.70327   55.0    0.10173  -21.18958  0.99836 
   -9.53846   0.0034  1.13842     14.18524  1.52054  1.04702  14.22893  0.27664     0.03436   8882.30478   3165.51801  2.29209          2455.9618      18.5403  0.00193  57902.52154   6.69655  0.04841   77972.16359   47.4463  14.39568  57962.29862    51.26663       44.43355   27.37636    60.228   53.0    0.09837  -21.23269  0.99963 
   -8.00582  0.04222  0.75361     14.23471  1.34986  0.87837   22.6736  0.15379     0.01677   8576.98909   3037.11057  2.33138         2724.85811     19.86659  0.04086  57904.05418   9.94987  0.95734   24153.24686  48.26187  14.25575  57962.29862    51.07392       44.17931   32.85164  68.44091   55.5    0.11319  -21.21753  0.99728 
   -8.42504  0.08195  1.04085     14.32303  1.81069  0.95659  18.81624  0.27676     0.01019   9704.53676   3065.61024  2.21451         2640.88443     18.26903  0.00103  57903.63496  10.57084  1.54197   41149.72456  47.87755  14.32036  57959.47688    51.07538       44.17908   35.58927  68.44091   49.0    0.08909  -21.35191  0.99324 
   -9.02376  0.02395  1.24045     14.40363   2.0599  1.08907  15.56939  0.24369     0.02029   8299.98052    3122.7354  1.52951         2935.53096     16.91895    5e-05  57903.03624   6.39813  0.37283   45873.50225  47.73397  14.23008  57959.47688    51.07817       44.18772     30.114  71.17854   55.0    0.08951  -21.19785  0.99807 
   -8.32121  0.00217  0.98393     14.26036  1.88512  1.48185  20.79867    0.322     0.02774  12304.32423   3034.50165   1.1256         2751.11071     17.74516  0.00031  57903.73879  18.78357  0.04519   51093.61454  47.84989  14.47815  57959.47688    51.02738       44.16741   27.37636  62.96564   50.0    0.08309  -21.48337  0.99984 
  -10.10075   0.0014  1.04684     14.44737  1.41918  0.46276  28.34602  0.11949      0.0263   8366.73605   3000.10734  1.93155         2641.70826     19.79682   0.0348  57901.95925  11.83672  0.03973   18401.89063  48.11626  14.48301  57962.29862    51.04138       44.17232   27.37636  65.70327   55.5     0.1021  -21.14244  0.99973 
   -6.59837  0.01175   0.7687     14.50848  1.73878  0.63363  42.06723  0.11836     0.01628  10700.63024    3009.9175  1.69448         2730.82155     16.10715    1e-05  57905.46163  28.73358  0.49417    9175.31015  48.77495  14.33598  57959.47688    51.06005       44.19459     30.114  65.70327   52.0    0.08658  -21.28615  0.99917 
   -6.80003  0.00118  0.84091     14.34924  1.46895  0.70727  21.70548  0.16804     0.03499   8938.05787   3240.14377  1.42836         3420.35993     17.83879  0.00038  57905.25997  10.34386  0.02568   19312.67323  48.30051  14.46133  57962.29862    51.08262       44.20236   32.85164  68.44091   53.5    0.10662  -21.32004  0.99991 
   -9.91684  0.01009  1.31378     14.16248  1.47275  0.98763  21.66178  0.16883     0.01802   9139.44228   3074.82325  2.91153         2369.45796     19.53238  0.01893  57902.14316  10.79346  0.21856  111692.83603   47.1519  14.28566  57962.29862    51.07888       44.18336     30.114  71.17854   52.5    0.10129  -21.25584  0.99758 
  -10.61381  0.00196  1.33889     14.15509  1.52197  1.08973   18.3336  0.19038     0.02313    8680.9424   3043.47821  1.40403         2806.29085     16.08468    1e-05  57901.44619   8.24155  0.03586  124029.97478  47.10423  14.46229  57959.47688    51.02623       44.16226   24.63873  65.70327   52.5    0.10422  -21.19262  0.99961 
   -7.05475  0.00178  0.71728     14.32902   1.9163  1.48705  34.46108  0.17233     0.01605  10920.10932   3086.70117  1.87752         2669.36576     18.66276  0.00256  57905.00525  24.51376  0.06135   20119.45371  48.53632  14.44839  57959.47688    51.02775        44.1548     30.114  65.70327   54.5    0.11281  -21.29926  0.99993 
  -10.40807  0.00124  1.25902     14.35478  1.93633  1.10162  10.19271  0.33007     0.09165   8466.69582   3062.45385  1.69844         2682.56748     19.96682  0.05147  57901.65193   4.35858  0.01262   55628.03716  47.61046  14.42693  57959.47688    51.06565       44.19461   24.63873  65.70327   54.0    0.09822  -21.11812  0.99992 
   -9.42646  0.00169  1.06995     14.16604  1.64262   1.0105  22.30526  0.31243     0.01229  11215.83892   3091.26054  1.90403         2363.61634     19.31232   0.0114  57902.63354  16.73779  0.03774   81282.46595  47.51566  14.35264  57962.29862    51.05143        44.1546     30.114  71.17854   48.0    0.10881  -21.46119  0.99977 
  -13.28369   0.0082  2.19266     14.20984  2.00325  1.55796  12.17461  0.27247     0.02171    8322.1787   3064.14994  1.89611         2471.84936     16.91996    5e-05  57898.77631   5.02987  0.09982  340263.82847  46.35682  14.38179  57962.29862    51.04908       44.16852     30.114  65.70327   51.0     0.1002  -21.15078  0.99798 
   -5.86243  0.00178  0.83475     14.48956  1.73551  0.68714  17.09944  0.23522     0.07186   9507.10795   3030.04723  2.09602         2865.75611     18.37471  0.00132  57906.19757   9.21947   0.0304    11782.2732  48.59393  14.48313  57959.47688    51.03092       44.16438   32.85164  62.96564   54.5    0.10447  -21.27477  0.99994 
   -8.27559  0.04279  1.00817     14.34023  1.81879  1.18966   9.40936  0.32806       0.071   8159.01374   3130.42654  2.30895         2649.92511        20.13  0.07494  57903.78441   3.73648  0.40263   35826.26131  47.96736   14.2359  57962.29862    51.08005       44.20565   32.85164  62.96564   54.5    0.09296  -21.22349  0.99857 
  -10.26491   0.0018  1.59853     14.38592  1.86492  0.85842  15.51369  0.22607     0.06502   9324.61582   3105.74549  1.90613         2573.74302     19.09071  0.00685  57901.79509   8.04645  0.02786   74830.96939  47.25798    14.393  57962.29862    51.05826       44.18234     30.114  65.70327   52.5    0.10951  -21.18089  0.99968 
  -10.70628  0.00163  1.21599     14.28379  1.72912  0.94865  26.58789  0.15796     0.01201   8805.39182   3139.83453   1.8441         2558.92205     17.59205  0.00022  57901.35372  12.29726  0.04328   64255.62357   47.5289  14.47469  57959.47688    51.03133       44.15899   27.37636  68.44091   52.0    0.08959    -21.145  0.99969 
   -6.23389  0.00107  0.83997     14.42622  1.84857  0.87117   36.1515  0.14488     0.02771  11053.44589   3048.51028  2.01092         2729.50056     16.63971    2e-05  57905.82611  26.34808  0.03874   17011.89325   48.4564  14.35511  57965.12035    51.07818       44.19192     30.114  68.44091   52.5    0.07656  -21.41316  0.99992 
   -7.91594  0.00369  1.12695     14.62735  1.99969  0.48573  12.03967  0.33315     0.04306   9452.23479   3079.44178   2.1319         2580.10041      20.3302  0.11883  57904.14406   6.41669  0.04447   13118.62779  48.34811  14.27299  57962.29862    51.07531       44.17727   32.85164  68.44091   53.5    0.09719  -21.41004   0.9998 
   -9.66506  0.00225  1.09962     14.34732  1.63418  0.77961  18.45832  0.21308     0.06628   9425.66937    3012.6716  1.52484         2802.82975     19.48485  0.01697  57902.39494   9.78236  0.04149   37064.47778   47.8307  14.46708  57959.47688    51.02659        44.1521     30.114  65.70327   54.0    0.10023  -21.25093  0.99975 
   -7.73757  0.00223  0.89246     14.23175  1.62608  1.55493  21.18161  0.18307     0.06014   9173.99946   3117.45408  1.84634         2786.97993     17.09307    7e-05  57904.32243  10.63417  0.04718    41364.8979  47.96218  14.36711  57959.47688    51.05575       44.18648   32.85164  62.96564   53.0    0.11399  -21.27495  0.99985 
   -9.96328  0.01163  1.19805     14.27621  1.61237  0.83995  25.32951  0.17846     0.01579   9430.04951   3052.82502  2.41566         2435.18601     19.10243  0.00703  57902.09672  13.43637  0.29452   60229.26872  47.53956  14.38639  57959.47688    51.04405       44.17715   27.37636  65.70327   52.0    0.09265  -21.24107  0.99772 
   -8.04323  0.02147  0.91363     14.33532  1.68174  1.00444  19.74064   0.1921     0.03793   8924.79292   3040.52358  1.84464         2750.82486     17.35131  0.00012  57904.01677   9.37961  0.42393   27827.87658  48.12859  14.44877  57962.29862    51.05167       44.17991   35.58927  62.96564   55.5    0.09803  -21.18521  0.99868 
   -9.26458  0.00799  1.29289     14.23925  1.89276   1.2583  11.84025  0.30705     0.03702   9120.81478   3048.82773  3.58434         2328.22108     20.49396  0.17325  57902.79542   5.87564  0.09458   97618.60055  47.33328  14.33782  57962.29862    51.05473       44.16944   32.85164  65.70327   54.0    0.09783  -21.45499  0.99932 
   -7.24441  0.01148  0.84232     14.31725  1.69094  0.92929  42.40076  0.12989     0.01019  10599.55278    3026.1113  1.94935         2664.98102     17.66825  0.00026  57904.81559  28.41684  0.48683   25846.21195  48.23362  14.52153  57959.47688    51.05822       44.18484     30.114  62.96564   51.0    0.08897  -21.40132   0.9987 
   -9.96003  0.00278   1.3597     14.40417  1.90321  0.77468  19.35775  0.19957     0.04284  10151.24787   3087.80057  2.86977         2272.76112     20.37929  0.13305  57902.09997  11.89929  0.05373   50798.11467   47.5756  14.36438  57959.47688    51.11095       44.25057     30.114  62.96564   52.0    0.10238   -21.3793  0.99958 
