 texplosion  fnickel    Pspin  log(Bfield)      Mns  thetaPB   mejecta    kappa  kappagamma      vejecta  temperature    alpha  cutoff_wavelength  log(nhhost)      A_V         MJD0   kenergy  mnickel            TSD   log(L0)  Peak_mag     Peak_MJD  log(E_rad)  log(Peak_lum)  Rise_Time    E_fold  tau_1  delta_m15     r_peak     frac 
    -75.046  0.18015   4.3263     13.71982  1.27827  1.55623   2.50453   0.0719     0.47246   2605.27143   9790.48322   2.8501         5202.83189     17.60325  0.00022    56248.554   0.10141  0.45118  8073102.85557  44.19619  22.68267  56314.94975    50.93101       44.00822   34.34945  59.79348   75.0    0.16828  -21.19234  0.93106 
  -80.58164  0.04459  4.02647     14.16192  1.14484  0.38965   5.92374  0.04327     0.04557   2653.70319   8251.06903  2.99634         4700.06603     16.56486    2e-05  56243.01836   0.24884  0.26411   817654.68385  45.20517   22.6713  56314.94975    50.90049       44.09167   33.11065  47.66454   66.0    0.15808  -20.97714   0.9583 
 -119.47371  0.01894  3.62566     13.72053  1.45775  0.96566   7.00227  0.10883     0.01385   5551.17633   9136.99516  1.53002         5369.80501     19.22845   0.0094  56204.12629   1.28717  0.13264  6444872.11988  44.50454  22.51527   56276.6005     51.0635       44.10548   43.25486  72.51009   58.0    0.13216  -21.35411  0.98744 
  -91.91781  0.01869  4.23442     13.93575  1.54205  0.65992   4.92761  0.09415     0.40369   4532.18519   7583.26026  2.16481         5781.34616     16.97325    5e-05  56231.68219   0.60378  0.09212  3451432.25824  44.66536  22.54638  56307.75927    50.94831       44.10249   35.62165  49.61587   78.0    0.13458  -21.44879  0.98905 
  -71.11206  0.01325  5.47667     14.19821  2.08032  1.19557   3.63345  0.25632     0.41874   6658.86955    9879.3839   2.2145         5495.01039     16.65565    3e-05  56252.48794   0.96105  0.04814  2325697.99251  44.74339  22.48804  56300.56878     50.9241        44.0695   39.43825  53.43247   49.0    0.18232  -21.42034  0.99412 
 -123.45123  0.04205  3.07279     14.05623   1.7439   1.2132   8.24634  0.18605      0.4626   5627.58328   9972.48542  1.83251         5655.75745     18.70499  0.00282  56200.14877   1.55787  0.34677  1180155.28785  45.46336  22.42058  56288.58464    50.96145       44.06037   44.52706  62.33788   58.5    0.12077  -21.31423  0.98305 
  -108.6007  0.00322  3.21215     14.18973  1.43929  0.51639   4.66648  0.32228     0.49876   6151.36872   9109.89642  1.62782         5081.29825     19.96313  0.05103   56214.9993   1.05332  0.01501   575568.95818   45.6533   22.6481  56310.15609    50.91098       44.02812   39.43825  52.57613   56.0    0.12013  -21.33236  0.99891 
  -67.49266  0.05195  6.06296     14.32226  1.98015  0.50798   1.77721  0.18092     0.39949   6443.78546    9059.2463  2.30087         4802.90263     19.19674  0.00874  56256.10734    0.4402  0.09233  1532365.79367  44.81481  22.32918  56262.21953    51.10109       44.12574   44.52706  76.10765   60.5    0.21985  -21.22106   0.9848 
 -114.96348  0.03252  3.35409     13.96462  1.56589  1.50231   7.67293  0.16628       0.476   5386.92198   9790.63419  1.80059         5092.14664     16.50603    2e-05  56208.63652   1.32822  0.24949  1925273.70589  45.12797  22.43447  56288.58464     51.0054       44.06232   44.52706  62.96437   55.5    0.12245  -21.23915  0.98286 
 -122.74942  0.01366  2.30659      14.1087  1.76948  1.38561    7.3105  0.30289     0.30731    6514.3798   9710.42882  1.47721         5835.30812      19.0505  0.00624  56200.85058   1.85063  0.09989   529911.89274  46.06655  21.70388  56214.28297    51.30431       44.33467   38.16605  78.03115   59.0    0.08142   -21.1397  0.99729 
 -116.95302  0.00208   4.1079     14.03038  1.99087  1.24679   6.84586  0.13498     0.49799   4569.54617   9671.29248  1.89803         5343.68093     20.17259  0.08267  56206.64698   0.85271  0.01421  2712356.84103   44.9073  22.47174  56288.58464    51.00179        44.0713   44.52706    63.175   61.5    0.11606  -21.41049  0.99895 
 -103.59332  0.00172  1.58103      14.3556  1.58901  0.66626   6.57849  0.30291      0.4709   4833.18193   9879.07755  2.05741         5865.64295     18.64936  0.00248  56220.00668   0.91668  0.01129    71717.15611  47.21647  22.30491  56278.99733    50.99529       44.11875   41.98266  59.02982   59.0    0.10226  -21.55949  0.99984 
  -167.0122  0.00435  1.00135     14.23321  2.01148  1.32755  12.80645  0.23605      0.4685    4045.6611   7435.97137  1.48157         5014.30095     17.88185  0.00042   56156.5878   1.25036  0.05575    63986.00859   47.7651  22.59247  56302.96561    50.95458       44.04161   41.98266  58.99358   99.5    0.04319   -19.5676   0.9998 
 -133.82319  0.37323  3.41134     14.23273    1.693  0.60185   8.36947  0.08505     0.01424   3097.13314   8640.98916  2.60058         5568.91952     19.80128  0.03516  56189.77681    0.4789  3.12373   626424.90006  45.63478  22.46093  56283.79098    51.15382       44.06482   55.97688  92.87073   78.5      0.099  -21.36684  0.83258 
  -97.21046  0.21742  1.31216     14.53153  1.67322  0.66229  10.40559  0.33331     0.05311    8927.3813   7361.55629  0.75661         4744.47648     16.87016    4e-05  56226.38954     4.947  2.26236    23135.86322  47.89214  22.29852  56267.01319    51.09351       44.12422   44.52706  74.62482   60.5    0.10873  -21.13525  0.98269 
 -103.98167  0.06567  2.29358     13.92436  1.05108   0.7706   6.06161  0.30057     0.42612   6421.04561    8373.5735  1.65396         5139.48078     16.44923    2e-05  56219.61833   1.49082  0.39808   727363.21158   45.7077   22.6467  56319.74341    50.86093        44.0234   33.64144  49.05167   56.5     0.1163  -21.34543  0.97702 
 -111.31413  0.00225  4.26737     14.04919   1.9026  1.49178   6.16037  0.19699     0.15523   6816.11431   9841.59085  1.67031         4985.82026     18.75105  0.00313  56212.28587   1.70729  0.01388  2565050.73194  44.87878  22.62835  56298.17195    51.00614       44.05588   47.07146  63.61009   51.0    0.14743  -21.37007  0.99882 
  -89.52062  0.00429  4.12547     14.19355   1.7001  0.80766   6.36739  0.22779     0.48971   8115.30767   9805.94074  1.79491         5044.41804     17.45102  0.00016  56234.07938   2.50149  0.02732  1101889.16168  45.22624  22.63981  56322.14023    50.80029       43.97865   25.47744  48.72611   46.5    0.16261  -21.38705  0.99745 
 -152.12747  0.12002  2.33529     14.02349  1.52976  0.83086   7.05922  0.32041     0.48936   7260.65576   9273.45211  1.39806         5664.29409     18.15113  0.00079  56171.47253   2.21991  0.84725    695252.1939  45.87465  22.56138  56295.77513    50.98995       44.03605   44.52706  63.34097   74.5    0.08446  -20.88861  0.97128 
  -74.21243  0.30205  4.85154     14.01417  1.50322  1.26216    4.1427  0.25793     0.32775   9943.84542   9399.91843  1.78365         4926.56307     17.65281  0.00025  56249.38757   2.44354  1.25131  3077978.81622  44.58584  22.48462   56293.3783    51.04655       44.08544   47.07146  67.42669   46.0    0.19516  -21.33429  0.83566 
 -108.87011  0.00151  2.02516     14.37917  1.94203  0.90365   8.49085  0.27062     0.40721   5081.56692   8003.41701   1.9513         4867.85917     16.33916    1e-05  56214.72989    1.3079  0.01285   129017.07611  46.83353  22.43107  56281.39416    50.99589       44.06728   39.43825  68.69889   63.0    0.08298  -20.96883  0.99977 
 -180.85059  0.03648  0.83241     14.07626  1.59212  0.92368  10.06319  0.31927     0.44061   4970.33505   9136.68606  1.32727          5813.5437      20.3637  0.12836  56142.74941   1.48298  0.36714    72101.95759   47.7722  22.69744  56310.15609    50.82512       43.96535   39.43825  55.70776  101.5    0.04807  -19.88287  0.99859 
 -149.34864  0.00166  3.31447     14.53763  2.05066  0.34183  12.35024  0.11162      0.3778    3343.0183   8430.91535   1.9828         5266.70556     19.43703   0.0152  56174.25136   0.82334  0.02047   175907.22134  46.29463   22.1124  56262.21953     51.1182       44.20827   33.07724  63.61009   81.5    0.08288  -20.73491  0.99907 
  -110.4847  0.00138   2.9391     14.52005  1.97771  0.49765   8.88046  0.25929     0.49989    6638.0798   7784.76713   1.5072         4949.78521     19.51284   0.0181   56213.1153   2.33425  0.01229   144646.05197  46.46827  21.82923  56257.42588    51.20425       44.30979   40.71046  58.52128   59.0    0.10212  -21.19477  0.99954 
  -79.75745  0.13187  5.03631     14.24377  2.05583  1.15205   4.50402  0.26168     0.29574   7735.81024   9839.71033  2.04147          5270.0763     19.12825  0.00746  56243.84255   1.60783  0.59394  1575778.14389  44.98011  22.40244  56274.20367    51.06228       44.07899   50.88807  73.78229   46.0    0.17338  -21.46721  0.94132 
 -138.65304  0.08372  1.65874     14.18961  1.84789  1.56522   13.7096  0.20568     0.05111   6924.56406   8682.67647  1.48807         5133.34621      16.9333    5e-05  56184.94696   3.92136  1.14773   197161.56524  46.80114  22.29722  56281.39416    51.01431       44.12715   24.17183  62.33788   76.5    0.06685  -20.47205  0.98545 
 -104.71072  0.01338  5.03824      14.1049  2.10822  1.21473   3.89044  0.30102      0.4915   8229.95974   9779.64449  1.40296         4950.95274     18.38354  0.00134  56218.88928   1.57189  0.05204  3065386.20111  44.70172  22.63473  56312.55292    50.85286       44.06234   36.89385  47.90858   49.5    0.16153  -21.39082  0.99469 
 -145.20267  0.06057  1.98827       13.778  1.29618  0.92268   6.83989  0.29255     0.49031   5222.15881   7570.62226  1.59836         5602.03308     20.72821  0.29713  56178.39733    1.1127  0.41428  1322584.12556  45.66314  22.44034  56281.39416    51.00949       44.07422   45.79926  63.61009   78.5    0.09261  -21.30523  0.98667 
 -174.37353  0.02646  1.15838      14.0354  1.96035  1.23851  16.45064  0.15727     0.49985   4381.11543   9137.36799  1.40331         5132.67461     20.92544  0.46792  56149.22647   1.88356  0.43534   207511.85566  47.11643  22.35815  56271.80684    51.16102       44.13239   54.70467  78.87651   95.5    0.05233  -20.43762  0.99749 
   -75.1157  0.39721  6.01477     14.21321  1.98146  0.86933   3.44323  0.22564     0.07861   8806.32032   9552.93537  1.56655         5170.16806     19.61191  0.02273   56248.4843   1.59288   1.3677   2493593.7057  44.61057  22.45982  56290.98147    51.12666       44.08206   50.88807  87.78192   48.5    0.20379  -21.34763  0.81918 
 -103.18883  0.08071  3.19313     14.27303  2.07598  1.41642  10.08915  0.23895     0.48049   6693.04471   8088.08361  1.48951         5244.45487     18.52981  0.00188  56220.41117   2.69606   0.8143   558999.57776  45.83022  22.67814  56310.15609    50.92723       44.02699   41.98266  57.08949   60.0    0.10385  -21.30342  0.96768 
  -91.32777  0.01431  3.66503     13.76283  1.36187   1.2821   7.96924  0.09166      0.4994   5301.32316    9751.8213  2.05307         5507.63321     20.08205  0.06711  56232.27223   1.33602  0.11403  5063374.58223  44.57038  22.64651  56310.15609    50.84352       44.04121   40.71046  48.34367   59.0    0.14166  -21.49749  0.98812 
  -98.81033  0.01152  4.05881     14.26254  1.72133   0.7593   6.27541  0.13903     0.49526   3594.58345   9723.97639   2.2511         4584.31045     17.42131  0.00015  56224.78967   0.48369  0.07231   785967.14108  45.39251  22.63045  56310.15609    50.89342       43.97144   44.52706  58.52128   57.5    0.11027  -20.92542  0.99363 
 -166.88066  0.10383  1.02102     14.11025  1.70266  1.33027  15.21705  0.20333      0.4652    6585.5683   9724.56451  1.46841         5358.14726     18.90303  0.00444  56156.71934   3.93681     1.58    99198.25838   47.4854  22.10132  56255.02905    51.14868       44.22282   34.34945   72.5155   94.0    0.05712  -20.06352  0.99186 
 -156.05086  0.02694  1.45526      14.2355  2.05801  1.07345   12.5455  0.27028        0.15   6975.87725   8800.06463  1.43439         5769.20173     18.88917   0.0043  56167.54914   3.64177  0.33794   136816.57247  47.12027  22.49263   56293.3783    50.98878       44.08505   41.98266  57.24908   83.5    0.06028   -20.3152  0.99717 
  -65.84122  0.11854  6.62467     14.27664  2.13546  0.80399   3.80753  0.18327     0.45337   8325.49545   9938.83293   1.9294         4813.51748      16.4202    1e-05  56257.75878   1.57431  0.45133  2434173.31993  44.56966  22.54832   56293.3783    51.01073       44.11369   43.25486  62.33788   50.0    0.20148  -21.17691  0.92646 
  -86.78817  0.03958  4.91884     14.19144  2.00059   1.4432   5.42371  0.24538     0.46897   6474.09101   9643.33301  2.01449         4677.34941     16.70887    3e-05  56236.81183   1.35607  0.21469  1861330.03305  44.91646   22.6675  56314.94975    50.89224       44.01612   45.79926  58.52128   50.5     0.1421  -21.12787   0.9781 
  -75.28205  0.00106  5.10876     14.03816  1.82796  0.93236   3.67852   0.2566     0.37833   9181.89596    8048.8899  1.32736         5284.92612     19.62783  0.02358  56248.31795   1.84997   0.0039  3716101.10944  44.54409  22.60311  56302.96561    50.92433       44.02487   41.98266  58.99358   58.0    0.18324  -21.32591  0.99948 
  -83.84041  0.00454  4.04207     13.87032  1.72626  0.79181    3.2118  0.12935     0.12739   9987.81369   7358.11523  1.38388         5357.19524     20.56315  0.20318  56239.75959   1.91125   0.0146  4758770.75233  44.61525  22.10219  56255.02905    51.14526       44.21904   33.07724  68.19053   66.5    0.20784  -21.74951  0.99865 
  -84.27385  0.29879  4.72282     14.14921  1.77281  0.99372   3.06883  0.29401     0.43657   5814.47626   9142.61966  1.87983         5473.47508     18.20572  0.00089  56239.32615    0.6189  0.91694  1846994.81565  44.90264  22.16067   56259.8227    51.11321       44.18144   36.89385   71.2433   54.5    0.14753  -21.35647  0.90399 
  -85.20387   0.1386  1.98287     14.38396  1.72159  0.94904  10.08371  0.25519     0.48626   8330.69596   8024.46498  1.58775         4840.61052     19.80612  0.03555  56238.39613   4.17456  1.39758   107252.58912  46.87978  22.55547  56305.36244    50.92226       44.03561   39.43825  54.05896   54.5    0.13265  -21.30486  0.97258 
  -76.92937  0.00583  5.44989      14.2706   1.9901  0.67852   3.73944  0.25649     0.49991   9705.32028   9462.27785  1.70786          5065.8923     18.87726  0.00419  56246.67063   2.10113  0.02181  1578549.59608  44.89669  22.39779  56264.61636    51.05794        44.0931   45.79926  76.21717   46.0     0.1966  -21.41717  0.99714 
 -103.04507  0.05637  2.27476     14.09469  1.41379  0.89142   5.98335  0.31778     0.02341   5620.83317   9653.02228  2.05468         5359.47057     19.93566  0.04791  56220.55493   1.12765   0.3373   439232.88224  46.06266  22.23302  56281.39416    51.02076       44.13259   40.71046  59.02982   54.0    0.10568  -21.52035  0.98766 
   -93.1499  0.00904  3.85077     14.00084  1.55761  1.40697   5.87898  0.20236     0.25858   5972.22655   9376.31905  1.94097         4941.54678     16.87429    4e-05   56230.4501   1.25084  0.05317  2136408.84376  44.96052  22.38001  56290.98147    50.92108       44.07325   30.53284  57.24908   51.0    0.13343  -21.24751  0.99508 
  -83.26482  0.36348  4.68715     14.25736  1.84887   1.0443   3.82456  0.29062     0.18505   5961.03621   8854.19565  2.09175         5052.89487     18.35783  0.00127  56240.33518   0.81068  1.39015  1152953.54121  45.13212  22.32996  56262.21953    51.28758       44.31626   40.71046  74.35269   56.0    0.13958   -21.2487  0.87137 
 -135.99854  0.19491  3.34318     13.85509  1.41714  0.68862   4.49158  0.26513     0.02146   6014.15254   9443.37206  1.27955         5072.53926     18.50339  0.00177  56187.60146   0.96912  0.87545  2866617.77378  44.91457  22.40744  56274.20367    51.07051       44.12447   52.16027  69.53601   50.5    0.13723  -21.21322  0.93178 
  -81.54614  0.31785  4.17836     14.13135  1.60167  1.11748   4.97078  0.24415     0.22136   6805.50242   8846.09853  1.83345         5494.64908     18.37212  0.00131  56242.05386   1.37332  1.57997   1418098.1981   45.0797  22.71046  56317.34658    50.81631        43.9942   37.66867   52.9724   54.5    0.15335   -21.3894  0.85801 
 -157.98569  0.01586  2.84228     13.83533  1.55912  1.47856   6.31703  0.30462     0.49912   6438.19241   7925.73413  0.94252         4824.94159     17.58717  0.00021  56165.61431   1.56195  0.10017  2496677.69828  45.15703  22.59865  56302.96561    50.93692       44.02328   41.98266  55.97688   77.5     0.0822  -20.79442  0.99494 
  -63.09763    0.348  5.60897     14.11879  1.78831  1.37238   2.38834  0.31978     0.17637   7696.07326   9728.04587  2.17558         5006.79693     16.99707    6e-05  56260.50237   0.84384  0.83115  3023065.40215  44.54307  22.50151  56300.56878     51.0104       44.09619   43.25486  59.79348   46.5     0.2193  -21.29614  0.88137 
 -100.65223  0.07292  3.25675     14.12525  1.76101    1.139   7.23796  0.16822     0.03407   4657.27847   9869.90379  2.11709         5877.29594      19.8358  0.03807  56222.94777    0.9365  0.52777     974191.828  45.50039  22.51459  56283.79098    50.95861       44.02688   36.89385  67.84255   56.5    0.11122  -21.62137  0.97181 
  -93.33214  0.02444  4.51389     14.07267  1.63425   0.8895    6.8109  0.13023     0.38747   5357.43409   9451.64694  1.97319         4786.83343     17.88301  0.00042  56230.26786   1.16613  0.16643  2212552.39423  44.82817   22.4985  56281.39416    50.93294       44.01509   41.98266  69.11475   57.5    0.13137  -21.12184  0.98035 
 -101.13499  0.08466  4.88108     14.44743  2.19696  0.61542    4.6409  0.28534     0.19919   6971.21942   9494.89038  1.74071         4914.70753     19.04549  0.00617  56222.46501   1.34539  0.39292   619175.78991  45.44182  22.49856  56290.98147    50.97165       44.06022   40.71046  58.52128   51.0    0.14623  -21.33824  0.96611 
 -110.38756  0.27425  3.80497     14.16727   1.9452  1.51999   7.64143  0.22383     0.32268    6873.0668   8909.27464  1.68777         5644.82397     17.61794  0.00023  56213.21244   2.15329  2.09564  1210413.60928  45.31417  21.86989  56245.44174    51.20984       44.31998   36.89385  63.61009   60.0     0.1144  -21.49964  0.88064 
 -112.33542  0.00596  3.41727     14.10154  1.46116  0.67343   5.13589   0.2442     0.05231   5667.09471   9604.79548  1.69198         4963.44679     19.08626  0.00678  56211.26458   0.98393  0.03063   992635.68419  45.36939  22.15262  56252.63222    51.14286        44.1785   44.52706  72.70389   55.5    0.12262  -21.21779  0.99753 
 -133.21155  0.06779  4.55494     14.16992  2.17932  0.65834   4.96838   0.2409     0.47858   4834.40698   4529.16634  1.71608         5779.71118     18.13152  0.00075  56190.38845   0.69267   0.3368  1919828.57319  45.00694  22.38607  56278.99733    51.06195       44.13815   38.16605  64.88229   78.5    0.10081  -21.32216  0.97345 
 -111.34438   0.0275  3.45176     14.44305  1.86122  0.53713   9.37487   0.2011     0.32066   6223.74663   8884.80811  1.43553         4651.54779     18.01347  0.00057  56212.25562   2.16619  0.25781   267669.79007  46.03496  22.43869  56288.58464    51.03013       44.09078   43.25486  62.33788   56.0    0.10719  -21.04279  0.98558 
  -91.53605  0.00193  4.66521      14.0597  1.90131  1.17255   3.07308  0.30821     0.27331   5839.95436   9914.31308  2.07673         5536.70368     18.27903  0.00106  56232.06395    0.6252  0.00592  2918892.01889  44.74494  22.59523  56300.56878    50.99195       44.05423   43.25486  59.46792   54.0    0.14726  -21.49084  0.99939 
 -130.73404  0.00963  3.46504     14.52667  1.84929  0.31942   5.62187  0.25405     0.09348   5727.64862   9459.31925  1.78044         5091.61757      17.2656   0.0001  56192.86596   1.10017  0.05415   182343.11111  46.19554  22.12999  56257.42588    51.17783        44.2326   48.34367  67.77263   58.5     0.1167  -21.14135  0.99686 
  -83.17587  0.32334  4.59821     13.93742  1.60537  1.33591   4.56131   0.1753     0.01855   5519.91224   8871.29057   2.2316         5666.82545     17.37859  0.00013  56240.42413   0.82905  1.47484  4204534.02057  44.52552  22.69326  56322.14023    50.88731       44.01948   35.44442  52.33749   52.0    0.14569  -21.50665   0.8401 
 -103.06898  0.17033  4.80448     14.11228   2.0498  1.34339   5.37293  0.16822     0.42643   4660.51797   8789.67983  1.95519         5091.50757      20.0817  0.06706  56220.53102   0.69616  0.91518  2619788.69512    44.799  22.72511  56317.34658    50.83835       44.00963   33.11065  49.58246   64.5    0.11676  -21.30222  0.91872 
 -122.97442  0.44176  3.52981     13.99354  1.54545  1.35067   4.93198  0.32276     0.02418    5503.7522   8733.70242   1.6592         4831.83649      16.9978    6e-05  56200.62558   0.89118  2.17874  1842043.45734   45.0971  22.51695  56295.77513    50.94092       44.08421   44.52706  54.70467   58.0    0.10614  -21.01279  0.85322 
 -109.40225  0.02003  3.42873     13.86261   1.4214  1.35433   1.36266  0.23373     0.44858   1642.55378   7894.37291  3.29016         5385.62348     18.44347  0.00154  56214.19775   0.02193   0.0273  2921342.64924  44.88571  22.43231  56278.99733    51.04007        44.1054   27.98844  66.03114   64.0    0.11125  -21.47884  0.99768 
  -80.20165  0.03703  2.06836     14.31156  1.73864  1.08676   7.90494  0.31158     0.36542   7198.14822   8578.60723  1.97725         5355.26686     18.85305  0.00396  56243.39835   2.44325   0.2927   164499.03179  46.66164  22.72158  56322.14023    50.86897       44.03395   34.34945  48.33826   55.5    0.10919  -21.41808  0.99362 
 -122.95375  0.22406   3.7239     13.82907  1.48018  0.99747    7.7963  0.06383     0.48814   3211.22664   8054.10154  2.49458         5878.85067     19.33141  0.01192  56200.64625   0.47958  1.74687  4187786.89988  44.67518  22.70711  56314.94975    50.89753       44.05501   35.12427  52.38854   81.0    0.11491  -21.58673  0.85575 
 -108.83016  0.20005  4.02864     13.98055  1.67091  0.90104   6.48148   0.1077     0.01671    4576.6143   9915.08743  2.40179         5933.80334     19.43876  0.01526  56214.76984   0.80982  1.29664  2754089.18155   44.8415  22.59544  56305.36244    50.89872       43.99667   40.71046  54.70467   60.0    0.13433  -21.77374    0.892 
  -85.03216  0.02733  3.48615     14.06797   1.4764  1.19694   7.78583   0.1667     0.04826   6162.61882   9539.01187  1.85217         4880.17315     18.32703  0.00118  56238.56784   1.76385   0.2128  1218351.97248  45.26758  22.65642  56312.55292    50.80431       43.96815   34.34945  49.61587   49.0    0.14046  -21.18622  0.98283 
 -134.64307  0.00111  1.58539     14.01209   1.4746  1.35297   7.46051  0.32914     0.13729   6052.80091   9541.23309   1.7644         5395.60213     16.20808    1e-05  56188.95693   1.63045  0.00829    325524.6367  46.52466  22.52905  56290.98147    50.93834        44.0285   50.88807  62.75374   71.0    0.07474  -20.63996  0.99986 
  -90.88582  0.29239   4.5748     14.22552  1.89692  1.11332   5.53467  0.27177     0.18887   8656.50678    9029.1621  1.30171         5106.18874     19.12375  0.00739  56232.71418   2.47403  1.61828  1304881.50413  45.11058  22.39684  56278.99733    51.03315        44.1036   44.52706  62.33788   50.5    0.15692  -21.35406  0.86381 
  -95.60421  0.00141  4.55472     14.24101  2.01353   0.7014   4.86061  0.18955     0.03044   5431.25665   9947.56083  2.20893         4471.30321       20.621  0.23213  56227.99579    0.8553  0.00683  1278423.62168   45.1492  22.51526  56298.17195    50.93888       44.06448   44.52706  57.66493   54.0    0.13098  -21.32798  0.99939 
  -87.00067  0.00139  4.14666     13.90254  1.58619  1.09516   3.11534  0.30863     0.46207   6218.89749   9110.55923   2.0084         5894.52691      16.1011    1e-05  56236.59933   0.71872  0.00433  3967213.45753  44.63532  22.56252  56300.56878    50.96358       44.07422   39.43825  56.39273   60.0    0.14203  -21.54697  0.99954 
 -125.11565  0.02826  3.40415     14.13238  1.44006  0.50104   6.97186    0.077      0.4975   2656.19516   9522.27429  2.82049         5139.05393      16.9311    5e-05  56198.48435   0.29342  0.19705   842280.79687  45.43775  22.66739  56302.96561    50.85862       43.96183   34.34945  58.99358   71.0    0.10976  -21.22847  0.98398 
  -89.25427  0.04772  4.32741     14.30897  1.79431  0.57859   4.30135  0.26281     0.45587   6792.87999   9040.49217  1.87702         5022.93974     20.19308  0.08666  56234.34573   1.18397  0.20528   752006.44673  45.37407  22.54645  56295.77513    50.96346       44.04053   41.98266  61.06028   51.0     0.1546  -21.39919  0.98079 
 -117.68034  0.01019  3.07035     14.19886  1.72285  0.90201   7.82941  0.24893     0.47611   6129.79193   9323.43695   1.8839         4457.01668      19.5888  0.02155  56205.91966   1.75488  0.07974   603565.79481  45.74999  22.46206  56278.99733    51.01311       44.05333   47.07146  68.69889   56.0    0.11257  -20.96131    0.996 
 -111.01762  0.00373  2.84678     14.06239  1.87796   1.3561   8.95249   0.2186     0.08217   6390.09687   9862.14169  1.50093         5397.94815     20.65994   0.2539  56212.58238   2.18065  0.03344  1060322.14813  45.60839   22.6794  56319.74341    50.83079       44.00298   31.62782  54.51168   56.5    0.10579  -21.57221  0.99873 
 -102.14141  0.06048  5.26427      14.3212  2.16138  0.68184     5.823  0.18699     0.01865   5906.31574   9982.12818  2.04269         4806.17329     18.70745  0.00283  56221.45859   1.21173  0.35219  1267124.46272  45.05808  22.60245  56298.17195     50.8739       44.02104   45.79926  54.48022   49.0    0.13229  -21.25658  0.96347 
  -56.70212  0.00194  6.10994     14.08313  1.94157  0.96653   1.67334  0.33116     0.48213  11381.79836   9181.66203  1.54404         4910.34197     18.98145  0.00532  56266.89788    1.2931  0.00324  4589746.28686  44.32314  22.48821  56290.98147    51.12896       44.22032   41.98266    63.175   50.0    0.24614  -21.25436  0.99943 
 -109.38675  0.19895   2.5956     14.31774  1.91365  0.94058   7.68014  0.23284     0.37237   5508.80551   9733.49845  2.09257         5783.83795      17.0959    7e-05  56214.21325   1.39031  1.52799   277126.56225  46.27956  22.44463  56278.99733    50.97748       44.05308   36.89385  69.11475   61.0    0.10122  -21.49479  0.95547 
 -110.41671  0.11578  4.30705     14.16209  1.75798   0.5307   3.71917  0.30359     0.27836   7116.44145   7648.82324  1.47502         5600.08014     16.10624    1e-05  56213.18329   1.12357  0.43059   1435528.6008  45.08849  21.92709  56226.26711    51.35139       44.36689   38.16605  82.69311   68.0    0.13029  -21.48111  0.95877 
 -109.83916  0.00263  1.81389      14.0975  1.33447   0.8821  12.16234  0.21301     0.49374   6132.38996   8252.34947  1.59825         5133.48204     18.22256  0.00093  56213.76084   2.72837  0.03205   260217.42097   46.4616  22.36843  56271.80684    51.11275       44.11494   52.16027  74.41419   61.5    0.08998  -21.10637  0.99918 
  -81.86303  0.00475  5.83116      14.1641  1.97963  0.90654   5.39409  0.12417     0.04626    6192.4244   9904.44814  2.25416         4515.45096     18.08496  0.00068  56241.73697   1.23386   0.0256  2935636.69706  44.56622  22.37149  56283.79098    51.00725       44.09368   40.71046  63.61009   53.5    0.17121  -21.07699  0.99611 
 -124.94805  0.29547  1.86642     14.29102   1.6072  0.82184   8.45992  0.16841     0.49147   4829.44549   9909.68146  2.01784         5319.03394     17.53159  0.00019  56198.65195   1.17703  2.49969   136103.48084  46.79903  22.61595  56305.36244    50.91387        44.0577   36.89385  51.72519   70.5    0.09459  -20.93217  0.95188 
 -142.40352  0.00259  3.10465     14.56489  2.08194  0.32425   6.17421  0.30871     0.32472   7747.90612   8512.45273  1.33649         5522.42261     18.15255  0.00079  56181.19648   2.21094  0.01599   138208.24601  46.46275  22.02124  56250.23539    51.13686       44.22082   35.62165  69.46273   63.5    0.10544  -21.21356  0.99938 
 -138.79297  0.00604  3.32471      14.1246  2.08594  1.56124   7.40282  0.25712     0.12853   4483.32103   8454.34175  1.66567         5145.39286     17.13677    8e-05  56184.80703   0.88761  0.04471  1206206.01758  45.46322  22.39224  56290.98147    50.98945         44.089   41.98266  55.97688   74.0    0.08923  -20.73707  0.99802 
  -82.72103  0.26004  0.99777     14.35595  1.43624  1.10751  11.85946  0.29203     0.45622  13734.43157   9053.30715  1.08508          5840.1623     18.45854   0.0016  56240.87897  13.34485  3.08395    25775.23973  48.01681   22.4044  56271.80684    51.28553       44.29265   50.88807  73.14198   49.0    0.13337  -21.54835   0.9877 
  -72.34388  0.00774  3.49228     13.96863  1.12274  0.38452   2.71936  0.20689       0.046   8329.88281   9895.70261  1.99146         5468.63789     16.17488    1e-05  56251.25612   1.12557  0.02104  1469100.74932  45.06586  22.19967  56243.04491    51.46659       44.48189   43.25486  80.14871   44.5    0.21797  -21.52427  0.99724 
 -117.79821  0.00268   2.8504     13.88391  1.38235  1.45357   8.76072  0.24233     0.32317   7141.50356    9044.1827  1.67645         4670.47636     19.44582  0.01551  56205.80179    2.6653  0.02345  1780001.17767  45.24923  22.58482  56310.15609    50.86485       44.04654   35.62165  52.16027   57.5    0.11334  -21.15704  0.99858 
 -150.69564  0.45807  3.09678     13.89741  1.48072  1.06259   6.23729  0.22534     0.29763   4306.40556   7024.07932   1.6039         5757.70399     19.59377   0.0218  56172.90436   0.69001  2.85711    2114900.577  45.13221  22.52037  56290.98147    50.98217       44.04144   41.98266   67.2671   89.0    0.08854  -21.05198  0.84299 
 -120.64748  0.11998  4.55407     13.80429  1.98847  1.27328   3.97028  0.24077      0.3207   7149.94225   4898.31409  1.21486          5613.2464     16.53851    2e-05  56202.95252   1.21075  0.47634  9430729.24498  44.27602  22.62616  56307.75927    51.02256       44.08319   43.25486  59.79348   82.5    0.11935  -21.41658  0.95598 
  -84.87667  0.00342  3.62945      13.9235  1.42125  1.31781   5.67037  0.21658     0.30398   6205.43144   8345.19251  1.92587         5242.54818     19.68735  0.02704  56238.72333   1.30251   0.0194  2472728.35724  44.90866  22.61588  56302.96561    50.87798       43.97077   41.98266  58.93714   54.5    0.14054  -21.33797  0.99816 
  -83.11334  0.00598  4.58071     13.69302  2.04758  1.43882   2.19875  0.31306     0.03965    9392.2149   9814.02503  1.79929         4861.60516     18.94613  0.00491  56240.48666   1.15701  0.01314  16401274.6007  44.04334  21.73242  56226.26711    51.28736       44.34648   35.62165   72.5155   41.5    0.19326    -21.391  0.99871 
  -90.34224  0.04967  4.63771     14.00817  1.66333  1.27257   4.36926  0.21652     0.28592   5490.38283    8283.6264  1.74875         4610.05197     16.46054    2e-05  56233.25776   0.78567  0.21701  3199391.88283  44.65215  21.83161  56235.85442    51.25587       44.31785   36.89385   73.7877   58.5    0.13567  -21.01314  0.97387 
 -129.23173  0.00433  0.91822     14.32168  1.36818  0.50732    9.3521   0.3225     0.41201   5994.54246   8480.16342  1.72279         5854.67756      16.6043    2e-05  56194.36827   2.00469  0.04049    24349.42329   48.0926  22.67744  56307.75927    50.87844       44.01821   35.62165  53.10691   75.0    0.06464  -20.56442  0.99977 
 -106.45427  0.17778  3.44264     13.77012  1.16642  1.20538    7.5735  0.11112      0.4611   4823.00813   8757.23497  2.16389         4985.53058     16.46671    2e-05  56217.14573    1.0509  1.34638  3700090.01728   44.6937  22.75815  56319.74341    50.85547       43.97154   35.44442  54.51168   65.0     0.1189  -21.27176  0.86484 
  -47.93444  0.17106  4.97585      14.4402  1.23675  0.22101   1.63092  0.12009     0.49565   6075.92738   9479.48257  2.53492         4638.70676      17.1262    7e-05  56275.66556   0.35916  0.27898   374487.55557  45.39396  21.95292  56250.23539    51.20792       44.27035   43.25486  64.88229   57.5    0.27995  -21.02788  0.94032 
 -104.98663  0.00621  3.82262     14.01527  1.60336   0.8702   5.64693  0.20735     0.36126   5427.98992   8953.63334  2.06193         5572.90079     17.50362  0.00018  56218.61337   0.99247  0.03504  2027826.39507  45.00212  22.34562  56286.18781    50.99606       44.10854   40.71046  56.48542   60.0    0.11564   -21.4944   0.9969 
 -142.21779  0.00383  1.55386      14.1196  1.24949  0.58501  11.39308  0.20242     0.45488   4421.23498   8830.37988  1.69065          5397.4487     19.47748  0.01668  56181.38221   1.32848  0.04364   161502.67193  46.77458  22.68305  56312.55292    50.85395       43.96925   36.89385  54.05896   81.0    0.06033  -20.45034   0.9991 
  -63.24643  0.02026  5.05156     14.12004  1.79704  0.91566   3.10511  0.28467     0.30337  10638.48909   9802.68469  1.92475         5995.51098     17.69071  0.00027  56260.35357   2.09635  0.06291  2449886.28802  44.72741  22.41729  56290.98147    50.98957       44.09215   49.61587   60.6306   43.5     0.2343  -21.69682  0.99181 
 -123.36665  0.00244   2.4616     14.52365  1.81794  0.39051   9.28656  0.16758         0.5   3511.37809   9674.42362  2.62757         5575.41252     16.37902    1e-05  56200.23335   0.68303  0.02265    91734.45719  46.78346  22.66496  56307.75927    51.03612       44.04012   43.25486   71.2433   70.5    0.08591  -21.07618  0.99933 
  -75.38844  0.01891  3.91363     14.52816  1.37377  0.19964   2.97527  0.32111         0.5   9563.75262   9977.23602  1.69914         5971.38156     17.57895  0.00021  56248.21156   1.62335  0.05625   171621.09923  45.98703  22.78832  56317.34658    50.87925       44.01053   39.26103  52.33749   44.0    0.20746  -21.65039  0.99342 
  -94.37251  0.00324   5.0235     14.58171   2.1844  0.41083   4.74528  0.18479     0.05988    5279.5001   9650.20134  2.07313         5138.80159     18.99288  0.00547  56229.22749     0.789  0.01536   351350.46501  45.66042   22.2667  56274.20367    51.08486       44.16776   41.98266  61.09652   52.5    0.14861  -21.35604  0.99853 
 -117.73033  0.01196  4.81568     14.45913  1.90909  0.28856   5.98349  0.08242     0.01403   3825.50193   9279.66245  2.24526          4715.5025     16.98271    5e-05  56205.86967   0.52235  0.07153   496242.31127  45.48866  22.50586   56293.3783    51.00557       44.07952   44.52706  61.06568   69.0    0.12467  -21.12517  0.99212 
  -81.83507    0.004  5.32629     14.09832  1.99759  1.47235   3.95491   0.2112     0.49043   6544.91662   9976.54452  2.15104          5072.9571     18.80795  0.00357  56241.76493   1.01058  0.01581  3346000.39372  44.59198  22.56659  56312.55292    50.89088       44.02947   30.53284  54.37911   50.5    0.17835  -21.34102  0.99804 
  -112.7252  0.37287  4.58266     14.13711  1.97301   1.3358   3.94309  0.30329     0.48178   5650.21242   9341.72371  1.74059         4873.27335     17.50281  0.00018   56210.8748   0.75092  1.47027  2046269.81625  44.93078  22.37177  56286.18781    51.01171       44.09644   43.25486  59.08627   61.0    0.11627  -21.20003  0.88014 
  -61.64563  0.41611  5.70337     14.26424  1.91243  1.17512   3.27588  0.26053     0.32752   7759.19085   9783.38483  1.85808         5342.25338     18.80911  0.00358  56261.95437   1.17649  1.36314  1710719.85032  44.80499  22.15158  56269.41002    51.09933         44.198   38.16605  63.21461   45.5    0.20847  -21.33187  0.83015 
 -187.14369  0.11972  0.92696      14.1446   1.3749  0.63197  11.67384  0.29247     0.32414   6340.22642   8883.90349  1.34525         4866.89806     17.21802    9e-05  56136.45631   2.79931  1.39762    56364.19736  47.72199  22.41155  56290.98147    51.08719        44.1478   45.79926  61.06568  103.0    0.05084  -19.80939  0.99152 
  -115.3793  0.00223  3.20205     14.02286  1.60081  1.17351    8.5367   0.1224     0.49591   3609.39121   9758.85848  2.14481         5259.57253     18.28006  0.00106   56208.2207   0.66342  0.01907  1371828.17228  45.32503  22.42903  56281.39416    51.01412       44.11363   34.34945  66.15449   63.0    0.09852   -21.1531  0.99883 
 -117.92109  0.35649  4.39998     14.04801  1.84099  1.49238   4.84652  0.28314     0.06958   7947.22672   9294.96519  1.51346         4843.99677     16.28767    1e-05  56205.67891   1.82595  1.72773  2653068.41465  44.82325  22.11727  56240.64808    51.18516       44.18231   39.43825  88.29046   53.0    0.13518   -21.3308  0.85892 
  -94.81735  0.10774  4.00338     14.20374  1.61176  0.66249   5.39621  0.21828     0.24321   5954.67125   8617.46112  1.96224         5251.44248     17.19149    9e-05  56228.78265   1.14138  0.58141   938620.28019   45.2988  22.29226  56271.80684    51.14123       44.20477   44.52706  66.98319   58.0    0.13181  -21.36818  0.94724 
 -137.58069  0.01507  3.96663      13.8139  1.74553  0.79894   3.66595  0.26356     0.49382   5934.72822   5695.12032  1.33832         5129.58276     17.03058    6e-05  56186.01931   0.77022  0.05525  6008921.43412  44.53513  22.39763  56286.18781    50.96324       44.04338   31.80504  71.55805  100.0    0.10569  -21.23606  0.99507 
 -137.41148  0.00338   1.8313       13.888  1.31021  1.31019   8.28537  0.32447     0.44845   5685.72846   8452.33392  1.35863          5592.2144     16.91828    5e-05  56186.18852   1.59776    0.028   683386.66643    46.026  22.47172  56290.98147    50.97886       44.06249   41.98266  61.48154   76.5    0.06621  -20.66659  0.99925 
 -102.72338  0.06594  4.66138     14.24274   2.1518  0.98683   5.11746  0.26434     0.41948   6827.43435    9838.3544  1.80403         5417.99667     16.11933    1e-05  56220.87662   1.42297  0.33746  1419589.53003  45.11245  22.56799  56300.56878    50.92183       44.04917   39.43825  53.20802   52.5    0.14169  -21.49884   0.9724 
 -106.07497  0.03476   3.8036     14.27249  2.06758   0.8355   9.11446  0.17323     0.03065   5798.74936   9605.64945  1.86745         5776.18032     20.05338  0.06282  56217.52503   1.82821  0.31678   791936.62851  45.52523   22.4098  56288.58464    51.08036       44.15871   44.52706  58.52128   56.5    0.11407  -21.59242  0.98161 
  -88.70975  0.10418  4.77619     13.95059  1.78912  0.84008   2.25153  0.30577     0.04259   5844.18655   8560.85592  1.84771         5280.87395     18.80345  0.00353  56234.89025   0.45872  0.23457  4758236.23425  44.48587  22.70642  56307.75927    50.87084       43.97114   40.71046  57.56383   57.0      0.138  -21.30886  0.97208 
  -92.58565  0.02508  2.91505     13.90686  1.21104  1.10767   8.46091  0.16291      0.1325   5691.76741   9135.66775  1.98572         5114.32904     17.27307   0.0001  56231.01435   1.63508  0.21217  1467387.81804  45.25616  22.29633  56295.77513    51.09461       44.25842   30.53284  59.79348   55.5    0.12489  -21.28684  0.98383 
 -152.11514  0.02761  2.81779     13.90231  1.68808  1.28977   5.23282  0.31984     0.07719   5378.52139   9684.43917  1.77448          5926.8869     19.00639  0.00564  56171.48486     0.903  0.14448  1951643.39817  45.30602   22.7106  56314.94975    50.88812        44.0411   43.25486  54.70467   72.0     0.0844  -21.09725  0.99366 
  -65.53262  0.04223  6.06322     14.51751  2.09178  0.39036   3.95465  0.12786     0.17926   5963.11761   8643.09512  2.03285         4601.19376     20.28586   0.1073  56258.06738   0.83884  0.16702   658746.94244  45.20524  22.57417  56300.56878    51.00887       44.06595   44.52706  62.33788   58.5    0.18264  -21.11382  0.97529 
  -62.71435  0.00219  3.71303     13.81031  1.03638  0.78694   3.87172  0.16133     0.20672   8609.62929    9789.4291  2.11088         5066.96754     16.77207    3e-05  56260.88565   1.71198  0.00849  3178062.02003  44.64274  22.48216  56283.79098    50.95539       44.04235   48.34367  63.61009   46.0    0.23832  -21.33158  0.99862 
 -101.35092  0.00243  3.38915     13.68064  1.26358  1.46711   3.79924  0.33698     0.06693   8693.61619   8965.65298  1.58478         5061.64345     19.35112  0.01247  56222.24908   1.71287  0.00923  5865688.57411  44.54195  22.57265   56293.3783    51.00671       44.08968   43.25486  58.52128   49.5    0.15048  -21.48638  0.99907 
  -97.39535  0.43549   1.2414     14.20354  1.14174  1.33265  10.75337   0.0628     0.17528   3261.98652   7323.15313  2.76348         4606.41503     20.17174   0.0825  56226.20465   0.68255  4.68294     63992.5909  47.33246  22.56247  56295.77513    50.92905        44.0517   31.80504  62.33788   80.5     0.1126  -21.19986  0.94681 
  -60.69198  0.03695  5.04744      14.1387  1.72413  0.95546   3.61297  0.20945     0.42796   7459.20546   9700.16438  2.18081         5528.85884     16.35995    1e-05  56262.90802   1.19916  0.13349   2153381.2449  44.76615   22.4496  56286.18781    51.13376       44.14416   45.79926   70.4434   45.0    0.22048   -21.4733  0.98184 
  -66.67793  0.02784   4.6022     13.94373  1.51743  0.98345   2.04178   0.3323     0.34302    8666.7286   9974.27291  2.10222         5595.65641     16.32591    1e-05  56256.92207   0.91484  0.05684  3867274.72256  44.53662  22.47543  56290.98147    51.03889       44.15096   43.25486  61.06568   49.0    0.22415  -21.55927  0.99201 
  -91.53542  0.04409  5.63198       14.604   2.0998  0.36355   6.92274   0.0947     0.36621   4528.35511   9973.09913  2.25568         4698.11943     17.99261  0.00055  56232.06458   0.84681  0.30525   383101.80619  45.50639  22.56237  56305.36244    50.86585       44.01734   36.89385  54.70467   55.0    0.14116  -21.07994  0.96227 
  -71.54197  0.40966  4.30606     14.23507  1.26809  0.62034   3.07619  0.19039     0.08985   4808.09874   9819.98452  2.42883         4622.00424     16.32695    1e-05  56252.05803   0.42422   1.2602   739584.31728  45.23485  22.09023  56255.02905    51.12388       44.21469   36.89385  67.13232   52.0    0.17563  -20.99707  0.83382 
 -122.68146  0.00223  3.47413     13.93115  1.45444  0.87061   5.93077  0.23497     0.02004   5265.56433   9585.26546  1.57645          4938.4607     16.59112    2e-05  56200.91854   0.98091  0.01325  2238237.34784  44.99994  22.44686  56298.17195    50.95078       44.07045   38.16605  56.81399   54.0    0.10792  -21.06191  0.99888 
 -117.77025  0.07245  2.77907     13.98914  1.37945  0.92852   6.67349  0.33948     0.43459   7967.98968   9042.14061    1.417         4722.02029     19.88722  0.04285  56205.82975   2.52742  0.48346  1040037.07993   45.5037  22.67317  56305.36244     50.9646       44.10615   43.25486  55.33116   56.5    0.10356  -21.20442  0.97279 
  -100.5155  0.00372  4.78641     14.16369  2.16882  1.21045    5.7605  0.22112     0.03994   6285.39922   8896.75143  1.83408         5156.93017     18.72994  0.00298   56223.0845   1.35754  0.02142  2171082.31863  44.90837  22.70793  56312.55292    50.99131       44.04934   44.52706  62.33788   53.5     0.1308  -21.39568  0.99812 
  -88.74628  0.16413  3.58585     14.14564  1.54284  0.84323   4.95543  0.31964      0.4824   7869.27812   9772.55028  1.74073         5674.72696     17.20607    9e-05  56234.85372   1.83054  0.81332   941980.66019  45.37394  22.43424  56281.39416    51.05201       44.10599   45.79926  62.21454   49.5    0.14771  -21.53817  0.93781 
  -80.28542  0.49156  5.10752     14.49937  2.02646  0.89637   4.49907   0.2145     0.14276   5398.18625   9675.10856  2.53612         4468.02737     17.27912  0.00011  56243.31458   0.78207  2.21156   492293.56493  45.46694  22.60279  56302.96561    50.96286       44.07783   39.43825  54.70467   55.5    0.13999  -21.02414  0.80554 
  -99.23979  0.16236  3.42992      14.2341  1.49667  0.64361   6.89124  0.21047     0.32757   6031.69542   8522.71209  1.78515         5177.93207     17.35213  0.00012  56224.36021   1.49556  1.11888   556298.47881  45.62809  22.41811  56278.99733    50.98007       44.06155   41.98266  62.69224   59.0    0.11429  -21.31008  0.91976 
 -100.09671  0.00938  3.91992     14.00572  1.40526  0.62457    5.0979  0.06781     0.49443    2691.5894   9030.49851  2.80045         5302.14575     17.73805   0.0003  56223.50329   0.22031   0.0478   1952940.5541  44.93936  22.20765  56271.80684    51.06737       44.16157   43.25486  60.93392   68.0    0.13404  -21.37325  0.99452 
 -129.59598   0.0026  2.61544     14.41235  1.36511    0.301   8.74582  0.17778     0.49785    4253.0673    9997.5453  1.94095         4890.38852     18.89625  0.00438  56194.00402    0.9437  0.02272   129828.44421  46.45555  22.66362  56317.34658    50.93164       44.02496   39.47166  59.76007   65.0    0.08636  -20.78478  0.99882 
 -114.03941  0.19393  3.45018     13.95506  1.41647  0.99118   5.90512   0.1643     0.34958   4671.38742   9063.50524  2.03529         5276.60922     18.71761   0.0029  56209.56059   0.76868  1.14515  1925721.55406  45.05978    22.614  56305.36244    50.96595       44.05887   43.25486  57.24908   63.5    0.11594  -21.32961  0.90993 
 -151.90897   0.0099   2.2448     14.10006  1.85192  1.25654   7.59046  0.33626     0.49744   5551.01123   9138.42155  1.46965         5388.36255       17.544  0.00019  56171.69103   1.39521  0.07517   546603.45992  46.09644  22.51044  56288.58464    51.12154       44.08326   55.97688  77.60431   80.0    0.06582   -20.4128   0.9982 
 -131.62816  0.22002  1.09597     14.06016  1.23134  1.06443  11.79302  0.15658     0.15849   5166.85636   9474.99689  1.91457         4770.62485     20.01614  0.05766  56191.97184   1.87804  2.59473   104107.26755  47.26215  22.59581  56310.15609    50.93641       44.03894   39.43825  56.44918   83.5    0.06425  -20.56774  0.97505 
 -133.16174   0.0035  1.67257     14.19564  1.75225  1.03031    9.2314  0.33912     0.42794   6802.86662   9226.36186  1.26188         5550.47729     19.43399  0.01509  56190.43826   2.54847   0.0323   184886.41958  46.79877  22.46231  56290.98147    50.95995       44.06662   30.53284  62.75374   74.5    0.06697  -20.49624  0.99954 
   -85.9787   0.2745  4.42941     14.03884  1.53146  1.00837   3.07742  0.32029      0.4929   7327.96985   9656.02683  1.76263          4969.3419     16.92377    5e-05   56237.6213   0.98578  0.84474  2333050.74131  44.79333  22.59053  56307.75927    50.91436       44.05323   36.89385  51.51456   51.5    0.16798  -21.29159   0.9029 
 -138.18251  0.45751  1.91317     14.27097  1.63996  0.79277   7.87734  0.30833     0.01195   4817.45263   8129.60901  1.80922         5275.51353     18.21447  0.00091  56185.41749   1.09054  3.60399   160031.20112  46.71597  22.50526  56288.58464    50.97849       44.10451   40.71046   60.6306   69.0    0.08078  -20.64936  0.93042 
 -115.48977  0.42311  3.59378     13.94375  1.50907  1.49309   3.81358  0.31652     0.11004   6620.39495   8909.26473  1.51829         4872.70455     16.30374    1e-05  56208.11023   0.99708  1.61357  2344928.42076  44.96632  22.57445  56300.56878    50.91426       44.02482   40.71046  56.60336   57.0    0.13138  -21.28878  0.87929 
  -84.84145  0.02983  1.51305     14.68312  1.08151  0.19077   8.60601  0.33472        0.49   9754.03899   8838.15535  1.19815         5009.84183     17.68184  0.00027  56238.75855   4.88425  0.25675     9892.34949  47.94787  22.66245  56307.75927    50.89834       44.00576   39.43825  57.56383   47.5    0.14104  -21.32244  0.99388 
 -138.22642  0.22987  1.27629      13.9017  1.32848  1.47477  13.92401   0.1368     0.37308   4464.35603   9452.71159  1.85693         5552.20963     20.70471  0.28147  56185.37358   1.65542  3.20068   315991.18316  46.68063  22.27178  56281.39416    51.01631       44.12522   52.16027  58.55212   83.5    0.05908  -21.02754  0.96113 
 -141.73202  0.01379  3.37199     14.08859  1.91163  0.93817   9.97183  0.15507     0.01272   4322.14711   8977.71354  1.92481         5821.77683     16.16739    1e-05  56181.86798   1.11122  0.13753  1342212.44772  45.36666  22.63111  56307.75927    50.92952       44.03417   39.43825  57.24908   64.0    0.10164  -21.07836  0.99283 
  -71.35381  0.05574  5.78802      14.0556  1.94665  1.01713   1.82141  0.24911     0.05739   5859.19652   9405.31993  2.31878         4978.37937     18.48944  0.00171  56252.24619     0.373  0.10153  4687736.96677  44.36211  22.02936  56257.42588    51.16602       44.19598   49.61587  68.30005   52.5    0.18874  -21.22502  0.98439 
  -98.35985   0.0145   4.6039     14.04384  1.69115  0.98268   5.02233  0.05563     0.49074   1951.05055   9073.23454  2.95425         4974.30467     16.13896    1e-05  56225.24015   0.11404   0.0728  2720029.49126   44.7362  22.71292  56319.74341    50.82688       44.00483   34.34945  50.08817   67.0    0.12822  -21.13174  0.99139 
 -101.98518  0.01251  3.61307     13.73551  1.37166  1.55674   2.68785   0.3359     0.22541   6546.32067   8988.54472  1.45736         4736.46297     20.30389  0.11185  56221.61482   0.68711  0.03363  5620771.33661  44.54054  22.49757  56295.77513    51.00976        44.1227   40.71046  60.41997   60.0    0.14042  -21.29762   0.9966 
 -106.64256  0.18232  2.06951     14.44504  1.40414  0.45075   5.80002  0.29235         0.5   4646.11058   9093.76841  2.05823         4692.28728     19.46753   0.0163  56216.95744   0.74685  1.05747    71925.29302  46.92764  22.63422  56305.36244    50.91462       43.99064   43.25486  58.83603   63.5    0.08975  -21.02229  0.96854 
 -116.60759  0.08356  2.27592     14.12561  1.59565   1.4224   8.57925  0.21836     0.01155   4340.31806   8792.20712  1.95789         4617.54283      17.6029  0.00022  56206.99241   0.96409  0.71687   430364.65071  46.12363   22.4681   56293.3783    50.94756       44.06546   40.71046  55.97688   61.5    0.08096  -20.68294  0.97841 
 -102.94339  0.34503   4.3469     14.40124  1.76687  0.49479   3.40218  0.33072         0.5   6103.23023   9956.81516  1.96832          4916.3662     19.25197  0.00992  56220.65661   0.75597  1.17385   488542.31625  45.55079  22.41082  56283.79098    51.05362       44.11495   41.98266  64.23657   55.0    0.13521  -21.32899   0.8966 
 -144.08451  0.02352  1.56708     13.92916  1.38572   1.2211   9.79684  0.25316     0.08273   7143.11051   9961.10246  1.73088         5824.86875     17.46306  0.00016  56179.51549   2.98187  0.23041   437888.34687  46.37897   22.4368  56288.58464    50.95528       44.06824   44.52706  58.52128   69.5    0.08606  -20.79424  0.99586 
 -110.65356  0.00161  3.16228     13.82324  1.37031  1.04652    7.3657  0.16535     0.22561   6742.15429   9276.83675  1.91298         5948.56163     19.27962  0.01058  56212.94644   1.99728  0.01188  2871754.81936  44.94752  22.43079  56286.18781    50.96135       44.04216   41.98266  62.33788   56.5    0.14471  -21.74203  0.99909 
 -175.11814  0.00979  0.87168     14.41434  1.98819  0.60099  11.47899  0.33024     0.01262   4522.67305   8159.48702  1.37844         4848.45009     20.40774  0.14206  56148.48186   1.40062  0.11233    20811.85674  48.36828  22.19635  56235.85442      51.236       44.23749   40.71046  89.24251   83.0    0.05319  -19.48578  0.99969 
