 texplosion  fnickel    Pspin  log(Bfield)      Mns  thetaPB   mejecta    kappa  kappagamma      vejecta  temperature    alpha  cutoff_wavelength  log(nhhost)      A_V         MJD0  kenergy  mnickel            TSD   log(L0)  Peak_mag     Peak_MJD  log(E_rad)  log(Peak_lum)  Rise_Time    E_fold  tau_1  delta_m15     r_peak     frac 
  -19.27056  0.19009  3.34295     13.95608  1.61152  1.45227   3.24117   0.2007     0.02935  13566.85629   8454.74324   1.1054         2839.97123     17.76863  0.00033  53944.12944  3.55867  0.61611  2047194.78963  45.11666  22.58398      54000.5     51.0476        44.5157   22.75111  25.59499   26.5     0.4554  -21.70513  0.96058 
  -13.91238   0.0357  3.15121     14.55648  1.73563  0.42704   3.84587  0.16302     0.05254  11365.20183   7945.18067  1.87061         2934.86515     17.25546   0.0001  53949.48762  2.96331   0.1373   123384.85427  46.42009  22.58547  53999.70217    51.10427       44.49939   20.85518  29.38684   32.0    0.36456  -21.61194  0.99287 
  -18.25388  0.03983  3.61506     13.89008  1.60182  1.40063   2.79155  0.14085     0.11715  13883.77424   6610.87276   1.4459         2594.47455     17.76574  0.00032  53945.14612  3.20987   0.1112  3224718.96457  44.84874   22.5949  53999.70217    51.07309       44.49581   19.90722  28.43888   44.5    0.31655  -21.68787  0.99125 
  -15.42243  0.12547  3.15377     14.22505  1.62213  0.66069     3.715  0.16799     0.11822  14455.11107   9852.12191  1.31984         2703.77186     20.17953    0.084  53947.97757  4.63051  0.46613   531441.80725  45.75581  22.61743  53997.24875    51.04355       44.48041    17.3716  29.07858   29.0    0.35961  -21.82579  0.97351 
  -14.93761  0.11986  3.37727     14.21574  1.66952  0.95348   4.27311  0.14556     0.18119  12686.64648   8418.28929  1.73419         2647.74788     16.21896    1e-05  53948.46239  4.10266  0.51219   654717.28808  45.61825  22.51371  53999.70217    51.12883       44.51493   22.75111  31.28277   33.0    0.36564  -21.59182  0.96832 
  -17.32471  0.10093  3.59629      14.1761  1.81695  1.08819   3.56888   0.1853     0.05196  13717.17897   7603.81818  1.31475         2721.79566     17.69916  0.00028  53946.07529  4.00579   0.3602   969786.65349   45.4298  22.55778  53999.70217    51.08211       44.52311   19.26752  27.18265   30.0    0.39097  -21.68605  0.97747 
   -14.6348  0.08125  3.57481     14.19485   1.6131  0.86768   4.12318  0.09718     0.13112  10888.36126   8541.40505  1.85764         2792.32529     16.65533    3e-05   53948.7652  2.91598    0.335   780345.31958  45.47771  22.55084  53997.24875    51.19406       44.67141   18.95925  25.59499   37.0    0.37272  -21.49946   0.9753 
  -16.83447  0.06944  4.17769     14.08361   1.8507  0.93898   4.21711  0.07392      0.1602  12120.30639   4151.01111   1.5228         2795.63152     16.44202    2e-05  53946.56553  3.69546  0.29285  2040810.00752  44.98451  22.53372  53997.24875    51.12127       44.51629   20.47918  28.43888   56.0    0.29383  -21.58395  0.97561 
  -15.55677   0.1401  3.52709     14.32512  1.83563  0.78405   4.39042  0.15248     0.04538  12674.22491   8084.17717  1.52295         2696.17533     19.12308  0.00738  53947.84323  4.20703  0.61511   474455.35096   45.7616  22.60671      54000.4    51.07918       44.49504   20.85518  29.38684   30.5    0.36259  -21.62095  0.96415 
   -6.29185  0.05382   1.5546     14.34426  1.73043  1.35635   7.30046   0.1774     0.06974  14090.86726   8720.47918  1.30645          3072.5825     19.44924  0.01563  53957.10815  8.64675  0.39293    79557.01585  47.22308  22.54335  53997.24875    51.12164       44.48645   20.21549  29.07858   27.5    0.31662  -21.70763  0.99558 
  -15.55214  0.10221  3.46688     14.10553  1.60399  0.98879  12.61683  0.03386     0.02309  10741.35863    6979.6422  1.51774         2957.21911     18.38914  0.00136  53947.84786  8.68352  1.28952  1101112.92957  45.35234  22.53601  53997.24875    51.09601       44.53041   19.90722  26.54296   46.0    0.31938  -21.58493   0.9152 
  -15.52792  0.19609  4.26213     14.27437  1.94479  0.88989   5.47022   0.0679     0.14414  10516.99485   5009.99119  1.64714         2912.26059      17.3767  0.00013  53947.87208  3.60923  1.07267   927281.18919  45.33125  22.53835  53999.70217    51.14089       44.53943   21.80314  31.28277   50.0    0.33613  -21.50464  0.91969 
  -17.40772  0.03867  3.55807     14.30201  1.74886  0.62748   3.43849    0.163      0.2048   12108.5216   8928.91686   1.7385         2760.06702     17.40045  0.00014  53945.99228   3.0073  0.13295   511649.74344   45.7002  22.54154  53999.70217    51.08994       44.49764   21.80314  30.33481   35.5    0.32347   -21.6426  0.99124 
  -11.41834  0.07112  2.39674      14.3453  1.64285  0.91896   5.64247  0.15483     0.08739  12922.51356   8602.42865  1.53281         2850.58004     16.21152    1e-05  53951.98166   5.6207  0.40129   178672.01383  46.47315  22.53123  53997.24875    51.10384       44.50903   19.90722  26.54296   28.5    0.34623  -21.59057  0.98717 
   -13.5895  0.25203  3.81806     14.42943   1.9728  0.76554   4.30074  0.12168      0.0329  10769.14708    6709.9901  2.04324         2675.83823     18.46486  0.00162   53949.8105  2.97532  1.08392   369598.42291  45.83251  22.55205  53999.70217    51.14339       44.54236   20.85518  28.43888   35.5    0.34917  -21.48439  0.93564 
  -18.07272  0.13058  3.25858     14.26611  1.52471   0.5106   2.80885  0.21846     0.40442  15134.90949   9842.87791  1.19126         2678.50895     18.58188  0.00212  53945.32728  3.83809  0.36678   441413.85368  45.78113  22.54703  53997.24875    51.15573       44.51038   20.47918  31.28277   30.0     0.3768  -21.77641  0.97545 
  -18.55069  0.03479  3.32033     13.96688  1.47275   0.8738   1.93516  0.27481      0.2298  15731.21724   9853.74198  1.20904         2539.11321     18.99657  0.00551  53944.84931  2.85672  0.06732  1756058.07243  45.15007  22.49432  53997.24875    51.05553       44.50102   18.01129  25.59499   30.5    0.36406   -21.7833  0.99493 
  -15.90985  0.23555  3.89602     13.96598  1.66685  1.39975   2.87412  0.13332      0.4399  13781.78529   7836.72621  1.52131         2601.65182     16.55353    2e-05  53947.49015  3.25644  0.67699  2747930.17632  44.87049  22.45968  53997.24875    51.05327       44.52155   18.95925  25.59499   47.0     0.3296  -21.64641  0.94466 
  -19.21276  0.03027  3.12837     13.90641  1.41564  0.97262   2.55603  0.23886     0.04828  15413.04953   9923.63701  1.23829         2534.20084     16.95274    5e-05  53944.18724  3.62218  0.07737  1979590.05117  45.13259  22.51601      53996.7     51.1248       44.50934   19.90722  27.49092   22.5    0.48293   -21.7647  0.99452 
  -17.37885   0.0102  3.95674     13.99587  1.86523  1.09979   1.15837  0.32124     0.19207  14750.67917   9815.23988  0.87899         2935.07033     19.12918  0.00748  53946.02115  1.50348  0.01182  2763671.65966  44.90341  22.55248  53997.24875    51.03549       44.48329   19.26752  28.13061   31.0    0.32614  -21.76229   0.9991 
  -15.47943  0.15451  3.75129     14.30911  1.95409  1.03749   3.42518  0.16911     0.38948  12261.52494   5972.51979  1.72147         2754.42244       18.616  0.00229  53947.92057  3.07185  0.52922   615041.04261  45.62253    22.517      53996.7    51.07138       44.50843   19.90722  25.59499   38.0    0.36862    -21.585  0.96814 
  -14.05585  0.06475  3.52473     14.57087  2.07725  0.50877   4.92085  0.13495     0.02713   12739.9214   5506.93775  1.48138         2748.16196     20.01542  0.05756  53949.34415  4.76432  0.31864   172904.88599  46.25428  22.52731  53999.70217    51.09766       44.51316   21.42714  29.38684   30.0    0.40445  -21.68908   0.9843 
  -17.75772   0.1555  3.67173     14.03692  1.73138  1.36793   2.96769  0.18136     0.16961  13861.87257   8490.88088  1.24953         2847.42611     16.68297    3e-05  53945.64228  3.40165  0.46149   1828525.5985  45.11539  22.53973  53997.24875    51.15267        44.5164   18.95925  30.33481   36.5    0.34084  -21.72792   0.9678 
  -14.86391  0.41015  3.78333     14.22514  1.73961   0.8778   3.68799  0.13419     0.28661  13258.60187   9769.57835  1.63376         2656.66115      19.0256  0.00589  53948.53609  3.86734  1.51262   819839.99433  45.43982  22.52581  53997.24875    51.07083       44.55082   19.90722  25.59499   32.5    0.35706  -21.65416  0.89729 
   -16.3176  0.25385  3.98139     14.28141  1.74775  0.72148   5.67195  0.06723     0.16114  11240.99322   7260.88329  1.66165         2756.33599     18.15077  0.00079   53947.0824  4.27532  1.43981   703952.85232  45.46371  22.55898  53997.24875    51.09897       44.51058   18.95925  27.49092   48.5     0.3366  -21.51894  0.89281 
  -16.21985  0.11367  3.72119     14.08128  1.76393  1.18082   3.66181  0.14114     0.22407  13609.95138   8720.39384  1.32765         2801.65319     18.37798  0.00133  53947.18015   4.0461  0.41625  1559909.44336  45.18086   22.5343  53997.24875    51.06768       44.50707   17.06333  27.49092   36.5    0.34448  -21.71467  0.97091 
  -12.43307  0.19147  3.33138     14.45192  1.86549  0.75088   6.14894  0.09224     0.23756  10239.52072   9577.20019  2.28213         2672.75937     16.82678    4e-05  53950.96693   3.8458  1.17736   239891.98582  46.11437  22.54246  53997.24875    51.12002       44.51423   19.90722  28.43888   32.0    0.32332    -21.446  0.94198 
  -13.72232  0.08274  3.23562     14.29846  1.87003  0.98255   3.94012  0.23071     0.18264  15100.83079   8860.11021  1.32607         2571.08382     17.09918    7e-05  53949.67768  5.35968  0.32601   459887.91084  45.85813  22.52499  53999.70217    51.11275       44.50871   21.42714  29.38684   28.0    0.37018  -21.72995  0.98418 
  -18.67677  0.16613  3.57643     14.07708  1.60343  0.54602   2.63466  0.12565     0.05414  13390.90906   9584.42578  1.35079         2689.11778     18.26411  0.00102  53944.72323   2.8182   0.4377  1335356.95086   45.2414  22.51762  53997.24875    51.08923       44.52745   21.16345  29.07858   32.5    0.31409  -21.68346  0.96678 
     -16.74  0.05457  3.38925     13.90435  1.53286  1.20825   3.94165  0.09169     0.06223  12657.71945   5037.97108  1.43381         2756.08146     20.00231  0.05585     53946.66  3.76718  0.21509  2539982.29404  44.98931  22.65742  53999.70217     51.0391       44.50991   20.17685  26.27333   45.0    0.31104  -21.68542  0.98428 
  -19.95013  0.16642  3.49214     13.94967  1.39481  0.87649   2.58978  0.11528     0.09133  10519.33541   7900.58794  3.04618         2278.99483     17.34974  0.00012  53943.44987  1.70949  0.43098  1991480.77056    45.028  22.57134  53997.24875    51.07636       44.51672   18.01129  25.59499   49.5     0.2782  -21.39994  0.96226 
  -15.73467  0.10354  3.55443     14.11828   1.6941   1.1492   2.97918  0.17831     0.21321  13006.56835   9423.01585  1.15695         2923.55355     17.19524    9e-05  53947.66533  3.00642  0.30845  1152724.78525  45.33452  22.59358  53999.70217     51.1228       44.49339   19.26752  28.13061   31.5     0.3811  -21.64147  0.97901 
  -13.75989  0.27736  3.81529     14.72362  1.86032   0.3498  10.12376  0.06766     0.03485  12620.40533   9253.04054  1.63002         2738.57837     17.91954  0.00046  53949.64011  9.61868  2.80791    89788.56312  46.42216  22.55741  53999.70217    51.06292       44.50751   19.26752  27.18265   33.5    0.32632  -21.57166  0.83734 
  -12.38332  0.14651  2.18749     14.00272   1.2967   1.3181   3.09427   0.2786     0.33514  13950.78623    9904.4886  1.40759         2942.56673     20.07376  0.06584  53951.01668  3.59239  0.45333   568981.50054   45.9467  22.52152  53997.24875    51.16099       44.53978   21.80314  31.28277   27.0    0.36362  -21.80288  0.98266 
  -17.14506  0.01354  3.26324     14.21203  1.62934  0.72349   2.68625  0.22638     0.19075  12152.23605   4754.18174  1.61442         2686.32381     16.53496    2e-05  53946.25494  2.36639  0.03637    606840.1186  45.67048  22.54727  53999.70217    51.06545       44.49567   19.90722  27.49092   41.0    0.32222   -21.6352  0.99775 
  -14.72838  0.07185  3.01969     14.09187  1.62556  1.43471   2.87771  0.28925     0.15132   14920.4075   9720.49989  1.15379         2709.90717     18.90047  0.00442  53948.67162  3.82152  0.20676   901557.63759  45.56493  22.57735      53996.5    51.03485       44.49555    15.1674  28.43888   26.0     0.3867  -21.76062  0.98914 
  -16.48582  0.01909  2.95862     14.24841  1.65936  0.78264   2.77415  0.23765     0.07607  12785.70891   9183.52466  1.46598         2898.99866     20.12207  0.07359  53946.91418  2.70525  0.05295   429660.08987  45.91348  22.58867  53999.70217    51.05582       44.49095   19.22888  26.27333   28.5    0.37184  -21.73647  0.99739 
  -14.33045  0.05839  2.82226      14.0423  1.47685  1.45052   3.86885  0.20884     0.06906   15001.1906   8991.66007  1.22677          2646.2395     17.16588    8e-05  53949.06955   5.1935  0.22591   898958.44907  45.58325  22.55967  53997.24875    51.04904       44.48696   17.06333  26.54296   25.5    0.38785   -21.7439  0.98805 
  -14.76256  0.07163  2.55683     14.44259  1.53609   0.4855    4.1075  0.24518     0.03235  13728.90718   8973.63828  1.58025         2600.60285      19.6067  0.02246  53948.63744  4.61824   0.2942   121463.39959  46.55541  22.60486  53997.24875    51.10414       44.51841   20.47918  30.33481   24.5    0.40094  -21.66181  0.98801 
   -14.5293  0.07307  3.74165     14.26812  1.82788  1.07825    5.0393  0.09051     0.05547  10217.43507   7732.63075  2.01841         2665.60598     18.47235  0.00165   53948.8707   3.1382  0.36824   691259.30203  45.54503  22.59466  53999.70217    51.04084       44.47666   18.31956  27.18265   37.0    0.35206  -21.40073  0.97543 
  -14.17937  0.44004  4.71683     14.38836  2.08043  0.96288   9.75224  0.03793     0.19807  10397.48609   8090.92381  1.83489         2891.78488     16.33936    1e-05  53949.22063   6.2891  4.29139   718715.87329  45.38314  22.47527  53999.70217    51.08353       44.50406   19.90722  27.49092   57.0    0.31805  -21.52742  0.72192 
  -13.57956  0.34464   3.4085     14.55753  1.76943  0.46951   4.43168  0.13468     0.14543  10774.87112   9506.06254  1.95054         2776.51239     16.91597    5e-05  53949.82044  3.06916  1.52735   146457.52874  46.28584  22.56993  53997.24875    51.12064       44.50091   19.90722  27.49092   33.5    0.32581  -21.50676  0.91673 
  -16.21577  0.06054  3.65986     14.12503  1.76521  1.37554   4.16183  0.11827     0.13844  10771.03153   9721.71227  2.14951         2588.29682     18.24507  0.00098  53947.18423  2.88022  0.25197  1234452.86056  45.29724  22.46611  53997.24875    51.16615       44.52638   21.80314   33.1787   34.0      0.327  -21.50157  0.98286 
  -16.79991  0.05011  3.53435     14.31535   1.5687  0.45581   2.18953  0.20398     0.42467  12036.12697   9456.39664  1.97659         2534.39816      17.7176  0.00029  53946.60009  1.89214  0.10972   425859.75998   45.7385  22.51997  53999.70217    51.04672       44.54392   22.75111  22.75111   36.5    0.33098  -21.57644  0.99156 
  -16.44952  0.45854  3.86413     14.28417  1.84208  0.89052   4.61009  0.12328       0.023  12407.71644   5592.97449   1.6791          2677.1856      17.3039  0.00011  53946.95048   4.2337  2.11389   690055.81334  45.52117   22.6209      53996.7    51.03367       44.49822   18.95925  27.49092   32.0    0.40886  -21.60363  0.86741 
  -15.84279  0.14167  3.95107     14.17082   1.7373  0.87932   4.86557  0.07313     0.41678  10817.30669   7843.25201  1.73975         2843.98816     16.33891    1e-05  53947.55721  3.39625   0.6893  1146760.76476  45.25582  22.56661  53997.24875    51.12685       44.50972   20.21549  29.07858   46.5    0.32916  -21.52141  0.94584 
  -11.15836  0.22063  3.20242     14.26941  1.76173  1.16109   3.82329  0.17348     0.08236  13140.84076   4909.40248   1.8854         2602.96461     17.45047  0.00016  53952.24164  3.93832  0.84352   485164.70781  45.81794  22.57907  53999.70217    51.07482       44.50171   22.37511  28.43888   33.5    0.38082  -21.60438  0.95742 
  -18.90228  0.15203  3.72366     14.16564  1.80175   0.6281   2.44728  0.24131     0.06081  16735.06766   9860.79683  0.89417         2516.01159     17.32461  0.00012  53944.49772  4.08852  0.37205  1081882.59141  45.34842  22.44935  53999.70217    51.11024       44.52886   20.21549  28.13061   23.0    0.48598  -21.85001  0.97441 
  -19.14381  0.03736  3.56155      14.2576  1.67576  0.54281   2.93109  0.19981      0.0482  14641.12834   9781.94119  1.38829         2559.73035     16.84517    4e-05  53944.25619  3.74805   0.1095   602714.52959  45.60967  22.46659  53997.24875    51.06173       44.49582   21.16345  28.13061   24.5    0.43491  -21.73316  0.99224 
  -18.09913  0.31968  3.18958     13.87816   1.3953  1.40949   3.49747  0.15069     0.15113  13945.50898   5778.83687  1.37018         2582.96214     19.54626  0.01954  53945.30087  4.05742  1.11809  2310033.04174  45.04243  22.58656  53999.70217    51.13154       44.51661   19.26752  28.13061   45.5    0.32602  -21.71489  0.92231 
  -17.68995  0.27539  4.10262     14.31238  1.86567  0.56022   4.97042  0.07354     0.06689   12194.9842   5045.47152  1.27806         2870.93372     19.84314  0.03871  53945.71005  4.40944   1.3688   691854.79826  45.47354  22.50616  53997.24875    51.08988       44.52381   19.22888  26.27333   50.0    0.30005  -21.63722  0.90032 
  -16.22941  0.13733  3.54578     14.27544  1.64274  0.64079   3.95098  0.12261     0.13981  11919.80456   9053.10051  1.62246         2693.99931      18.0334   0.0006  53947.17059  3.34865   0.5426    539414.9143  45.65307  22.54457  53999.70217     51.0091       44.49124   21.42714  25.59499   36.0    0.34957  -21.57516  0.96216 
  -13.15294  0.10134  3.39362     14.58346  1.85605  0.46859   5.04363   0.1231     0.06173  11856.72045   7245.47351  1.82162         2681.34577     17.39659  0.00014  53950.24706   4.2296  0.51112   135146.66844   46.3453  22.48491      54000.5    51.07282       44.50303   20.85518  29.38684   34.0    0.35826  -21.54953  0.97273 
  -16.91035  0.13976  3.35849     14.33758  1.51706  0.46867   3.75658  0.13513     0.07575  12687.19689   9440.66916  1.45139         2586.28986     17.32052  0.00012  53946.48965  3.60704  0.52502   335695.96825  45.87162  22.59212  53997.24875    51.04798       44.49114   19.22888  27.22129   31.5    0.34377  -21.58866  0.96293 
  -15.58147  0.17621  4.02144     14.56581  1.95133  0.42041   3.35659  0.11286     0.03161   9708.13963    7361.8709  2.02363         2677.75501     19.79718  0.03483  53947.81853  1.88711  0.59147   216413.93377  46.01513  22.60742  53999.70217    51.14278       44.60275   20.47918  26.54296   37.5    0.33648   -21.4544  0.95918 
  -10.87186  0.03208  2.47872     14.15546  1.52293  1.43356   3.52932  0.23962     0.30799  13719.52164    6997.3813  1.37065            2863.88     19.12596  0.00742  53952.52814  3.96274  0.11321   424641.96855  46.03505  22.56033  53999.70217    51.06111       44.49618   19.26752  27.18265   31.0    0.37737  -21.65936  0.99559 
  -14.31269  0.25797  4.21509     14.29078  1.96375   1.0642   5.89529  0.07018     0.22447  10911.17653   6707.46942  1.80427         2823.86478      17.9051  0.00045  53949.08731  4.18674  1.52079   849095.55115  45.38336  22.60812  53999.70217    51.14146       44.54724   20.17685  28.16925   46.0    0.35713  -21.50734  0.89375 
  -14.91695  0.24535  3.83559     13.90703  1.54666  1.21026   2.52288  0.08862      0.3141  10676.71943   7825.69487  1.95167         2597.40952     17.12737    7e-05  53948.48305  1.71553    0.619  3242060.10916  44.77976   22.5624      53996.5    51.01918       44.49534   16.11537  27.49092   61.5    0.27101   -21.4261  0.94481 
  -13.35506  0.07955  3.17009     14.28668  1.59125  0.70307   2.87673  0.21859     0.26097  13474.87916   9334.50668  1.55001         2761.43164     18.08408  0.00067  53950.04494  3.11584  0.22886   396589.56319   45.8701  22.55821  53999.70217    51.05751       44.49768   19.90722  27.49092   28.5    0.38251  -21.66019  0.98635 
  -20.21115  0.02759  3.30691     14.20736  1.52093  0.53144   2.51952  0.22866     0.22165  12371.38318    9456.4123  2.08064         2368.15134     17.11494    7e-05  53943.18885  2.30028  0.06952   594363.40421  45.63806   22.5394      53996.7    51.08844       44.50004   18.95925  26.54296   36.0    0.29901  -21.60654  0.99508 
   -9.03148  0.04939  2.32497     14.23978  1.52113  1.14754   5.15888  0.14798     0.07728  11607.90933   8763.65694  1.73335         2741.07005     18.62989  0.00237  53954.36852  4.14658  0.25482   253078.80067  46.31492   22.5819  53997.24875     51.1035       44.52193   18.95925  27.49092   28.5    0.34524  -21.48222  0.99135 
  -17.91721  0.31298  3.81985     14.05015  1.74197  1.20524   3.15845  0.14936     0.10932  13958.30946   7006.29282  1.08415         2874.07213     19.16913   0.0082  53945.48279  3.67085  0.98854  1873447.21378  45.07315  22.57653  53997.24875    51.02938       44.50294   18.31956  27.18265   41.0    0.33823  -21.71429  0.92886 
  -17.35401  0.07032  3.16182     14.04051  1.50615  1.08473   3.66766  0.18064     0.24211  13863.12831   7647.32235  1.50517         2608.96042     16.36041    1e-05  53946.04599  4.20473  0.25793  1160202.88873   45.3823  22.56012  53997.24875    51.09295       44.53177   18.31956  27.18265   36.0    0.34914  -21.69321  0.98336 
   -9.62152  0.07094  2.91642     14.34711  1.81478  1.13832   4.59544  0.15554     0.11148  12023.11599   8604.27488  1.80159         2774.53805     17.29006  0.00011  53953.77848  3.96267  0.32602   289817.08302  46.13584  22.46935  53999.70217    51.15432       44.51689   21.42714  29.38684   29.5    0.37822  -21.50919  0.98663 
  -16.92864  0.12047  4.04102     14.31792  1.93427  0.59971   3.12313  0.16918     0.09872  15021.60365   8433.19362  1.18902         2763.50405      18.1446  0.00078  53946.47136  4.20388  0.37625   678378.71266  45.51091  22.52449  53999.70217    51.11179       44.49245   21.80314  30.33481   33.0     0.3531  -21.78096  0.97285 
  -16.35541  0.11134  3.27536     14.33521  1.62578  0.54077    3.8944  0.16501     0.07586  13092.61077   9539.24461  1.48101         2765.16903     18.93909  0.00483  53947.04459  3.98217  0.43359   345917.93395  45.91042  22.59147  53997.24875    51.02801       44.48718   19.26752  27.18265   29.5    0.35565  -21.69436  0.97353 
  -19.40254  0.45655  5.19624     14.05394  2.00969   1.3919   8.15003  0.02713     0.20012   9916.61913   3953.44087  1.73301          2730.6504     17.03245    6e-05  53943.99746  4.78095  3.72091  3930508.21037  44.54615  22.47322  53997.24875    51.09256       44.49523   20.21549  27.18265   87.5    0.21487   -21.3848  0.69535 
  -12.83977  0.08381  3.18659     14.36486  1.64407   0.6726   4.38895  0.13101     0.08744  11506.42628   9166.62542  1.86643         2612.37046     17.07326    7e-05  53950.56023  3.46632  0.36786   288852.10026  46.01744  22.52123  53997.24875    51.07265       44.52727   21.16345  27.18265   30.5    0.35384  -21.49405   0.9791 
  -18.42907  0.02298  2.75206     14.39955  1.50584  0.41464   4.97843   0.1296     0.02629  10401.31244   9292.10217  1.41409         3909.70466     16.18078    1e-05  53944.97093  3.21289  0.11441   168197.55933  46.34149  22.56565  53997.24875    51.17473       44.51244   20.85518  31.28277   30.5    0.33288  -21.78408  0.99437 
  -15.65179  0.18212  3.34036     14.18994  1.72051  1.07783   2.89406  0.24455     0.36797  14123.73105   8935.28504  1.45341         2703.12041     18.28295  0.00107  53947.74821  3.44377  0.52708   743333.35339  45.58573  22.53058  53997.24875    51.14451       44.51095   18.95925  27.49092   30.0    0.37799  -21.70261  0.96948 
  -16.24959  0.27011  4.03568     13.97925  1.64551  1.28537   2.21517  0.13182     0.19006  11969.67681   8320.22223   1.7254         2630.79762     17.22179    9e-05  53947.15041  1.89321  0.59833   2738043.2426  44.83587  22.57167  53997.24875    51.13692       44.50472   18.95925  28.43888   47.5    0.32582  -21.49555  0.94635 
  -17.73082  0.23002  3.42575     13.85675  1.52128  1.44491   2.45763  0.17947     0.16878  14546.60283   5468.71292  1.14948         2724.83959     18.66265  0.00255  53945.66918  3.10218  0.56531  3206566.50049   44.8755  22.57422  53997.24875    51.12784       44.49488   20.85518  32.23073   45.5    0.31966   -21.7595  0.95834 
  -16.76687  0.23131  3.08428     13.86126  1.45407  1.52942   2.52926  0.13732     0.06739  11900.64492   3110.07617  1.73507         2575.71015      20.3939   0.1376  53946.63313  2.13679  0.58504  2433288.64761  45.06693  22.51955  53999.70217    51.08157       44.49992   20.85518  29.38684   43.5    0.32015   -21.6976  0.96267 
  -16.50641  0.14135  3.21301     14.33517  1.61269  0.54861   4.03951  0.13407     0.03532   11265.9394   8273.71167  1.63558         2836.09529      19.8007  0.03511  53946.89359  3.05838  0.57098   330256.66701  45.94372  22.55567      54000.5    50.97882       44.46732   19.90722  24.64703   32.0    0.33836  -21.61659  0.96633 
  -16.11582  0.43748  4.10752     14.02481  1.70985  1.37219   3.69089  0.07698     0.40061  11065.56371   7533.76509  1.41002         3084.75517     17.30653  0.00011  53947.28418  2.69591  1.61469  2389528.48075  44.89633  22.57113  53997.24875    51.15714       44.52548   18.95925  29.38684   56.0    0.33271  -21.54916  0.87023 
   -9.06854  0.01607  2.14426     14.53254  1.64749  0.48051   4.61522  0.27217     0.01241  12844.74183   6650.04077  2.09646         2569.36656     16.98714    5e-05  53954.33146  4.54224  0.07419    60548.57883  47.04101  22.58991  53999.70217    51.08197       44.53156   20.85518  27.49092   27.0    0.43748  -21.56034  0.99809 
  -17.32211  0.16427   2.8799     14.12397  1.42351  0.64613   2.24428  0.21472     0.07509  12331.53858   9558.40548  1.36583         2797.33792     20.30243  0.11147  53946.07789  2.03582  0.36866   619411.64727  45.71147  22.54925      53996.5    51.08287       44.50388   19.90722  26.54296   30.0    0.34514  -21.73344   0.9786 
  -14.44686  0.18927   3.3602     14.31803  1.69423  0.78102   3.83572  0.16129     0.05879  12148.74958   8062.58236  1.73462         2623.89568     18.43206   0.0015  53948.95314  3.37705  0.72599   410641.94214  45.83162  22.56518  53999.70217    51.07744       44.55688   19.26752  26.23469   31.5      0.365  -21.53402  0.95708 
  -15.87688  0.10714  3.48048     14.09703  1.51672  0.97192   4.55314  0.08575      0.0856  11174.98524    9422.5138  1.80027         2747.69284     16.21161    1e-05  53947.52312  3.39182  0.48784  1091273.77259  45.32854   22.5489  53997.24875    51.12068       44.52556   21.80314  29.38684   35.0    0.35958  -21.51176  0.96301 
   -17.2605  0.10381  3.63261     14.47066  1.71143  0.37797   4.11373  0.13636      0.0893  13595.65697   8970.83802  1.34851         2664.13214     17.67627  0.00026   53946.1395   4.5359  0.42705   240042.61036  46.00148  22.47151  53997.24875    51.12795       44.52889   19.22888  27.22129   33.5    0.34624  -21.68089  0.97029 
  -15.04207  0.26356  4.87934     14.32406   2.1899  0.68789   3.35825  0.07782     0.32229  10924.28162   3226.00069  1.71999         2868.76226     17.09424    7e-05  53948.35793  2.39071  0.88511  1088557.07613   45.1957  22.51566  53997.24875    51.11831       44.51328   19.90722  27.49092   61.5    0.30929  -21.52908  0.92598 
  -15.64798  0.15003  3.67443      14.5027  1.84734  0.45526   2.22808  0.19538     0.05716  11058.98073   7850.57207  1.86726         2625.75196     20.06687   0.0648  53947.75202  1.62551  0.33428   228735.23163  46.04568  22.52247  53999.70217    51.13265       44.53006   20.85518  28.43888   33.5    0.37779  -21.55396  0.97869 
  -13.94406  0.35423  3.29982     14.23632  1.64975  1.03738   5.38773  0.10336     0.10958  11719.20633   7980.81216  1.64534         2868.55789     17.59361  0.00022  53949.45594  4.41397  1.90848   561784.59079  45.69971  22.52405  53997.24875    51.07698         44.483   18.31956  28.13061   38.0    0.35609  -21.57393   0.8943 
   -8.46664  0.14861   3.0121      14.8087  2.17781  0.44222   4.59668  0.17559      0.3828  13022.48364   3899.03445  1.78892         2778.82294     16.76828    3e-05  53954.93336  4.65007   0.6831    44275.79862  47.00296  22.52434  53999.70217    51.08546       44.50624   19.90722  29.38684   32.5    0.38732   -21.6015  0.97762 
  -16.59403  0.15254  3.66374     14.01386  1.56849  1.04284   2.76248   0.1209     0.25668  11290.40069    8269.9137  1.76592         2845.70093     16.38781    1e-05  53946.80597  2.10061   0.4214  1834146.18516  45.07305  22.54072  53999.70217    51.09598       44.51212   21.80314  30.33481   46.0     0.3421  -21.56648  0.96599 
  -16.87668  0.26804   3.8753     14.10101  1.76266  1.10928   3.96525  0.12403      0.1129  12958.65843   9090.62309  1.56761         2631.51764     18.99595   0.0055  53946.52332  3.97208  1.06283  1543756.03828  45.14982  22.56172  53999.70217    51.13328       44.55942   20.74881  29.11721   37.0    0.33149  -21.64373  0.92326 
  -17.96328  0.01016  3.92327     13.96964  1.82312  1.03674   1.34019  0.30235     0.16205  16780.26975   9584.73829  0.91845         2570.90377     17.72399  0.00029  53945.43672  2.25109  0.01361  2996686.35878  44.86572  22.39473  53994.79533    51.07646       44.47199   19.90722  31.28277   28.0     0.3821  -21.81118  0.99895 
  -15.33067   0.0048  2.99708     14.17075  1.65853  1.20794   4.78623   0.1342     0.02559  11349.64756   7706.46602   1.2027         3350.54113     18.30869  0.00113  53948.06933  3.67778  0.02296   630149.88145  45.73573  22.56705  53999.70217    51.09583       44.51936   20.21549  27.18265   29.0    0.39387  -21.61106  0.99884 
  -12.42557  0.05773  2.89755     14.07122  1.42582  1.48749   9.52472  0.04596     0.10808   9705.57395   8866.07039  1.96366         3006.99058     17.90153  0.00044  53950.97443  5.35207  0.54987    800765.4992  45.59534  22.68164  53999.70217    51.06949       44.45591   20.85518  30.33481   34.0    0.37248   -21.4991  0.96836 
  -14.37692  0.26492  3.86771     14.21839  1.69828  1.04423   9.82088  0.04662     0.12968  11381.34274   7737.99493  1.76525         2834.76324     17.53316  0.00019  53949.02308  7.58865  2.60178   862893.75642  45.38799  22.63299  53999.70217    51.14047       44.56283   18.95925  28.43888   46.5     0.3375  -21.53975  0.82451 
  -14.21482   0.1499  3.92129     14.29305  1.88053  0.88722   5.15887  0.09472     0.05524   12040.0661   4725.35198  1.55042         2812.73798     17.89483  0.00044  53949.18518  4.46107  0.77331   696387.30625  45.51342  22.50956      54000.4    51.11053       44.51326   21.42714  29.38684   39.0    0.37111  -21.57073  0.94711 
  -19.63412  0.01984  3.15789     13.87028  1.42244  0.99554   2.05035  0.23528      0.2816  15139.64955   9442.21088  1.10647         2731.30174     19.11495  0.00724  53943.76588  2.80341  0.04068  2393807.91991    45.044  22.53794  53997.24875    51.11492       44.54489   20.78745  30.02654   36.0    0.31368  -21.80635  0.99707 
  -15.54454  0.24006  4.41671     14.26641  1.86871  0.80775   7.82793  0.04434     0.11889  11804.42396   6900.13793  1.77929         2734.23818      16.5976    2e-05  53947.85546  6.50675  1.87916   992490.08001  45.25346  22.53927  53999.70217    51.09223        44.5229   19.90722  29.38684   53.5    0.33353  -21.54583  0.85112 
  -14.21099  0.30469  3.59487     14.08356  1.55058    1.153   3.32495  0.11857     0.06239  12110.38112   8595.89177  1.61675         2648.73693     17.54243  0.00019  53949.18901  2.90889  1.01307  1266331.69078  45.24543  22.53072  53999.70217    51.04163       44.51336   22.75111  24.64703   34.5    0.38212  -21.52858  0.92397 
  -12.54063  0.12084   3.2573     14.24506  1.63558  0.97548   4.76937  0.11649     0.14735  12079.17728   7270.53595  1.82678         2633.41957     17.65119  0.00025  53950.85937  4.15109  0.57634   521292.67687  45.73972  22.53491  53997.24875    51.11564       44.51623   21.80314  30.33481   35.0    0.39404  -21.52085  0.96597 
  -16.74073  0.17867  4.44154     14.25808  2.01938  0.81084   3.51377  0.10257      0.2034  12148.68366   5071.81317  1.53835         2803.74173     17.13009    7e-05  53946.65927  3.09356   0.6278  1127032.66079  45.22706  22.59041  53997.24875    51.05392       44.50734   19.26752  28.13061   51.0    0.33831  -21.58921  0.94989 
  -16.64835  0.10089  3.37224     14.11471  1.58651  0.94796   3.71461  0.15784     0.23037  12860.70631   9012.10231   1.4951         2760.20145     18.53143  0.00189  53946.75165  3.66497  0.37477   987813.62649  45.41878  22.48544  53997.24875    51.11554       44.51939   21.16345   30.9745   33.5    0.35476  -21.64594  0.97477 
  -15.14238  0.07693  3.72196     14.25873  1.92862  1.05343   3.20228    0.198     0.14429   12600.3068   6923.25706  1.42885         2798.43787     16.92448    5e-05  53948.25762  3.03283  0.24635   753596.25369  45.53541  22.57554  53999.70217    51.15313       44.58338   20.85518  27.49092   36.5    0.35733  -21.61413  0.98483 
  -10.19754  0.00733  2.00983     14.64168  1.28696  0.27416   4.57449    0.182     0.14054  11685.76467   9840.96764  1.71642          2816.7887     18.30012  0.00111  53953.20246  3.72636  0.03352    25138.99038  47.37174  22.54547  53997.24875    51.07406       44.49102   19.90722  27.49092   27.0    0.33569  -21.52481   0.9989 
  -20.06958  0.03956  3.40334     14.19357  1.56428  0.48818   2.82658  0.19306     0.12995  14884.67163   9532.69747  1.25982         2511.00946     17.73756   0.0003  53943.33042  3.73566  0.11181   689921.70706  45.56055  22.54859  53997.24875    51.05888        44.5119   21.42714  26.54296   32.5    0.31531  -21.77081  0.99193 
  -14.72248  0.03411  3.55214     14.20792  1.75102  0.97068    6.3457  0.07416     0.05678  11114.95461   7489.99738  1.65479         2981.21144     16.21228    1e-05  53948.67752  4.67652  0.21645   787489.78624  45.51491  22.53577  53997.24875    51.06703       44.50598   18.95925  25.59499   38.0    0.37532  -21.59116  0.98593 
  -14.54678  0.18052  2.83774      14.1699  1.80952  1.12509   3.20194  0.22981     0.07329  15020.64226   7375.04549   1.3766         2537.91382     20.51621  0.18236  53948.85322   4.3094  0.57802   618772.44581  45.82893  22.55581  53997.24875    51.13684       44.50773   20.74881  31.01314   29.5    0.39702  -21.93372  0.97746 
  -13.62896  0.10553  3.29083     14.26903  1.90569  1.14663   4.82578   0.1757     0.08538  13411.53085   7849.65494  1.35839         2798.95649     17.06561    6e-05  53949.77104  5.17787  0.50927   555171.19986  45.76986  22.57522  53999.70217    51.05594       44.49826   20.85518  28.43888   32.0      0.336  -21.67532  0.97537 
  -17.42131  0.18039  3.92346     14.15681  1.67477  0.66123    5.5624   0.0593     0.17257  12077.01387    8546.4536  1.49644         2742.89652     18.97028  0.00519  53945.97869  4.83959  1.00341  1162776.50873  45.23997  22.65517  53997.24875    51.08112       44.50837   16.11537  32.23073   50.0    0.29262  -21.57905  0.91945 
  -15.54414  0.45611  3.62438     14.39415  1.84384  0.77936   4.91648  0.12948     0.44182  12182.01804   8753.26261  1.91617         2642.87015     17.82622  0.00037  53947.85586  4.35231  2.24248   366194.92551  45.85239  22.52544      54000.5    51.12169       44.53408   20.85518  28.43888   36.0    0.33417  -21.57429  0.87578 
  -14.07683  0.02282  3.79415     14.28553  1.88228   0.8038   2.29844  0.25872     0.32189  14832.43463   9068.06131  1.32252         2820.41643     18.66096  0.00254  53949.32317  3.01638  0.05245    675575.1768  45.55563  22.57759  53999.70217    51.10952       44.50651   20.17685  27.22129   30.0    0.39579  -21.75272  0.99647 
   -17.9632  0.04075   3.3271     13.88587  1.53214  1.21647   2.13732  0.26493     0.23087  16849.29016   7169.68027   0.8525         2700.66745     18.99643  0.00551   53945.4368   3.6196  0.08711  2663877.42042   44.9845  22.54458  53999.70217    51.11404       44.50935   21.42714  29.38684   39.0    0.34404  -21.87491   0.9938 
  -18.28739  0.02496  3.38145      14.1151  1.54439  0.74314   2.44761  0.25762     0.17474  15033.82774   9957.89432  1.30275         2458.69187     17.71232  0.00029  53945.11261  3.29996  0.06109   965121.64863  45.41481  22.59894      53996.5    51.04797       44.49352   17.06333  28.43888   27.5    0.38531  -21.72354  0.99558 
  -15.30274   0.1169  3.64432     14.11794  1.63628  1.09101   5.63668  0.06914     0.24674  10591.73062   6431.21171  1.86274         2744.37734     19.16076  0.00804  53948.09726  3.77211  0.65895  1172276.62388  45.29044  22.52644  53999.70217    51.03383       44.49102   19.26752  27.18265   46.5      0.347  -21.49034  0.95171 
  -16.30282  0.34227   3.5335     14.10122  1.78828  1.50139   2.38793  0.25066     0.32673  13214.56663   6407.17401  1.27934         2810.63509     19.66388  0.02562  53947.09718  2.48745  0.81731  1300853.65633  45.31064  22.50031  53997.24875    51.14102       44.53446   21.16345  29.07858   42.0    0.33881  -21.71589  0.95081 
  -14.09033  0.06354  2.89642     14.17339  1.58539   1.1128   2.44844  0.28417     0.20459  11931.89456   9117.18731  1.70627         2702.08303     18.12546  0.00074  53949.30967  2.07939  0.15557   555767.23406  45.80036  22.50522  53997.24875    51.13903       44.50871   20.21549  30.02654   30.0    0.34528  -21.56424  0.99219 
    -6.3887  0.02331   1.6946     14.21707  1.40818  1.56963  14.81651  0.05022        0.03  10481.83571   5778.98578  2.24306         2787.98698     19.46884  0.01635   53957.0113  9.71064  0.34544   138184.57654  46.81891  22.58355  53999.70217     51.0547       44.49278   18.95925  28.43888   33.0    0.34277  -21.44948  0.99332 
  -14.06368  0.06637   3.6297     14.27247  1.69774  0.84878  11.73307  0.03758     0.03218  10499.61059   6724.14202  1.74966         2829.93028     17.41909  0.00015  53949.33632  7.71587  0.77872   592238.92334  45.60648  22.62331      53996.7    51.10557        44.5676   19.90722  26.54296   41.5    0.35063  -21.45837   0.9469 
   -9.99614  0.39239  3.35375     14.46366  1.99949  0.99356   4.02299  0.16082     0.13957  12247.72474   6336.59133  1.69118         2701.02185      17.6505  0.00025  53953.40386  3.59987  1.57858   246870.73081  46.12623  22.62269  53997.24875    51.02834       44.48533   19.90722  27.49092   36.0     0.3791  -21.49219  0.93017 
   -9.59106  0.02843  1.97255     14.24088  1.24826  0.77457   5.90979  0.12628     0.04836  12026.73994   7171.44037  1.88315         2750.94874     19.11104  0.00717  53953.80894  5.09912  0.16803   148738.30828  46.60267  22.52854  53997.24875    51.07776       44.51679   19.26752  27.18265   30.5     0.3586  -21.51714  0.99448 
   -15.1357  0.16725  3.30629     14.22472  1.66664  0.91442   4.11708   0.1584      0.0599  12749.42359    8969.6895  1.53052         2702.52705     17.44768  0.00016   53948.2643  3.99206  0.68857   601044.98045   45.6731  22.48198      54000.4    51.12164       44.48443   23.69907  32.23073   29.5    0.36739  -21.61163  0.95945 
  -13.45644  0.38481  3.57201     14.31484  1.62829    0.756   4.47284  0.10638     0.23923  11836.96855   9257.90212  1.87499         2746.04235      17.3682  0.00013  53949.94356  3.73845  1.72118   452584.89742  45.71905  22.58179  53999.70217    51.03138       44.48415    17.3716  28.13061   34.0    0.37654  -21.53553  0.88679 
   -15.6811  0.08595  4.27783     14.14944  1.93138  1.19847   4.32324  0.06716     0.11558   9949.87973   6447.47317  1.62897         3102.52004     16.74996    3e-05   53947.7189  2.55313   0.3716  1649131.97741  45.07501  22.55045  53997.24875    51.11649       44.53408   21.12481  29.11721   51.0    0.35292  -21.50813  0.97004 
    -11.073  0.14315  2.71035     14.26838  1.66942  1.12205   4.09364  0.19162     0.03958  12847.04331   6783.06023  1.68268          2850.2116     16.34362    1e-05    53952.327  4.03036  0.58602   330880.94498  46.10569   22.5249  53999.70217    51.10996       44.50634   21.42714  29.38684   29.0    0.38587  -21.62317  0.97668 
  -11.72743  0.10418  3.11269     14.26666  1.83323  1.19383   3.45905  0.21538     0.31254  13699.09672   5237.42274  1.50402         2827.39076     19.57549   0.0209  53951.67257  3.87229  0.36037   483044.23726   45.8618  22.59966  53997.24875    51.02414       44.47977   17.33296  27.22129   33.0    0.38178    -21.697  0.98337 
  -17.25066   0.2197  3.68757     14.11604  1.65421   0.8742   4.30407  0.10618       0.473  12598.00518   9794.09415  1.81688           2583.649     19.02814  0.00593  53946.14934  4.07483  0.94562  1224087.64823  45.26614  22.52941  53999.70217    51.10297       44.53082   21.42714  28.43888   36.0    0.33518  -21.63544  0.93135 
  -17.85847  0.02031  3.32199       14.122  1.66314  1.06108   4.24437  0.16572     0.42643  13194.14993   9854.89061   1.6553         2538.83802     16.91753    5e-05  53945.54153  4.40761  0.08621    971721.4317  45.45944   22.5495  53999.70217    51.09226       44.51726   20.85518  29.38684   29.5    0.34345  -21.64314  0.99466 
  -13.61836  0.03707  3.27579     14.27433  1.78903   1.0711   4.15077  0.15047     0.04985  11450.62561   7879.05911  1.71596         2786.12962     17.80471  0.00035  53949.78164  3.24649  0.15386   503960.57515  45.78843  22.60209      53996.5     51.2053       44.47218   19.69519  38.13054   31.5    0.35067  -21.51861  0.99176 
  -15.57508  0.14783  3.99335     14.12864  1.76888  1.11425   3.02209  0.13195      0.3059  11673.85001   5687.59771  1.95041          2519.5788     18.85694    0.004  53947.82492  2.45676  0.44676  1448458.20277  45.15296  22.49794  53999.70217    51.04659        44.4947   19.26752  27.18265   47.5    0.33502  -21.50361  0.96444 
  -18.14687  0.19081  3.69352     14.58029  1.70017  0.16986    2.4845  0.12752     0.04418   14440.4609   9876.86749  1.05643         2722.37779     17.03614    6e-05  53945.25313  3.09049  0.47406   148798.92747  46.19186  22.69608  53999.70217    51.10326       44.53195   21.80314  29.38684   27.5     0.3905  -21.70924  0.96482 
  -19.15492  0.08559   4.4317     14.29296   2.0309  0.61169   5.87609  0.05171     0.38578  11029.54307   6659.92697  1.62221         2755.29176     19.49587   0.0174  53944.24508  4.26413  0.50295   961024.59453  45.30066  22.53525  53997.24875    51.09999       44.51308   20.21549  28.13061   61.0    0.28369  -21.53193  0.95969 
   -14.4519  0.33672  4.13624     14.03118  1.65227  1.29692   5.21989  0.05212     0.44896  10951.64821    7835.7117   1.8088         2813.94469     16.49196    2e-05   53948.9481  3.73463  1.75765  2273736.07256  44.89697  22.53341      53996.5    51.08647       44.48893   18.95925  29.38684   55.0    0.32498  -21.49497  0.85238 
  -14.79662  0.49966  4.06265     14.27945  1.91117  1.19283    5.3304  0.08349     0.38526  10592.28306   5530.63757  1.78791         2866.89603     18.62604  0.00235  53948.60338  3.56752  2.66341   808798.07329  45.42469  22.51152  53999.70217    51.14323        44.5342   21.80314  31.28277   51.5    0.32977   -21.5114  0.83259 
  -18.00813  0.13161  4.26037     14.21348  1.85598  0.62882   4.27322  0.06422     0.09548  10852.87585   9205.98608  1.56967         2778.91672     17.86919  0.00041  53945.39187  3.00243  0.56238  1170361.29634  45.21021  22.53528  53997.24875    51.16496       44.61975   20.47918  26.54296   49.5    0.26633  -21.48766  0.95255 
  -16.19939  0.42856  3.41427     14.09251  1.56408  1.07586   5.19611  0.07966     0.05837  10492.67694    4252.5888  1.66738         2992.88198     19.88796  0.04292  53947.20061  3.41254  2.22686  1105747.30208  45.35285  22.46648  53997.24875    51.13572       44.50008   18.95925  30.33481   50.0    0.33042  -21.60644  0.86138 
  -14.56276  0.20262   3.2749     14.33088  1.75027  0.71392   3.50738  0.22785     0.10098  13823.81266   9095.25604  1.60907         2573.36633     16.46996    2e-05  53948.83724  3.99821  0.71065   379807.08059  45.90199   22.5043  53999.70217    51.06713       44.52349   19.90722  27.49092   29.5    0.33429  -21.69159  0.96178 
  -14.14766  0.18564  3.33194     14.23008  1.62129  0.89874   4.76987  0.11774     0.07117  11908.40522     7327.595  1.59828         2728.37802     18.43808  0.00152  53949.25234  4.03498  0.88548    579309.9115   45.6704  22.55209  53997.24875    51.10435        44.5051   18.95925  26.54296   37.0    0.36019  -21.54151  0.94562 
  -14.09971  0.03421  2.87505     14.24742   1.4471   0.7176   5.13352  0.12086      0.0839  11949.26062   7088.56206  1.67136         2804.33046     16.26515    1e-05  53949.30029  4.37245  0.17561   355437.05147  45.96129  22.53115  53999.70217    51.05619       44.52099   20.17685  26.27333   34.5    0.36066  -21.55617  0.99005 
  -17.16054  0.30885  4.02468     13.98316  1.73869  1.23647   2.81733  0.10092     0.06779  11222.71641   6980.28484  1.48885         3032.51392     19.18087  0.00843  53946.23946   2.1167  0.87013  2826067.90993  44.84842  22.54891  53997.24875    51.02789       44.47857   18.95925  26.54296   48.0    0.29626  -21.58188  0.92966 
  -11.07031  0.06603  3.04688     14.31661  1.74112  1.01245    4.8731  0.13045     0.21099  11091.97305   7645.26137    1.862          2751.2636     16.15986    1e-05  53952.32969  3.57644  0.32176   349248.80957  45.99883  22.52144  53997.24875    51.18136       44.52409   18.95925  28.43888   33.0    0.35116  -21.46595  0.98464 
  -14.80514  0.04172  3.17098     14.12302  1.47303  0.86567   3.38205  0.15433     0.21593   11966.8259   8215.72444  1.87848         2593.81434     16.11677    1e-05  53948.59486  2.88912   0.1411   780483.53272  45.54231  22.60943  53999.70217    51.08529       44.47635   19.90722  29.38684   36.0    0.35767  -21.56355  0.99048 
  -15.34348  0.27654  4.37332      14.1936  1.94172  1.26213   5.12064  0.07094     0.41233  10706.60457   6692.64984  1.74376         2841.60861     17.29933  0.00011  53948.05652  3.50151  1.41604  1413894.92663  45.12499  22.48763  53999.70217     51.0828       44.49044   20.85518  28.43888   51.0    0.34427  -21.49589  0.89151 
  -18.76362  0.09189  3.75511     14.43115  1.73473  0.31311   3.09177  0.15456     0.27126   15648.0065   7882.14382  1.34896         2434.57635     18.46041   0.0016  53944.63638  4.51598  0.28411   311876.12359  45.86485  22.47656  53999.70217    51.11368       44.49606   21.42714  29.38684   45.0    0.32294  -21.79258  0.97886 
  -18.89384  0.05286  3.50467     14.03742   1.8127  1.14121   2.57986  0.29285     0.03878  16209.94196   9891.18379  0.83983         2754.13258      16.9092    5e-05  53944.50616  4.04377  0.13637  1740212.09639  45.19728  22.53154  53997.24875    51.03729       44.50217   20.85518  25.59499   21.0    0.54767  -21.82798  0.99169 
  -13.10819  0.23581  3.06146     14.33855  1.74158  0.90489   4.62739  0.14605       0.032  11953.90213   6366.22043  1.68367         2964.73071      17.7968  0.00035  53950.29181  3.94441   1.0912   318801.74549  46.03441  22.56116  53999.70217    51.12282       44.50556   20.17685  28.16925   31.5    0.36776  -21.59806  0.94928 
  -15.31703  0.42193  3.64126     14.23146   1.6883  0.93544   5.57377  0.09532      0.1488  12204.74856   7774.63642  1.56181         2830.68142     18.67594  0.00263  53948.08297  4.95261  2.35173   715907.61249  45.51894  22.45574  53997.24875    51.05118       44.51251   18.31956  26.23469   42.5    0.34622  -21.61067  0.85328 
  -17.49709  0.16532  3.73419     14.10608  1.83907  1.51205   3.50018   0.1881      0.0678  13783.62402   9760.71772  1.18955         2701.82496     16.07743    1e-05  53945.90291  3.96684  0.57864  1460969.14065  45.22441  22.50385  53999.70217    51.07253       44.53564   22.75111  25.59499   27.0     0.3495  -21.68761   0.9622 
  -16.03388  0.20524  3.64986     14.66219   1.6671  0.23396   3.08751  0.15984     0.17126  13860.63965   7255.41581  1.32773         2553.06908     16.56238    2e-05  53947.36612  3.53836  0.63367     97710.1914  46.37631  22.50759  53997.24875    51.05241       44.51534   21.80314  26.54296   41.0    0.35681  -21.66512  0.95444 
  -18.17435  0.04869  3.41783     14.34937  1.45922  0.35657    2.2591  0.19079     0.09432  12919.98394   9887.17482  1.93773         2463.52248     16.24489    1e-05  53945.22565   2.2495  0.10999   316732.32456  45.86477  22.52408  53999.70217    51.13925       44.52565   21.80314  30.33481   30.5    0.34602  -21.59784  0.99116 
  -14.76566  0.48525  4.04641     14.27574  1.87808  0.94861   4.26005  0.11171     0.26145  12110.43823   7075.98178  1.50444         2790.71658     19.60318  0.02228  53948.63434  3.72702  2.06719   802029.13763  45.42423  22.59139  53997.24875    51.14373       44.54286   20.85518  30.33481   46.5    0.33905  -21.58718  0.86256 
  -14.70132  0.15516  3.82291     14.39558   1.8005  0.56943   3.88488  0.11075     0.10769   11540.4728   7327.57001  1.68453         2791.98535     18.56655  0.00205  53948.69868   3.0864  0.60278   395211.36751  45.76262  22.51412  53999.70217    51.09791       44.50984   20.21549  28.13061   41.5    0.35693  -21.56773  0.95764 
  -16.93082  0.03782  2.67171     14.09215   1.4257  0.96162   3.87493  0.23168     0.02372  13677.67925   8410.78698  1.40859         2528.10768     18.23544  0.00096  53946.46918   4.3243  0.14653   618179.35859  45.77818  22.51383  53997.24875    51.05415       44.50171   19.26752  27.18265   24.0    0.46325  -21.62926  0.99264 
  -13.24775  0.02772   2.7192     14.11518  1.56224  1.24079   2.38273  0.33248     0.08911  11877.31478   9638.72994  1.95823         2613.48916     16.61789    2e-05  53950.15225  2.00511  0.06604   631069.73176  45.79363  22.49246  53997.24875    51.07562       44.50978   20.78745  28.13061   28.0    0.31516  -21.61571    0.997 
  -10.82215  0.07499   2.4481     14.24242  1.50848   0.9442   6.05459  0.12956     0.05127  11784.50489   7416.72659  1.64999         2805.86818     16.48999    2e-05  53952.57785  5.01574  0.45405   274902.76898  46.23055  22.58149  53997.24875    51.06982       44.51334   18.31956  27.18265   32.5    0.34187  -21.55367  0.98273 
  -17.38125  0.28821  3.70464     13.96209   1.6247  1.36282   3.98243  0.11918     0.05897  14408.88712   7137.83333  1.23815         2591.36619     17.52972  0.00019  53946.01875  4.93215  1.14779  2465504.68857  44.95022  22.50156  53999.70217    51.09222       44.51964   21.42714  28.43888   37.0    0.34355  -21.70995  0.91482 
