 texplosion  fnickel    Pspin  log(Bfield)      Mns  thetaPB   mejecta    kappa  kappagamma      vejecta  temperature    alpha  cutoff_wavelength  log(nhhost)      A_V         MJD0   kenergy  mnickel            TSD   log(L0)  Peak_mag     Peak_MJD  log(E_rad)  log(Peak_lum)  Rise_Time    E_fold  tau_1  delta_m15     r_peak     frac 
  -13.92885  0.30589  1.05735     14.21691  1.89139  1.07245  12.26442  0.33862     0.04417  14658.84743   9014.50751  0.36403          2794.0777     20.58907  0.21568  55255.67115  15.72078  3.75155     72310.8305  47.63799  22.29593  55320.39967    51.36795       44.55944   27.25531  55.80849   37.0    0.14876  -22.13413  0.98262 
   -4.26401  0.24875  0.74838     14.39931  1.71299  0.69394   19.1162  0.29228      0.0342  16064.19887   7467.04752  0.88283         3619.93423     19.39003  0.01364  55265.33599  29.42706  4.75523    14164.61571  48.60315  22.28177  55323.26277    51.20533       44.42737   38.03264  45.30125   47.0    0.13286  -21.99273  0.99097 
  -24.44698  0.05114  2.87748     13.79107  1.48963  0.98186    5.1892  0.20674      0.0901  12686.50512   5625.00764  0.36546         4843.70645     18.88993  0.00431  55245.15302   4.98209  0.26535   2997622.1565  45.04712  22.28765      55322.4    51.21934       44.49898   36.34041  38.93615   49.5    0.19921  -21.92476  0.98525 
   -7.52371   0.1994  0.85354     14.38742  1.77596   0.6946   17.3395  0.33983     0.01471  15818.98144   8436.87193   1.2401         2209.29235     17.61724  0.00023  55262.07629  25.88336  3.45753    20177.01191  48.35097   22.3126  55314.67346    51.18261       44.38812   28.55318  51.91487   35.0    0.21199  -21.90134  0.99035 
  -22.80963  0.08221  2.82543     13.93552  1.51088  0.77102   5.70751  0.21725     0.05233  12584.09854   5342.81873  0.34214         5639.86891     18.41256  0.00144  55246.79037   5.39161  0.46921  1507239.43098  45.36772  22.24888      55325.4    51.27055       44.53883   36.91798  39.65645   41.0    0.22421  -21.94799  0.97583 
  -24.43151  0.05942  2.48592     13.80422  1.52625  0.85887   6.68648  0.23121     0.04092  13360.48062   5226.29788  0.60902         4703.73327     20.23718  0.09592  55245.16849   7.11982  0.39733   2157610.8389  45.32752  22.28489  55314.67346    51.25919       44.39425    28.7395  64.70727   41.5    0.21539  -22.21273  0.98418 
  -23.14346  0.21396  2.78898     13.67663   1.5052  0.96529   3.43124  0.30701     0.04925  13373.48019   6937.52007  0.52529          5195.0848     17.88072  0.00042  55246.45654   3.66072  0.73414  4820000.34763   44.8725  22.25434  55317.53656    51.20747        44.3845   28.22413  57.43541   40.0    0.26281  -22.05218  0.96237 
   -9.16801  0.18812  0.83522     14.38922    1.862  0.76346  20.25271  0.27799     0.02398  14593.54354    8499.9772  0.90202         3435.84523     18.55886  0.00201  55260.43199  25.72952  3.80988    20088.43938  48.39228  22.30653  55320.39967    51.25442       44.42965   28.22413  58.73328   43.0    0.13264  -21.95208  0.99104 
   -24.8621  0.14928  3.24818     14.02784  1.67666  0.59998   4.65077  0.20627     0.11284  12318.24622   4391.62689  0.19992           5338.003     18.11983  0.00073   55244.7379   4.20969  0.69426  1444993.83257  45.31015  22.23032  55314.67346    51.17701       44.40525   33.74467  46.72338   52.5    0.18474  -21.84292  0.95974 
   -9.68296  0.20442  1.19817     14.22246  1.79307  1.16285  14.41537  0.23618     0.01643  12221.39921      8318.51  0.56257         4960.99592     19.09451  0.00691  55259.91704  12.84384  2.94685     85807.6789  47.43188  22.27414  55320.39967    51.21242       44.44709   36.46467  44.00338   40.0    0.15262  -21.92917  0.98088 
  -28.08786  0.17138  3.10962     14.29299  1.81039  0.41691   6.01052  0.17663     0.01775   9624.28195   4909.37781  0.13553         5216.78147     16.32026    1e-05  55241.51214   3.32105  1.03011   421719.96126  45.91618  22.23997      55322.4    51.24185       44.45369   38.03264  46.59912   41.5    0.23179  -21.63505  0.95228 
  -26.83501  0.31805  3.17257     14.04331  1.69186  0.50048   5.32929  0.20444     0.06855  12544.12205   4483.77644  0.32825         4935.53072     17.31575  0.00011  55242.76499   5.00238  1.69497  1295339.55786    45.382  22.21409  55317.53656    51.27283       44.45129   35.31263    50.617   50.0    0.17416  -21.95787  0.91141 
   -22.7022  0.33468  3.20402     14.04048  1.58976  0.52319   4.90774  0.22261     0.11704  13327.75647   6924.18359  0.66387          4212.9023     17.67044  0.00026   55246.8978   5.20023  1.64252  1257736.01143   45.3592  22.28234      55325.4    51.23762       44.44764   39.53045  47.42696   53.5    0.19139  -21.95913  0.90507 
  -27.71712  0.04814  3.06277     13.92602  1.62197  0.80119   7.57428  0.15968     0.07183  11860.23773   4225.86809  0.25558         4842.88639      17.5195  0.00018  55241.88288   6.35558  0.36461  1986279.50595  45.20862     22.27      55322.4    51.26444       44.43271   37.45507  51.91487   51.5     0.1824  -21.82414  0.97994 
   -7.09401  0.26323  0.99346     14.44767  1.95047  0.70186  16.26826  0.33034     0.02919  15274.92076   7868.32305  0.76507         4099.02163     17.77693  0.00033  55262.50599   22.6426  4.28226    22746.52715  48.20777  22.34694  55314.67346    51.22254       44.37832   28.55318   59.7021   43.5    0.11654  -22.02814  0.98522 
  -27.16694  0.12329  2.68581     13.96993  1.63601   0.8974   8.95309  0.23527     0.05775  11278.26365   3658.29501  0.53015         3589.94736      17.1555    8e-05  55242.43306   6.79336  1.10382   1258636.7926  45.52458  22.25484      55322.4    51.21351       44.43692   33.89065  46.72338   50.5     0.1394  -21.81614  0.95566 
  -25.70486  0.01913  3.19788     13.92548   1.8191  0.88349    5.2838  0.23239     0.04063  11842.32039   6972.01558  0.49387         5233.44634      18.4862   0.0017  55243.89514   4.42025  0.10106  2434656.08097  45.13254  22.26812  55317.53656    51.23256       44.45778   33.74467  46.72338   42.0    0.21887  -21.97308   0.9948 
  -26.76053  0.02308  2.84563     13.97092    1.772  0.92647   8.41692  0.18753     0.06203    9940.7793   4078.09449  0.65464         5470.23131     17.35043  0.00012  55242.83947   4.96159  0.19426  1523345.03179  45.42615  22.25769      55326.4    51.23726       44.45632   40.82832  44.83122   53.0    0.15227  -21.96056  0.99191 
   -28.0533  0.04194  3.32399     13.82748  1.92513  1.28934   9.19179  0.12786     0.02117  10177.04354   5568.77988  0.46758         5084.99409      18.4478  0.00156   55241.5467   5.67898  0.38547   4371522.7992  44.86935  22.20409  55320.39967    51.18974       44.46531   34.36083  40.56307   48.0     0.1737  -21.86782  0.98048 
   -7.20813  0.18031  1.19038     14.26608  1.83881  1.09042  14.32253  0.30226     0.02609  14549.99091   8161.61868  0.68219         4117.19548     18.55652    0.002  55262.39187  18.08724   2.5825    71048.53304  47.53046  22.24101  55320.39967    51.18189       44.43504   34.65144    41.923   40.0    0.15899  -21.94404  0.98429 
  -26.65037  0.14795  3.17643     14.22987  1.90947  0.40076   6.70832  0.24652     0.02347  11644.70054   5695.35675  0.62433         5291.02951     16.39058    1e-05  55242.94963   5.42623  0.99248   620672.62262  45.75302  22.22543  55317.53656    51.21986       44.47771   33.00091  43.22087   41.5    0.21407  -22.01917    0.955 
  -22.82214   0.1328  3.02662     14.06165  1.58111   0.4415   4.31956  0.24091     0.07369  13269.25607   3487.59277   0.4751         4791.31395     16.61139    2e-05  55246.77786    4.5369  0.57362   1012480.8346   45.5005  22.32076      55325.4    51.31898       44.54426   36.67271  46.14581   45.0    0.21204  -21.99331  0.96798 
  -25.84787  0.08088  3.43469     14.14913  1.94538  0.54639   4.65335  0.26183     0.06952  11829.46577   6922.41566  0.47252         4701.25755     16.68603    3e-05  55243.75213   3.88439  0.37636  1072319.03968  45.45575  22.24245  55323.26277    51.19131       44.43902   40.70716  41.40763   47.0    0.18418  -21.92282   0.9801 
  -26.50857  0.01747  3.12376     13.90055  1.71135  0.67636   4.80425  0.22944      0.0872  12625.66341   5452.24265  0.47103           5035.212     17.60826  0.00023  55243.09143   4.56837  0.08394  2451347.27959  45.12342  22.34696  55314.67346    51.20294       44.39989   28.16208  53.60385   51.5      0.181  -21.99301  0.99541 
   -4.51911  0.37091  1.23366      14.2927  1.85463  1.15848  12.74657  0.31247     0.03913  14310.26884   8810.35224  1.11478         3441.33688     17.54064  0.00019  55265.08089  15.57099  4.72789    68086.70092  47.52165  22.19146  55320.39967    51.34832       44.47889   27.83288  64.31602   41.5    0.11995  -21.92088  0.97051 
  -10.01458   0.2115  0.80286     14.21597  2.00898  1.30656  25.28364  0.33907     0.01019  16626.77704   3873.34661  0.10741         5887.17004     16.97752    5e-05  55259.58542   41.6949   5.3474     44475.4327  48.11442  22.30361      55322.4    51.25134       44.43125   39.20625    50.617   43.5     0.1662  -22.04239  0.98891 
   -22.4688  0.18844  2.85916     13.72717  1.46471  1.05372   4.52086  0.24409     0.06038   12513.1587   5517.00442  0.27403         4982.57544     18.45113  0.00157   55247.1312   4.22262  0.85193  3905827.52174  44.93041  22.27601      55325.4    51.17683       44.43627   39.20625  40.23403   45.0     0.2119  -21.90168  0.95333 
  -12.62508     0.24  1.21441     14.20364   1.6962  1.10059  13.69304  0.27311     0.04206  12261.83623   6017.17188   0.7886         3474.59135     18.66478  0.00257  55256.97492  12.28112  3.28639    90936.65639  47.37086  22.45713  55314.67346    51.19642       44.32941   29.13075  64.31602   51.5     0.1251  -21.81775  0.97602 
   -4.88879  0.05942  0.71684     14.25795  1.72539  0.96389  23.90149  0.29295     0.01946  16750.99061   9214.36604  0.55194         3609.33196     18.09718  0.00069  55264.71121  40.00674  1.42034    25098.33494  48.39524   22.2849  55314.67346    51.24215       44.44226   26.92626  54.83966   39.0      0.155  -22.02229  0.99743 
   -25.2168  0.12862  3.08414     13.84804  1.67736   0.9996    6.4516  0.21195     0.04215  12384.43597   5697.90865  0.24629         4833.74031     18.33726  0.00121   55244.3832   5.90265  0.82981  2982820.37791  45.04058  22.21983      55325.4    51.18279       44.45833   38.23258  39.63973   44.0    0.19605  -21.89142  0.95688 
  -24.87954  0.06052  2.83172     13.86912  1.52826  0.89325   6.96094  0.19939     0.04685  12624.87688   6122.60071  0.34217         4874.49689     17.90153  0.00044  55244.72046   6.61834  0.42129  2079119.97549  45.23106  22.24763  55314.67346    51.18123        44.4445   27.25531  44.12764   43.5    0.20551  -21.92488  0.97846 
   -10.0647   0.1797  0.74868     14.30808  1.71069   0.8643    17.723  0.30233     0.03068  14949.74214   8504.67087    0.266          3614.7176     18.79886   0.0035   55259.5353  23.62826  3.18482    21548.80934     48.42  22.29989  55317.53656    51.19746       44.42817   25.95744  49.31913   40.0    0.13907  -21.93294  0.99367 
  -26.24011  0.05006  3.16231     13.93309  1.66153  0.74158   4.53016  0.23854     0.07705  13231.64911   5971.17253  0.19456         5059.05166     17.33974  0.00012  55243.35989   4.73117   0.2268  2099700.11947  45.16719   22.2268  55320.39967     51.1489       44.44751   28.55318  40.23403   45.5    0.21579  -21.89141    0.987 
  -10.13967  0.18088  1.13659     14.14707  1.72783  1.41598  13.35909  0.30472     0.01538   12274.2763   7619.47857  0.64167         4302.82536     17.23181    9e-05  55259.46033  12.00593   2.4164   105288.80362  47.37275  22.37367  55317.53656    51.22531       44.40403   29.85105  55.80849   40.5    0.17985  -21.86845  0.98494 
   -7.06657  0.26803    1.156     14.25799  1.72953  0.92227  13.13052  0.31682     0.01511  14279.26737   7724.21765  0.45191         5292.33176      18.8281  0.00374  55262.53343  15.97059  3.51933    65413.96643  47.56519  22.30816  55317.53656    51.15008        44.3795   28.55318  46.72338   37.5    0.19383  -21.98249  0.97766 
    -19.441   0.3557  3.35212     14.32075  1.93649  0.45226   4.85902  0.23545     0.06664  11994.35711    5983.9693  0.72494         5525.21153     17.48474  0.00017    55250.159   4.16994  1.72835   461285.72436  45.84125  22.27752  55317.53656    51.21352       44.42834    35.2673  48.02126   44.5    0.20858  -22.11256   0.9189 
  -12.44242  0.03547  1.02336     14.19267  1.98769  1.51661  20.56711  0.28969     0.03197  12919.90291   9274.71065  0.35765         3852.71204     16.56133    2e-05  55257.15758  20.47948  0.72953    79596.03547  47.64624  22.35789      55322.4    51.19488       44.39655   38.37841  49.31913   46.5    0.10883    -21.893  0.99709 
  -26.61324  0.01792  2.91821     13.88114  1.58061  0.80815    6.0711  0.17535     0.05662  11352.56692   5982.69882   0.1928         5315.52336      19.5146  0.01817  55242.98676   4.66748  0.10877  2160704.64907  45.20284  22.33032      55322.4    51.21325       44.42431   39.20625  46.72338   50.0    0.17973  -21.83066  0.99426 
  -27.86595  0.00981  2.85918     13.63521  1.44805   1.0789    3.9456  0.22508     0.11411  12044.52982   6381.07153  0.18617         4703.54081     18.90322  0.00445  55241.73405   3.41445  0.03871  5897515.25037  44.74648  22.17317  55317.53656    51.27599       44.47532    32.5476  47.11449   57.5     0.1661   -21.8084   0.9977 
  -26.03596  0.01531  1.81877      13.6398  1.15447  0.85611   7.25162  0.20629     0.01091  10691.28912   5984.24336  0.50945          5736.8043     20.28576  0.10727  55243.56404    4.9445  0.11105  1862761.57694  45.54151   22.2633      55325.4    51.25085       44.42902   35.76609  48.74156   38.5    0.24071  -22.06255  0.99638 
  -26.23353  0.00955  2.48402     13.75213  1.29217   0.9385   7.32784  0.14302     0.04159  10566.82111    6332.7302  0.35957         4510.22383     19.56757  0.02053  55243.36647   4.88081     0.07  2318404.24957  45.22467   22.3139  55320.39967    51.29069       44.54644   24.65956  46.72338   48.5     0.1865  -21.78268   0.9964 
  -13.93908  0.12869  1.43711     14.19916  1.90617  1.41702  12.14357  0.30652     0.03767  12963.02884    7342.8421  0.58513         4246.51077     19.36287  0.01281  55255.66092  12.17269  1.56271   146097.02229  47.06938  22.29551      55327.4    51.26636       44.44151   42.47507  51.71183   44.0    0.13827  -21.91237  0.98602 
  -26.10077  0.15777  2.74734     13.83901  1.44725  0.91949   5.63318  0.21895     0.04088  12935.29419   4381.32554  0.23412         4596.23924     18.30573  0.00112  55243.49923   5.62255  0.88877  2128967.59108   45.2234  22.39344  55317.53656    51.31908       44.39873   31.14892  71.38295   39.5    0.24534  -21.88944  0.95476 
  -27.24438   0.0847  3.10411     13.98822   1.7283  0.64684   5.86388  0.20584     0.02711  12016.25747   5223.41582  0.30584         5248.57801     17.25375   0.0001  55242.35562   5.05069  0.49665  1632544.01999  45.30973  22.35272      55322.4    51.22004       44.49476   36.91798  38.35858   40.0    0.23736   -21.8889  0.97448 
   -6.00946  0.14521  0.89741     14.35194  1.77778   0.7881  17.34225  0.30793     0.03668  15571.06638   7563.07249  0.85683         3864.73736     18.92051  0.00463  55263.59054  25.08241  2.51821    26290.39687  48.19295  22.24341  55320.39967    51.21891       44.44987   29.85105  46.72338   45.5    0.10879  -22.01665  0.99205 
  -23.46664  0.18516  2.34077     14.37033  1.94352  0.65282  10.43303  0.22048      0.0217    9696.6581   4279.55617  0.88196          3500.7081     16.62873    2e-05  55246.13336    5.8517  1.93182   179662.27737  46.56426  22.23646  55323.26277    51.18142       44.47688   36.01136  36.66946   46.0    0.14138  -21.65047   0.9552 
  -10.52387  0.12169  1.29487     14.18963  1.61028  0.95123  12.81959  0.26949     0.04828  14463.85121   8326.19399  0.49671         3943.15126     19.79231  0.03444  55259.07613  15.99813  1.55998    104692.2873  47.23138  22.32666  55323.26277    51.20219       44.42698   39.39257  43.94132   39.0    0.16021  -21.95941  0.98544 
  -23.16412  0.04639   2.6097     13.90744  1.69493  1.37587   8.58319  0.20714     0.07192  10741.20131   3711.63894  0.56138         5590.18826     17.56455   0.0002  55246.43588    5.9072  0.39821   1641597.0286  45.44955  22.31206  55320.39967    51.24761       44.41894   36.01136  53.54179   49.5    0.16232   -21.9865  0.98528 
  -36.90646  0.01644  3.36867     13.75694  1.97321  1.14604   6.21257   0.2219     0.06225  11659.76958   5982.91913  0.09706          4256.5775     17.06147    6e-05  55232.69354   5.03823  0.10212  6368325.53511  44.70508  22.28745  55323.26277    51.29527       44.45111   37.30924  54.83966   56.5    0.14897  -21.82309  0.99468 
    -22.393  0.14246  2.86504     13.84192  1.59014  0.93515   5.39417  0.25907     0.04501  13108.24307     5929.749   0.3245         4972.16718     18.72833  0.00297    55247.207   5.52892  0.76843  2510032.04207  45.15634  22.35435  55317.53656    51.19104       44.37166   30.89866  53.46301   41.0    0.22111  -21.99082  0.96257 
  -23.35729  0.02186   2.6987     13.90695  1.72637  0.98308   8.55452  0.24028     0.03912  11886.38429   7007.63666  0.78169          5264.6708     18.44473  0.00155  55246.24271   7.20978  0.18699  1792062.52282  45.39032  22.23755  55317.53656    51.21395       44.46508   35.04254  42.82977   45.0    0.16717  -22.14682   0.9927 
   -26.5261  0.23761  3.58175     14.28994  2.02702  0.46994   7.23443  0.16528     0.02696   11622.7807   5101.72213  0.18382         5956.27959      16.5263    2e-05   55243.0739   5.82977  1.71901   635298.03349  45.66454  22.26632  55320.39967    51.16599       44.37686   32.11775  49.64817   42.0    0.21987  -21.83939  0.91393 
  -10.58948    0.186  0.80391     14.25555  1.77073  1.12941  17.10062  0.33222     0.02507  15869.66279   6499.69555  0.00529         4201.16203     18.78142  0.00336  55259.01052  25.69061  3.18075    32756.08293  48.19129  22.28738  55317.53656    51.23695       44.37948   29.14748  61.70355   41.5    0.15764  -21.91179  0.99276 
  -26.86542   0.1336  3.22878     13.91484  1.69001  0.77102   4.81671   0.2143     0.07573  12384.83137   5291.04945  0.18146         5559.13412     18.98771   0.0054  55242.73458   4.40715   0.6435  2421543.83195  45.09457  22.29041      55325.4    51.25925       44.45243   42.06709  49.11608   48.5    0.19404  -21.85861   0.9633 
   -8.40593  0.13675  0.75845     14.33487  1.61996  0.73041  16.58632   0.2913     0.02752  14556.91996   8541.97902  0.70267         2739.88192     18.65842  0.00253  55261.19407  20.96604  2.26819    18511.10859  48.45106  22.41683  55311.81035    51.23573       44.35614   29.13075  66.91176   37.5     0.1387  -21.91892  0.99476 
  -23.49438  0.09088  2.74823     13.67144  1.44939  1.27223    5.7437  0.23481     0.03825  12496.99586   5654.39248   0.4477         4705.70717     19.12217  0.00736  55246.10562   5.35094  0.52197  4615505.70041   44.8877  22.30504  55328.98898    51.29066       44.53055   40.23403  42.82977   42.0     0.2154  -21.94199  0.97264 
  -23.31407  0.14464  2.96495     14.12076   1.6475  0.58501   5.80194  0.22038     0.04257  11959.66403   4602.70453  0.53999         5277.85737     17.37417  0.00013  55246.28593   4.95038  0.83922   771192.56378  45.65447   22.2344  55314.67346    51.27356       44.41422   27.83288  64.31602   40.5     0.2237  -21.96894  0.95905 
   -8.07008  0.05201  0.82905     14.40644  1.64503  0.58998  19.69512  0.30502     0.02067   15365.6213   6016.71744  0.83008         3067.37888     18.78046  0.00335  55261.52992   27.7387  1.02427    16153.28566   48.4396    22.271  55320.39967    51.26736       44.46387    33.4994    50.617   43.0    0.15237  -21.85225  0.99693 
   -26.4792  0.16962  3.13919     13.96064  1.65612  0.54367   6.58825  0.14668     0.05303  11623.22553   7057.71281  0.62165         4712.50793     17.12657    7e-05   55243.1208   5.30947  1.11747  1816581.46374  45.23505  22.20619      55322.4    51.15711       44.44728   35.04254  37.63828   53.5    0.17011  -21.94982  0.93868 
  -27.50962  0.15766  2.74005     13.90983  1.68575  1.48451    9.5553  0.18953     0.03607  10110.93584   3675.02031  0.42488         5907.31546     18.60043  0.00221  55242.09038   5.82712  1.50653  1780229.87018  45.36965  22.23097  55317.53656    51.22489       44.45048   24.65956  49.31913   48.0    0.14325  -21.83773  0.94083 
  -25.28417  0.37104  2.92497      14.0018  1.42141  0.39641   4.87347  0.20869     0.05234  13541.69711   7485.02739  0.40634         3424.99755     18.31915  0.00116  55244.31583   5.33104  1.80827  1119873.09547  45.44015  22.38625      55322.4    51.32847       44.36227   33.74467  77.87231   43.0    0.21525  -21.87403  0.89641 
  -26.24649  0.02289  3.07773     13.72216  1.61247  1.35644   4.12486  0.25006     0.09638  13166.25179   6920.09235  0.27611         4035.16606     18.18428  0.00085  55243.35351   4.26541  0.09441   5098436.1639  44.79244  22.27269  55323.26277    51.24115       44.52443   37.57933  38.81189   48.0    0.19317  -21.88728  0.99457 
  -10.48446  0.18804  1.02222     14.26112  1.84162  1.24055  18.22898  0.27401     0.02881  14286.36667   9111.15942  0.42193         3280.93463     18.20528  0.00089  55259.11554  22.19388  3.42781    53685.52644   47.7851  22.29855  55320.39967    51.22794       44.39447   30.03737  56.92004   41.5    0.12308  -21.84199  0.98605 
   -7.36753  0.10334  0.70151     14.34785  1.88658  0.86384  25.69053  0.28554     0.08178   17797.3631   5395.34839  0.19565         5501.52282     19.00873  0.00567  55262.23247  48.54132  2.65476    17372.34123   48.6126  22.20786  55323.26277    51.21818       44.46454   38.93926  41.34558   53.0    0.12386   -22.1763  0.99635 
   -8.40953  0.23593  0.73258     14.51807   2.0427  0.61003  28.54023   0.2626     0.07911  17034.03179   4398.46983  0.16261         4918.02019      18.2467  0.00098  55261.19047  49.39915   6.7335     9366.91146  48.87774  22.28637  55320.39967    51.20354       44.43467    36.6105  45.42551   57.0    0.08924  -22.17802  0.99114 
  -26.36585  0.12034  3.13858     14.03308  1.74906  0.59453   6.49985   0.2095     0.02984  12215.44861    5264.0455  0.40295         4977.38777     17.51353  0.00018  55243.23415   5.78561  0.78217  1373834.38152  45.38025  22.33149  55326.12588    51.28082        44.4046   33.45422  62.17358   41.5    0.22188  -21.93178  0.96025 
  -27.69456  0.01219  2.39531     13.74525   1.2475  0.68893   7.85493  0.15021     0.02664   11577.5622   5766.96432  0.51521         4859.55019     19.45588  0.01587  55241.90544   6.28064  0.09574  2148239.14917  45.27408  22.26823  55320.39967    51.21328       44.44804   34.65144  45.81661   43.5    0.20359  -21.94941  0.99512 
  -25.41242  0.02369  2.61952     13.70734  1.48055  1.04033   6.52668  0.21912     0.02364  12309.21847   5585.97528  0.30243         5217.36685      19.7426  0.03071  55244.18758   5.89903  0.15464  3630797.32243  45.04282  22.33894  55317.53656    51.19294       44.40423   28.55318  51.91487   40.0    0.24486  -21.94474  0.99273 
   -6.57455  0.20127  0.71945     14.50411  1.69889  0.52518  21.75509  0.22399     0.01701  13035.78809   9250.39803  1.11643         3387.71904     17.85531   0.0004  55263.02545  22.05275  4.37863     8012.42948  48.88124  22.34056  55314.67346    51.27254       44.40024   27.83288  65.61389   41.0    0.12776  -21.87753  0.99258 
   -4.37882  0.19955  0.74121     14.22142  1.55921  1.04152  17.21361  0.28238     0.04969   15294.5478   8213.11392  0.98633         3285.30658     19.50381  0.01772  55265.22118  24.01997  3.43499     28692.3972   48.2641  22.25023  55314.67346     51.2652       44.40644   26.92626  63.92476   45.5     0.1082  -21.99251  0.99238 
  -27.97494  0.19556  3.61622     13.87282  1.97473  1.15818    4.7975  0.27382     0.09821  14241.68085   6643.64614  0.18088         3857.03421     16.84211    4e-05  55241.62506    5.8045  0.93822  4307086.28607  44.81366  22.27166      55322.4    51.21631       44.42097   39.34723  47.05243   48.0    0.18922  -21.92451  0.94751 
  -25.55103  0.05537  2.76337     13.73871   1.4621  0.95707   6.13334  0.19471     0.08734  12470.43588   4480.44505  0.47243         5022.76215     18.49543  0.00174  55244.04897   5.68967  0.33963  3453498.45021  45.01268  22.27824  55320.39967    51.24285       44.46589   28.55318  49.31913   51.5    0.18292  -21.99659  0.98205 
  -25.32784  0.03414  2.60842     13.77621  1.45379   0.7732   6.83942  0.19236     0.06677  11729.86092   5324.11413  0.84117         5260.92366      19.2855  0.01072  55244.27216   5.61348   0.2335  2574307.67957  45.18793   22.3315  55320.39967    51.26804       44.41295   29.85105  60.99997   52.5    0.16321   -22.1569  0.98883 
  -26.62369  0.03363  2.31205     13.59658  1.32389  1.05934   8.00602  0.16846     0.01316  11388.42546   6154.51843  0.47694         5110.69323     19.73536  0.03021  55242.97631     6.194  0.26921  4212047.91575  45.03821  22.30075      55325.4    51.20177       44.43046   38.93615  44.12764   40.0    0.24535  -21.96432  0.98836 
   -19.1158  0.12916  2.77739     14.23092  1.84584  0.66225   6.31126  0.30384     0.05377  13765.67355   7479.31006  0.37448         5334.99789     16.80792    4e-05   55250.4842   7.13408  0.81516   456496.45202  45.98833  22.18386  55317.53656    51.19804       44.47367    32.5476  40.62513   37.0    0.22384  -22.01918  0.97052 
  -25.22092   0.0878  3.04542     13.86679  1.72559  1.00954   6.92855  0.22569     0.03912  12500.36314   5892.66853  0.32513         4743.93219     17.63294  0.00024  55244.37908   6.45825  0.60832  2744545.94061  45.10002  22.23665  55323.26277    51.18949       44.47922   37.63828  37.63828   43.5    0.19378  -21.93645  0.97013 
   -6.56738   0.1688  0.81015     14.33898  1.80633   0.9249  19.55764  0.30849     0.05795  15918.89888   7067.78909  0.72219         3307.47988     18.13887  0.00076  55263.03262  29.56445  3.30124    23109.26693  48.34472  22.36916      55325.4    51.18616        44.4303   40.43707  42.62673   51.5    0.14262  -21.91378  0.99293 
  -25.83215  0.25461  3.59376     13.95708  1.93274  1.18196   5.85311  0.20768     0.04966  12705.71235   4765.53894  0.08415         4819.54681     17.81881  0.00037  55243.76785   5.63653  1.49028  2824465.37433  44.99298  22.25681  55320.39967    51.20976        44.4521   34.85947  44.45669   43.0    0.21295  -21.81222   0.9188 
   -20.3146  0.06001  2.80108     13.85584  1.44209  0.78065   4.66771  0.20358     0.07654   12195.8563   6692.04666  0.70833         4853.63956     19.39893  0.01392   55249.2854   4.14148  0.28011  2040726.88432   45.2234  22.28102      55322.4     51.2177       44.43765   36.46467  46.59912   47.0    0.21265  -22.01011  0.98455 
  -23.30274  0.00855  2.24288     13.71144  1.27739  0.72351   6.14127  0.16447     0.04511  10782.08077   5356.85865  0.75547         4941.55934     20.42253  0.14698  55246.29726   4.25883  0.05251  2253555.27637  45.32069  22.32099  55320.39967     51.2437       44.43391   38.21585   51.3373   50.5    0.18124  -22.13793  0.99773 
  -33.48271  0.02243   3.0678     13.75269  1.85727  1.25511   6.72735  0.21931     0.02254  11903.79276   5994.26193  0.07006         4607.44478     18.66628  0.00258  55236.11729   5.68646  0.15087  5069438.32481  44.85911  22.32896  55317.53656    51.22024       44.39155    28.7395  56.92004   43.0    0.21186   -21.8175    0.993 
  -10.87966  0.10754  0.85711     14.22359  1.71193  1.08593  16.87154  0.26206     0.01501  12442.47408   7143.50944  0.82909         4044.30569     17.61196  0.00023  55258.72034    15.581  1.81445    41704.76281  48.01608  22.29436  55320.39967    51.24239       44.42508   32.64984  51.71183   42.0    0.15649  -21.90478  0.99446 
   -6.31188  0.34113  0.83241     14.29488  1.75827  0.91554  18.60881  0.25096     0.04972   15045.6688   9043.68076  0.71572         2928.10738     20.14028  0.07674  55263.28812  25.12863  6.34799    29094.32977  48.20945  22.24805  55323.26277    51.20072       44.44383   35.76609  43.55007   45.0    0.11811  -22.03557  0.98348 
  -27.86051  0.07301  3.24977     13.95246  1.84174  0.83559   6.24471  0.21544     0.08162  11811.86702    5770.3742  0.38202         5161.44363     17.99491  0.00055  55241.73949   5.19729  0.45591  2248166.35164  45.15854  22.32892  55317.53656    51.23747       44.38915   30.81988  60.03115   52.5    0.16508  -21.93346  0.97665 
  -27.64314  0.19661  3.25016     13.99975  1.90776  0.59688   5.29574  0.26002     0.02889  12544.59843   4901.58906  0.14962         5862.55452     18.88879   0.0043  55241.95686   4.97127  1.04117  1873450.75998  45.25291  22.37886  55314.67346    51.20429       44.38279   28.55318  57.10636   41.0     0.2346   -21.8937  0.95002 
   -7.49957  0.16402  0.89939     14.27613  1.75675  1.14825  20.76471  0.26177     0.03661  15039.10779   8386.53064  0.69493         3086.19119     18.58427  0.00213  55262.10043  28.01543  3.40574    36997.49688  48.03748  22.28882  55323.26277    51.19707       44.42885    37.8246  43.94132   46.5    0.13252  -21.82739  0.98975 
   -5.17538  0.11197     0.82     14.20673  1.72272  1.15238  17.56688  0.33005     0.03012  17251.33831    6538.4151   0.5029         4497.77698     19.30454   0.0112  55264.42462  31.18656  1.96705    41513.77119  48.05924  22.26192  55320.39967    51.19832       44.44134   36.01136  43.15882   42.5    0.15382  -22.09748  0.99469 
  -24.61973  0.04249  2.66171     13.65172  1.56016  1.15498   5.43678   0.2922     0.03029  13850.01905   6020.75666  0.16016         4941.68038      16.8958    4e-05  55244.98027   6.22114    0.231  5103554.39764  44.90382  22.30253  55317.53656     51.2464        44.4077   28.16208   60.0932   39.5    0.25162  -21.97789  0.98956 
  -13.72368  0.20293  2.14351     14.17318  1.66787  0.99379   7.58717  0.27026     0.07241  13146.63965   8687.98432  0.56708         4586.04268     18.17122  0.00082  55255.87632   7.82233  1.53967   320523.33526   46.3229  22.23342  55317.53656    51.19688       44.44507   34.85932  44.12764   37.0    0.19788  -21.89016  0.96213 
   -4.64993  0.32296  1.09076     14.35259    1.713  0.79867  11.90467  0.32677     0.02861  15384.59357   7659.54117  0.63733         4491.09984     17.23678   0.0001  55264.95007  16.80802  3.84469    37312.35549  47.85529  22.34242  55320.39967    51.19591       44.40509   30.42862  50.03943   38.0    0.18813   -22.0024   0.9794 
  -13.86537  0.09216  2.39965     14.42035  1.75439  0.47708    7.4643   0.2259     0.02527  11130.16416   9250.99997  0.63815         4289.74589     16.16482    1e-05  55255.73463   5.51593  0.68788   135376.03453  46.62113  22.29908  55320.39967    51.18598       44.43247   29.13075  44.84794   32.0    0.20937  -21.78742   0.9799 
   -7.71538  0.11392  1.12323     14.67464  1.82994  0.33177  19.59924  0.20576     0.01617  12026.84442   7942.93241  1.08338         4193.10883      16.7206    3e-05  55261.88462  16.91102  2.23276     9592.15013  48.44843  22.35229  55317.53656    51.19943       44.40436   28.67744  51.79061   44.0    0.11855  -21.93478  0.98778 
   -20.6643  0.01718  2.48218     13.50477  1.23849  1.51137   4.77748  0.19906     0.04959  13638.55004   4907.48085  0.53282         3113.21246     19.86647  0.04085   55248.9357   5.30106  0.08208  6931684.71237  44.73123  22.16902  55317.53656    51.23735       44.49845    32.5476    41.923   42.0    0.23777  -21.91331  0.99541 
  -29.62987  0.01966  2.48892      13.6921  1.39627  0.95572   7.65912  0.18147     0.02849  11127.57442   5766.92363  0.19716          5976.3906     19.64558  0.02456  55239.97013   5.65727  0.15062  3316018.51128  45.10118  22.30697      55327.4    51.21763       44.42862   40.25385  45.67578   45.5    0.18418  -21.89808  0.99302 
  -24.24178  0.03752  2.67645     13.96083  1.74406  1.46796   7.33512   0.2165     0.06884  10680.44535   3956.30439   0.7064         5700.28043     18.04146  0.00061  55245.35822   4.99129  0.27522  1389430.83167  45.51245     22.27      55322.4    51.19621       44.44987   36.46467  41.40763   46.5    0.18044  -22.00975  0.98972 
   -7.54556  0.07688  0.97306     14.10205  1.56934  1.32951  19.18148  0.20829     0.03469  12789.36047    9947.9574  0.61428         4547.11628     19.28266  0.01065  55262.05444  18.71574  1.47469    86242.13986  47.55256  22.34425  55314.67346    51.26033       44.40729   28.55318  62.29785   39.5    0.15763  -21.94949  0.99243 
  -28.21497   0.0601  3.22928     14.08381  1.77079   0.5136   6.34779  0.17374      0.0372  10980.42419   5181.54914  0.24459         5521.78863     17.18376    8e-05  55241.38503    4.5655   0.3815  1165666.09885  45.43223  22.22536  55317.53656    51.22492       44.45623   33.74467  46.72338   47.5    0.18544  -21.82123  0.97938 
  -24.05113  0.04389  2.37743     13.75142  1.38333  0.99869   7.46226  0.19653     0.02316  11911.04791   4732.06039  0.46437         5841.13469     20.13387  0.07561  55245.54887   6.31535   0.3275  2280975.18568  45.29944  22.25259  55317.53656    51.18453       44.40044   29.13075  48.74156   39.0    0.23733  -22.06876  0.98622 
  -12.57229  0.12845  0.85273     14.37337  1.77479  0.73425   17.8778  0.25922     0.01123   12536.0892   9495.32532  0.73275          3324.5689     18.61789   0.0023  55257.02771  16.75966  2.29643    21470.15623  48.32454  22.21684  55317.53656    51.19231       44.46043   33.49955  40.62513   34.5    0.17884  -21.78649  0.99365 
  -25.37252  0.02812  2.36987     13.76223  1.49554  0.99215     7.352  0.20289     0.02243  11464.78664   5204.34171  0.52615         5578.39357     20.28204  0.10636  55244.22748   5.76454  0.20677  2331332.02914  45.32659   22.2376      55322.4    51.28598       44.53963   37.63828   41.5319   41.0     0.2154  -22.14113  0.99225 
    -4.0559  0.23374   0.7543      14.2462  1.67859  1.08135  19.15448  0.29398     0.04094  15884.83194   8772.83939  1.00664         3057.41144     19.31024  0.01135   55265.5441  28.83121  4.47719    28539.65551  48.28326  22.25178  55320.39967    51.18056       44.46457   36.09514  38.93615   43.0    0.09924  -21.97987  0.99086 
   -8.65999  0.10165  1.15093     14.23178  1.86497  1.35339  15.18049   0.3003     0.04161  14220.89892   9682.85145  0.97349         2689.27529     18.88642  0.00428  55260.94001  18.31332  1.54307    78890.94705  47.52039  22.31952  55314.67346     51.2502       44.39666   29.13075  61.72027   42.0    0.15361  -21.82441  0.99148 
  -26.01842  0.18697  3.29819     14.35739  2.15052  0.63801   7.28001  0.24093     0.04506  11127.65313   6996.78988  0.91156         3090.10824     16.66509    3e-05  55243.58158   5.37733  1.36114   418916.74371  45.94271  22.22661  55317.53656    51.22971       44.44601   33.74467  48.02126   44.0    0.17139  -21.72938  0.94615 
  -22.03394  0.04633  2.70703     14.00398  1.61579  0.88794    7.6746  0.20635     0.07019  11435.60705   5974.21213   0.3395          4781.0518      18.2054  0.00089  55247.56606   5.98689  0.35555  1079509.79729  45.57902  22.28168  55320.39967    51.22094       44.43951   28.55318    50.617   47.0    0.18087  -21.83029   0.9848 
  -25.00618  0.04142  2.84497      13.9327  1.51206   0.5938   5.59928   0.2046     0.05099  12158.07411   5417.99016  0.45455         5399.31119     17.70826  0.00028  55244.59382    4.9373  0.23191  1549308.71191  45.35012  22.15412      55322.4    51.17901        44.4756   34.01476  37.63828   45.0    0.20464  -21.98347  0.98759 
  -28.96411  0.04195  2.82646     13.86558  1.58834  0.79544   7.30666    0.171     0.03799   10943.0368   4073.33038  0.46009         5065.49936     17.80667  0.00036  55240.63589   5.21941   0.3065  2188172.88122  45.22722  22.23214  55320.39967    51.24986        44.4533   37.30924  49.64817   48.0    0.17754  -21.92952  0.98506 
  -28.55621  0.08278  2.85109     13.82738   1.4672    0.777    6.7275  0.14117     0.11182  11181.11964   3325.33708   0.4114         4413.78941      16.3077    1e-05  55241.04379   5.01708  0.55692  2452275.79106  45.13574  22.32798  55317.53656    51.22786       44.42741   34.85947  49.64817   60.0    0.17524  -21.83223  0.96927 
  -26.80218  0.03097  2.89638     14.05703  1.63749  0.46976   6.46462  0.19491     0.04063  11149.22312   5442.03285  0.46594          5940.1837     17.73816   0.0003  55242.79782   4.79357  0.20022   980934.35253  45.56767  22.28455  55320.39967    51.22293       44.42496    36.2194  48.41236   47.0    0.18447  -22.00219  0.99012 
  -26.17114  0.01258  2.25653     13.73407  1.10049  0.60687   7.31468  0.15937     0.12281  11754.72426   5779.59372  0.36395          4222.3996     18.81347  0.00362  55243.42886   6.02903    0.092  1770710.57846   45.3554  22.36703  55314.67346     51.2442        44.4044   30.03737  58.21791   60.5    0.16732  -21.85307  0.99498 
   -6.38104  0.11364  0.72555     14.51336  1.68902  0.47162  22.94457  0.23835     0.01687  13509.04689   8090.24535  1.20621         3407.50334     17.52179  0.00018  55263.21896  24.97793  2.60743     7763.52071  48.88509   22.3444  55323.26277     51.2319       44.39688   40.50412  53.21274   44.5    0.12125  -21.95121  0.99503 
   -9.09033  0.26495  1.36907     14.45338  1.92679  0.68962  12.62372  0.29746     0.01603  13108.41582   7028.35312  0.98782          3193.7357     16.88817    4e-05  55260.50967  12.93942   3.3447     41566.5266  47.66208   22.3118      55325.4    51.26603       44.43855   39.12247  51.72855   41.0    0.17071  -21.78183  0.97457 
  -27.06695  0.05581  3.49272     14.07884  1.85995  0.50833   3.63699  0.22896     0.09376  12055.50222    5778.0119  0.25578         5164.48393     16.21538    1e-05  55242.53305   3.15311  0.20298  1465393.92037  45.28606  22.27891      55322.4    51.15433       44.41836   29.13075   42.2522   53.0    0.18478  -21.83387  0.98783 
  -31.38791  0.05077  3.59626     14.16431  1.99397  0.38287   7.92761  0.09549      0.0213    9900.6158   4313.47416  0.34027          4871.3972     17.58899  0.00022  55238.21209   4.63547  0.40249  1123602.98324  45.40625  22.36184      55322.4    51.26876        44.3866   33.04109  66.89504   53.0    0.16556  -21.71196  0.97682 
  -27.65249  0.04545   2.7807     13.71384  1.45673  0.93214    6.5025  0.17189     0.04051  11427.74753   4565.72776  0.45318         5029.82446     18.69371  0.00274  55241.94751   5.06557  0.29554  3906733.06618   44.9521  22.30912  55320.39967     51.2353       44.41588    36.6105  53.21274   48.0    0.17855  -21.91028  0.98396 
   -23.5313  0.01899  2.33637     13.73972  1.12075  0.52589   4.77646  0.15501     0.10779   11496.8174   6221.15383  0.51561         4188.86176     19.91821  0.04602   55246.0687   3.76607  0.09068   1883486.4677  45.30631  22.32862  55320.39967    51.24525       44.42905   38.03264  52.63517   63.5    0.16982  -21.85876  0.99478 
  -24.08938  0.10315  2.76289     13.94195  1.56454    0.846   5.79218  0.27309     0.03231  12736.95441   6654.33581  0.05545         4831.73356     17.16161    8e-05  55245.51062   5.60532  0.59748  1448886.52027  45.41947  22.37196  55323.26277    51.22199       44.40488   38.48595   51.3373   37.5     0.2463  -21.81793  0.97227 
   -9.01038  0.39613  1.54432     14.33357  1.80714  0.90118    8.0951  0.31995     0.08319  13383.81899   8604.17441  0.50809          4748.1482      18.3278  0.00118  55260.58962   8.64987  3.20671    86125.58564  47.21323  22.28905  55320.39967    51.17802       44.41934   36.01136  43.15882   40.0    0.17441  -21.91187  0.96512 
   -9.94173  0.45356  1.10738     14.31329  1.88276  1.04373  15.99993  0.30126     0.16451  13175.93943   4172.60486  0.68045         3208.99788     16.92437    5e-05  55259.65827  16.56946  7.25696    50655.83105  47.75042  22.22922  55317.53656    51.21458       44.44417   35.76609  45.81661   63.5    0.10694  -21.87764  0.96589 
  -26.43417  0.01511  2.27533     13.65943  1.35697  0.94097   7.27861  0.16403     0.01408  10256.53321   5172.41736   0.6774         5913.85132     20.19874   0.0878  55243.16583   4.56748  0.10997  3130486.92872  45.19172  22.39831  55317.53656    51.21025       44.36184     29.522  61.32902   41.0    0.22465  -22.11713  0.99555 
   -7.97173   0.2567  0.86993     14.40989   1.8439  0.72347  19.43683  0.26007     0.01469  13549.02647   8991.69768   0.7777         3287.88924     18.23203  0.00095  55261.62827  21.28476  4.98935    19621.33965  48.36289    22.328  55314.67346    51.30566       44.41641   28.67744  69.96081   38.0    0.11782  -21.90356   0.9868 
  -26.39919  0.11562  2.95455      13.9064  1.69773  0.74222   6.00554  0.22875     0.03559  12390.15084   4435.63053  0.30028         5234.88388     17.01355    6e-05  55243.20081   5.49962  0.69437  2117679.14484  45.23187  22.29771  55317.53656     51.3751       44.42421   31.35197  78.96714   42.0    0.21376  -21.98044  0.96702 
  -27.66562  0.07679  3.03766     13.85124  1.59292   0.7135   5.06077  0.16291     0.03716  10329.08424   3714.75387   0.4165          5852.3419     18.13972  0.00077  55241.93438   3.22082  0.38861  2707751.60052  45.07335  22.29952      55322.4    51.17957       44.43401   38.75294  40.23403   49.0    0.19034   -21.8493  0.97804 
  -17.67737  0.23969  1.54317     14.14367  1.71305  1.11774  15.18319   0.1938     0.04186   9873.19871    6004.0834  0.53767         4059.98284     19.04844  0.00621  55251.92263   8.82889  3.63927   195468.05512  46.83471  22.27472  55320.39967    51.20719        44.4549   37.57933  41.86094   58.0    0.10709  -21.75322   0.9563 
  -23.71857  0.07779  2.67963     13.77031  1.33644  0.82327   5.25661  0.17687     0.05787  10995.59084   6409.37518  0.61588         4854.36253      19.0094  0.00568  55245.88143   3.79114  0.40893  2566217.56014  45.12935   22.2818      55325.4     51.1831       44.45818   37.63828  38.93615   50.0    0.19295  -21.89782  0.97697 
  -10.66975  0.23147  1.48138     14.37216  1.96618  0.84446  11.67983  0.32453     0.02981  13926.10452   5661.05784  0.36856         4630.02574     17.38821  0.00014  55258.93025   13.5121  2.70354    72186.82654  47.36268  22.33719  55317.53656    51.23092       44.37893   29.13075  61.72027   42.5    0.15857  -21.89122  0.97597 
   -5.70571  0.30533  0.92654     14.34341  1.90112  1.04013   16.3321  0.32146     0.06918  16274.23835   6687.93455  0.59107         3718.45991     18.38801  0.00136  55263.89429  25.80302  4.98672    31169.99733  48.12039  22.30904  55314.67346    51.24302       44.40023   26.92626  61.32902   53.0    0.11974  -21.97916  0.98603 
   -4.71924  0.17777  0.73121     14.24783  1.77777  1.28374  18.44803  0.32702     0.06848  17264.52864   8270.74847   0.7079         2607.08642      19.2304  0.00944  55264.88076  32.80096  3.27953    28191.57069  48.34052  22.31903  55317.53656    51.21537       44.41821   37.90838  48.02126   44.0    0.12424  -21.95916  0.99468 
  -31.62759  0.03972  3.29529     13.94974  1.96513  1.18527   6.23702   0.2475     0.05351  11214.51123   4965.24121  0.05139          4685.6852     17.52188  0.00018  55237.97241   4.67913  0.24774  2497484.99254  45.12895  22.27705  55320.39967    51.25694       44.44771   36.91798  50.03943   47.0    0.16491   -21.7459  0.98813 
   -10.4183    0.314  1.29844     14.18026  1.69706  1.09243  12.10499  0.29062     0.02397  13742.21262   5881.62344  0.42988         5638.97706       19.821  0.03679   55259.1817  13.63657  3.80092   115835.68147  47.20785  22.34766  55323.26277    51.28564        44.4611    39.1392  51.71183   40.5    0.18212   -22.0544  0.96775 
   -4.04157  0.19625  0.70164     14.41926  1.78511  0.71566  20.87732  0.27996     0.04571  16684.03747   9115.55468  0.80689         2837.86517     19.51819  0.01832  55265.55843  34.66603  4.09709    11835.74188  48.75508  22.39587  55311.81035     51.1634       44.34965   28.55318  55.80849   44.5    0.15115   -22.0087  0.99431 
    -13.751  0.12903  1.15198     14.08995  1.59104  1.34843   16.3093   0.2104     0.05278  10936.62313   5970.22691  0.70484         4324.10974     18.99609  0.00551    55255.849  11.63668  2.10439   129562.81517  47.23515  22.22105  55320.39967    51.23233       44.46047   35.94931  45.81661   54.0    0.11476  -21.84397  0.98441 
   -25.4629  0.01477  2.11448     13.64169  1.36116  1.08487  11.23102  0.14894       0.013  10527.12463   5750.68448  0.86485         5853.77963     20.17744  0.08359   55244.1371   7.42448  0.16586  2942710.84792   45.2836  22.23442  55317.53656     51.1867       44.45992    33.4994   41.5319   43.0    0.19129  -22.28801  0.99428 
  -30.26192  0.04719   3.0968     13.88952  1.90539  0.96156    7.5726  0.21565     0.03948  11818.30153    6396.9454  0.43898          5298.0553     19.07667  0.00663  55239.33808   6.30932  0.35735  2822224.28246  45.11641  22.20532  55317.53656     51.2232       44.41152   25.95744  57.10636   47.5    0.17027  -22.03082  0.98407 
   -19.1087  0.09108  2.98193     13.72356  1.53314  1.49156   4.42595  0.24924     0.41656  15480.40183    3155.7317  0.18318         4378.83245     19.18299  0.00847   55250.4913   6.32701  0.40309  4521291.72008  44.85017  22.17609  55320.39967    51.24294       44.56502   33.74467  35.04254   52.0     0.2238  -21.99452  0.97709 
  -22.67225  0.05174  2.98746     14.01131  1.74901  0.89817   6.50786  0.23525     0.24351  11472.20804    3222.6103  0.17143         5233.31429      16.5453    2e-05  55246.92775   5.10928  0.33674  1375898.55699  45.42245  22.22231  55320.39967    51.21891       44.46248   34.85932  44.12764   52.5    0.16951  -21.80363  0.98437 
   -6.28665  0.10121  0.85193     14.12155  1.67476  1.31722  14.54729  0.30561     0.02016  15703.44261   8775.95096  0.45215         5021.09827     20.46803  0.16321  55263.31335  21.39927  1.47237    64487.55518  47.82252  22.33048  55317.53656    51.22445       44.41781   29.45995  54.90172   33.0    0.21239  -22.18791  0.99503 
    -31.998  0.03357  3.27507     14.25278   1.9944  0.31431    9.8025  0.11815     0.02254  10248.73772   3098.68116  0.45897         5837.42782     16.09084    1e-05    55237.602   6.14193  0.32909   620154.34083  45.74572  22.16356  55317.53656    51.18244       44.47007   33.56145  38.93615   53.0    0.15902  -21.97105  0.98437 
   -5.88175  0.35518  1.10234     14.46009   2.1541   0.8234  16.88941  0.33675     0.10693  15860.66681   6994.10287  0.67314         4156.31876     17.04869    6e-05  55263.71825  25.34455  5.99871     29209.7834  48.05195  22.23621  55320.39967    51.17007       44.44931    36.6105  38.93615   60.0    0.12266  -22.07377  0.97789 
  -25.33457   0.0456  2.43524     13.69684   1.4052  1.10864   7.44405  0.18694     0.02131  11653.23742   4133.18334  0.73288         4523.37526     20.26126  0.10139  55244.26543   6.03017  0.33944  3125846.87988  45.14853  22.35973  55314.67346    51.23465        44.4028   27.37957  59.57784   40.5    0.22294  -22.04789  0.98531 
  -16.63242  0.35888  1.87356     13.98721   1.2216  0.88073   9.89119  0.16861     0.04191  11099.13101   3647.82208  0.39435         5737.11591     18.67437  0.00262  55252.96758   7.26865  3.54972   422342.95173  46.18477  22.37541  55317.53656    51.16761       44.36724   34.40617   51.0081   47.5    0.17943  -21.83315   0.9001 
  -24.79473  0.05352  2.38946     13.79106   1.3596  0.80693   6.97698  0.21461     0.01922  11966.55175   6152.89246  0.29868         5342.70876     19.83236  0.03776  55244.80527   5.95981  0.37343  1886691.98074  45.36996  22.25838  55317.53656    51.23307       44.45503   27.25531    50.617   38.0    0.23931  -21.92817  0.98371 
   -28.9954   0.0176  2.85174     13.94709  1.56536  0.53836   6.87223  0.18267     0.03071  11503.83305   6566.93433  0.47496         4892.68878      17.8142  0.00036   55240.6046   5.42513  0.12094  1508230.67252  45.37477  22.26518  55323.26277    51.26145       44.45145   37.39301  49.31913   45.5    0.19452  -21.92366  0.99375 
  -24.79621  0.04931  3.06751     13.98047  1.55523  0.52059   6.48832  0.14631     0.10994  12112.25328   5154.93946  0.33725         4796.58951     17.82085  0.00037  55244.80379   5.67818  0.31996  1486776.52317  45.31482  22.41315      55325.4    51.25194       44.38205   45.88177  57.10636   59.0    0.17962  -21.85155  0.98089 
  -26.66685  0.21463  2.37344     13.98718  1.68865   1.1422  10.93143  0.19048     0.06562  10321.92529   3099.86561  0.37654         5092.03352     19.75392  0.03152  55242.93315   6.94745  2.34618   937034.18432  45.77387  22.20887  55323.26277    51.20325       44.46601   36.48639  40.23403   54.0    0.13761  -21.85829  0.93207 
   -6.51278   0.2534  0.90813     14.21159  1.76733  1.44182   17.4602  0.32366      0.0184   15302.0483   9197.48106  0.69817         3051.77319     18.92045  0.00463  55263.08722  24.38797  4.42441    51080.52184  47.89162  22.35694  55326.12588    51.25223       44.45007   41.28663  48.02126   36.5    0.16741  -21.89576  0.98571 
  -24.86928   0.0745  2.95674     14.06045  1.95687  1.03149   6.96031  0.25883     0.03751  11956.37506   4587.82221  0.48987         5917.22031     18.65241   0.0025  55244.73072   5.93547  0.51851  1202544.07531  45.53868  22.20024  55320.39967    51.19061       44.45608   35.94931  40.62513   40.0    0.20537  -22.03567  0.98025 
    -16.494  0.20348    2.059     14.26782  2.15014  1.37008   11.8217  0.25712     0.01901  11455.31645   7575.33903  0.92648          2836.4499     16.77099    3e-05    55253.106   9.25382   2.4055   246581.46035  46.58204  22.33097  55317.53656    51.21659       44.39846   28.16208  56.19959   40.5    0.15681  -21.70414  0.96298 
   -4.58865  0.25028  0.83784     14.40868  1.84614  0.79407  19.49875  0.28349     0.03029  15636.68407   8819.56877  0.89779         2879.96512     18.16838  0.00082  55265.01135  28.43959  4.88007    18325.14082  48.42574  22.26592  55317.53656    51.21348         44.436   35.94931  47.11449   41.5    0.12663  -21.92764  0.98919 
   -7.38983  0.46279  1.30598     14.37864  1.64175  0.59716  11.85564   0.3061     0.01098  13233.33314   8054.84905  0.73944         3727.59105     16.96467    5e-05  55262.21017  12.38484  5.48672    45468.08301  47.59458  22.33762      55325.4    51.17974       44.42757   38.44062  41.78216   36.5    0.20735  -21.83835   0.9515 
   -6.80384  0.18884  0.71167     14.47804  1.97107  0.67146  22.52977   0.2919       0.101  16319.13169   6626.25868  0.41633         3730.46631     17.61861  0.00023  55262.79616  35.79135  4.25442    10256.50524  48.84798  22.29132  55317.53656    51.32734       44.41636   29.13075  72.10325   58.5    0.10314  -21.99278  0.99472 
