 texplosion  fnickel     Pspin  log(Bfield)      Mns  thetaPB   mejecta    kappa  kappagamma      vejecta  temperature    alpha  cutoff_wavelength  log(nhhost)      A_V         MJD0   kenergy  mnickel            TSD   log(L0)  Peak_mag     Peak_MJD  log(E_rad)  log(Peak_lum)  Rise_Time    E_fold  tau_1  delta_m15     r_peak     frac 
   -9.47082   0.2344   1.35544     14.63344  1.68751  0.58524  19.57836  0.03848     0.28317   9938.64222   9237.42907  0.04648         3466.74699     16.42003    1e-05  58589.82918  11.53606  4.58914    15571.71609  48.03959   19.6468     58635.18    51.24367       44.57551   14.92764  31.85063   39.0    0.26799  -21.31666  0.96586 
   -9.07779  0.19426   1.03272     14.78994  1.73513  0.47843  17.28557  0.05494     0.49511  11170.80992   6750.81445  0.03056         3761.89293     16.53792    2e-05  58590.22221  12.86708  3.35787     4520.92881  48.82499  19.62267  58630.03544    51.03642        44.3309   24.40606  38.64292   40.0    0.29748  -21.34815  0.99129 
  -11.36007  0.38576   5.29943     14.18692  1.68926  1.34968  11.48192  0.04946     0.05661   9273.10401    7224.7653  1.93628         3621.87915     18.45918   0.0016  58587.93993   5.88968  4.42926  1862648.88518  44.77795  19.62211  58631.31113     51.0593       44.37049   24.16801  38.39897   67.0    0.24044  -21.37992  0.59158 
  -13.99214  0.23563    4.9316     14.10136  1.99446  1.35905   8.11352  0.06502     0.02279  10287.27845   6999.23735    0.682         3782.15023     17.71235  0.00029  58585.30786   5.12198   1.9118  2824176.77873   44.7318  19.63191  58631.31113    51.07312       44.38199   24.40606  38.64292   46.5     0.2411   -21.4081  0.83114 
  -13.38849  0.27733   4.38446     14.16037  1.84371  1.29447   8.95458  0.05911     0.03587   9911.13791   7381.88718  0.52742          3885.5026      17.9646  0.00051  58585.91151    5.2471  2.48336  1572557.49949   45.0541  19.61708  58629.39084    50.99737        44.3664   24.40606  34.57525   51.5    0.25733  -21.37005  0.81167 
  -12.37963  0.38975   5.66027     14.04802  1.85085  1.36601   8.54898  0.05363     0.02054   10376.1009   8270.28189  1.87249         3288.77925     19.38667  0.01353  58586.92037   5.49048  3.33194  4413801.23018  44.38573  19.59429  58631.31113    51.09891       44.47367   20.46107  31.52809   48.0    0.24082  -21.36923  0.65432 
  -11.78435  0.29332   5.19963     14.19442  1.69537  1.16556  12.21995  0.05043     0.02262   9472.66561   4845.01676  2.34759         3411.81997     19.23427  0.00953  58587.51565   6.54095  3.58436  1738508.55841  44.82599   19.6655  58631.31113    50.92951       44.16717   26.63845  48.61356   55.0    0.23608  -21.35258   0.6513 
  -11.70521  0.36457    5.4727     14.11572  1.84362  1.47793   8.82108  0.05147     0.02315   9824.89836   8113.50715  2.06508         3050.19818     18.44238  0.00154  58587.59479   5.07931  3.21586  3009151.19666  44.57967  19.58364  58631.31113    50.97176       44.32771   26.43989  32.54141   50.5     0.2448  -21.32767   0.6787 
  -10.37601   0.3964  18.70248      14.7026  1.68344  0.85297  21.84935  0.02027     0.04682   9563.33337   4376.57492  4.65771         3323.58843      19.3546  0.01257  58588.92399  11.92022   8.6611  2150871.18708  43.61863   19.5965  58631.31113     51.0421       44.33641   26.67198  40.67676   94.5    0.21836  -21.30245  0.05511 
   -5.91512  0.12918   0.92983     14.58689  1.99994  1.38702  28.37878  0.04771     0.22858  12547.82501   8722.96405  0.24739         3647.61497     16.75684    3e-05  58593.38488  26.65371  3.66593    10761.45993  48.60118   19.6317     58628.33     50.9552       44.18357   26.43989  50.84595   36.0    0.24027  -21.35059  0.99612 
  -10.71342  0.47807   5.47651     14.58288  1.69964   0.4806  10.54878  0.05794     0.06549  10027.85506   6317.65866  4.03478         2771.83284     19.43552  0.01514  58588.58658   6.32769  5.04301   323157.78494  45.51278  19.55701  58630.03544    51.01359       44.32595   26.67198  38.64292   71.0    0.22898  -21.31878  0.54681 
  -12.81187  0.31733   5.82944     14.19553  1.86327  1.00356  11.35855  0.04558     0.08085   9379.24959   4920.28941  2.60702          3528.1106     18.13579  0.00076  58586.48813   5.96055  3.60442  2389343.08023  44.62959  19.63525  58631.31113    51.07653       44.43431   22.37222  34.57525   66.5     0.2336  -21.41706  0.62729 
  -14.27594  0.22808   4.62167     13.99728  1.78667  1.42166   9.26857  0.05698     0.01197  10194.33951   3502.91706   0.6133         3609.99851     18.46913  0.00164  58585.02406    5.7459  2.11399  3588374.74233  44.63639  19.60734  58631.31113    51.00339       44.27766   24.40606  40.67676   41.5    0.27477  -21.36031  0.81056 
  -12.63135  0.27733   4.46926     14.20591  1.44025  0.39659   6.47265  0.07529     0.22612  11824.00155   7711.06263  2.81997         3264.53678     16.61036    2e-05  58586.66865   5.39807  1.79505  1034897.05672  45.11191  19.60387  58629.39084    50.94736       44.22536   26.43989   42.7106   64.0    0.25101   -21.4359  0.79262 
  -11.79157  0.27406   5.25402     14.23169  1.70988  1.05267  14.17688  0.03944     0.08783   8574.68907    4413.6077  2.08593         3683.89915      16.7767    3e-05  58587.50843   6.21791  3.88525  1507941.42949  44.88244  19.63048     58633.26    51.07669       44.33185   26.43989   42.7106   65.0     0.2342  -21.35017    0.631 
   -12.3728  0.18207   4.22374     14.19001  1.78375  1.38528  11.98529  0.05857     0.10258   9647.01399   5950.08116  0.84245         4016.11962     17.39074  0.00014   58586.9272   6.65368  2.18219  1231777.29628  45.17825  19.64295  58631.31113    51.04139       44.25891   27.99173  52.87979   51.0    0.25904  -21.36247  0.83469 
  -12.01616   0.4146   4.83996     14.09448  1.82417  1.26849   8.52933  0.05535     0.01615  10731.05313    8616.4219  0.83018         2962.67114     19.39611  0.01383  58587.28384   5.85904  3.53624  2568047.89064  44.75063    19.605  58631.31113     51.0448       44.25066   26.43989  44.74444   39.0    0.26109   -21.3933  0.70777 
   -9.99475  0.49688   5.12172     14.47843  1.94968   0.9321  10.51939  0.07755     0.08091  10623.89721   7204.26566  4.69297         2751.69307      19.8074  0.03566  58589.30525   7.08248  5.22684   524507.28927  45.42023  19.62085  58630.03544    51.07239       44.26925   26.43989   42.7106   64.0     0.2223  -21.39662  0.62194 
  -11.61329  0.32575   5.74305     14.30345  1.80237  0.82296  11.09673  0.05922     0.03859   9900.95338   4199.94236  4.26405         3060.67307     18.84115  0.00385  58587.68671   6.48897  3.61478  1364713.42074  44.87136  19.62452      58634.3    51.04532        44.3614   26.67198  38.64292   59.5    0.23119  -21.35274  0.62359 
   -10.3826  0.37844   5.55792     14.46547  1.74302  0.65277  11.44023  0.05138     0.18785   9722.12082   6036.51834  4.26659         2877.44402     18.64232  0.00244   58588.9174   6.45036  4.32938   586151.90802  45.25231  19.59472     58632.81    51.03718       44.35668   24.40606  38.64292   68.0    0.24816  -21.31008   0.5861 
  -12.21619   0.3218   4.25436     14.38483  1.69991  0.74541  11.31729     0.05     0.10873     9132.293   7064.79978  1.06675         3666.97777     18.47361  0.00165  58587.08381   5.63027  3.64187   485566.02236  45.55535  19.61321  58631.31113    51.27435       44.47276   26.43989   42.7106   60.0    0.25602  -21.31659  0.73549 
  -11.89732  0.49051   4.56566     14.09771  1.78206  1.44472   7.30195  0.06119     0.03083   10501.5981   8311.11849  0.50479         2982.85003     18.90156  0.00443  58587.40268   4.80371  3.58165  2199461.72829  44.85844  19.65842  58629.39084    50.97479       44.23966   25.95789  46.77828   47.5    0.24067  -21.35902  0.72282 
   -9.12786   0.3642   4.93784     14.47059  1.77336  0.64022   9.96273  0.07087     0.05677  11029.70035   5551.28859   4.5471         2576.68455     18.80706  0.00356  58590.17214   7.22991  3.62845   459744.23851  45.46805  19.65041     58632.81    51.05515       44.40944   24.16801  34.33129   56.0    0.26192  -21.35369  0.68772 
  -12.81418  0.29006   4.83933     14.10917  1.83111  1.27066   8.19841  0.06146     0.01519   9851.43187   5984.59318   1.0874         4023.23791     19.04112  0.00611  58586.48582    4.7463  2.37806  2408577.73558  44.78023  19.62064  58631.31113    51.10519       44.20695    19.9284  57.74629   42.5    0.27753  -21.45244  0.78394 
  -12.27396   0.2044   3.67704     13.94117  1.41865  1.56841   8.85281  0.06343     0.03367  10060.71601   6824.29013  0.52477         4055.16664     16.93577    5e-05  58587.02604   5.34523  1.80948  2335320.40215  44.92138   19.5828     58628.33    50.96438       44.31169   24.40606  34.57525   50.0    0.26106  -21.37199  0.84983 
  -13.33259  0.28378   4.98145     14.16944  1.84733  1.32795  10.95306  0.05947     0.05411   9675.89492   5704.21453  1.27278         3782.51959     18.59938  0.00221  58585.96741   6.11709  3.10828  1950703.15464  44.85049  19.64888  58633.38942    51.13858       44.40949   22.37222  36.60908   59.5    0.23932   -21.4002  0.72729 
   -13.3107  0.35201   5.67713      14.1117  1.89846  1.03551   8.50687   0.0539     0.06435  10449.55575   6577.68719  1.89538         3208.41787      18.3953  0.00138   58585.9893   5.54106  2.99454  3396809.08278  44.50792  19.62634     58632.81    51.03046       44.39753   22.61618  34.33129   69.5    0.22912  -21.35592  0.68496 
  -12.35118  0.36207   5.59108     14.10373  1.78237  1.26302   9.25036  0.04938     0.01332   9036.88857   6420.30764  2.07825         3681.58703     18.89715  0.00438  58586.94882   4.50634  3.34926  3208749.71856  44.51852  19.63551     58632.81    51.00177       44.31061   25.95789  38.64292   49.0    0.25394   -21.3813  0.64797 
  -14.25169  0.23017   4.95588     14.03545  1.97828   1.4275    8.1608  0.06409     0.01392  10709.93532   6368.19997  0.68616         3626.82073     18.76932  0.00327  58585.04831   5.58385  1.87834  3832110.33452  44.59145  19.57824  58629.39084    51.00477       44.39346   24.16801  32.19469   41.0    0.27703  -21.40929   0.8294 
  -13.32335  0.27784   4.98622     14.09733  1.86917  1.22955   8.85201  0.05292     0.01705   9859.41891   6853.60306  0.89251         3794.18659     18.26694  0.00103  58585.97665   5.13301  2.45948   2756485.0692   44.7046  19.59871     58628.33    51.00027       44.21541   26.43989  44.74444   47.0    0.25018  -21.38064  0.77243 
  -13.32036  0.28787   5.62261     14.07516  1.81853  1.20804   9.94938  0.04959     0.02596   9423.98335   5415.48833  2.04996         3680.84515     18.30932  0.00113  58585.97964   5.27099  2.86417  3776548.64523  44.45159  19.65057      58634.3      51.035       44.38095   26.67198  34.57525   58.0    0.22591  -21.36947  0.68544 
  -11.58932  0.40722    6.8081     14.07253    1.699  1.29394  14.24976    0.032     0.02429   8656.89719   5325.32404  3.60259         3417.17655     19.27343  0.01043  58587.71068   6.37029  5.80285  5235906.29406  44.11399  19.61319  58630.03544    51.02633       44.17057   28.47373  52.87979   78.0    0.19939  -21.35756   0.3963 
  -13.13145  0.32761   4.49512     14.07496  1.74286  1.35742   9.31512  0.05572     0.01144   9787.69736   7486.90478  0.63966         3395.50867     19.18924  0.00859  58586.16855   5.32325  3.05171  2315479.65513  44.83998  19.58005  58631.31113    51.00947       44.23508   27.99173  48.81211   40.5    0.27052  -21.33627  0.75307 
  -12.23197  0.31331   4.50367     14.19805   1.6574  0.91752  10.86693  0.04902     0.02602   9916.31075   4867.40958  0.77633         3724.32844     18.20992   0.0009  58587.06803   6.37433  3.40466   1253936.6606  45.08286   19.5643  58630.03544    51.05493       44.26012   28.47373   42.7106   55.0    0.25363  -21.35713  0.71714 
  -10.75773  0.44254   8.98308     14.40518  1.58532  0.94989  16.88501  0.02245     0.02912    8799.5296   5026.35122  3.09417         3327.19449      18.6627  0.00256  58588.54227   7.79915  7.47231  1838301.06313   44.2977  19.62617  58631.31113    51.04111       44.37233   24.40606  36.60908   89.5    0.22494  -21.26283  0.21264 
  -14.36634  0.33464   4.28465     14.13662  1.70961  0.90753   8.50978  0.05684     0.01546    9920.5526   6856.35508  0.34794         3490.63274     18.63612   0.0024  58584.93366   4.99594  2.84775  1553491.75268   45.0466  19.64283  58630.03544    51.06639       44.28171   24.40606  52.87979   44.5    0.25749  -21.33059  0.77744 
  -13.76167  0.28744   4.87729     14.04152  1.90518   1.2956   7.20469  0.06028     0.01486  10270.57201   7948.92157  0.79092         3741.12973     19.14889  0.00783  58585.53833   4.53348  2.07092    3475906.277  44.63136  19.65957  58631.31113    50.98341       44.25836   26.43989   42.7106   39.5    0.28319  -21.40886  0.81172 
  -11.88653  0.49821   5.07485     14.03739  2.10482  1.54547   6.80902  0.05843     0.19892  11758.33704   4645.94015  1.40272         2305.43159     20.24345  0.09731  58587.41347   5.61569  3.39232  4237436.36657  44.55411  19.62533  58631.31113    51.01773       44.19127   29.25743  50.06225   74.0    0.20717  -21.50482  0.73731 
  -11.63911   0.2551   1.49057     14.41658  1.37884  0.87127  20.48506  0.03793     0.01503   8387.11468   8657.18178  0.62649         3812.24082     18.95162  0.00497  58587.66089   8.59586   5.2258    41770.25228  47.44079  19.60883  58630.03544    51.00767       44.34474   25.95789  34.57525   54.5    0.21365   -21.2011  0.93335 
  -12.64561  0.36387   4.98534     14.10699  1.68086   1.3124   9.90297  0.05576     0.02901   9433.01165   4716.41128  1.60529         3722.66622     18.98472  0.00536  58586.65439   5.25646  3.60336  2370008.57745  44.72424  19.63295  58631.31113    51.05892       44.32506   25.94323   42.7106   57.5    0.23786  -21.40881   0.6653 
  -13.82118  0.27344   4.65021     14.07689  1.80589  1.34334   9.12286  0.06169     0.01553   9673.50926   6210.81961  0.72265          3756.8772     18.17421  0.00083  58585.47882   5.09244  2.49453  2544860.91433  44.78493   19.6448     58632.81    51.06781       44.47994   24.16801  29.37298   46.0      0.237  -21.36045  0.78578 
  -13.90519  0.37612   4.85848       14.023  1.91733  1.04204   7.79033  0.05113     0.01107   9968.48698   9148.75834  0.59627         3607.50231     18.96596  0.00514  58585.39481   4.61787  2.93009   3780168.8812  44.60103  19.62049  58630.03544    51.13035       44.34747   24.40606  40.67676   37.0    0.26237  -21.37072   0.7541 
  -12.32939  0.46393   3.94739     14.11668   1.7063  1.36533   8.31894  0.06269     0.03624  11437.95736    6211.1259  0.35683         2414.52368     20.14179    0.077  58586.97061    6.4922  3.85943  1442551.56686  45.14915  19.66498  58633.38942    51.05825       44.38825   26.67198  36.60908   53.0    0.26837  -21.44681  0.75325 
  -12.54797  0.40845   4.86104     14.23723  1.97572   1.2321   8.43676  0.05846     0.03896  10800.64103   7615.06133  0.33037         3609.00347     19.25442  0.00998  58586.75203   5.87087  3.44596  1453927.40944  45.02857  19.63291  58631.31113    50.97419       44.26978   26.43989  40.67676   51.5    0.26386  -21.36253  0.73706 
  -13.15431  0.34772   4.27271     13.95502    1.446   1.1829   9.52233  0.06126     0.01291   9277.75528   4265.99024  1.24026         3696.47932     18.78789  0.00341  58586.14569   4.88941  3.31113  3015410.20882  44.68826  19.58841  58631.31113    50.97083        44.2518   27.99173   42.7106   47.0    0.23114  -21.37547  0.70028 
  -15.66668  0.15233   4.73816     14.17791  2.06583  1.32932  10.09544  0.06516     0.01025   9405.02176   4899.05698  0.62325         4218.89798     17.32307  0.00012  58583.63332   5.32687  1.53784   1898074.8276  44.95441  19.62329     58632.81    51.07746       44.38859   24.16801   40.4328   39.0    0.27915  -21.36176  0.87566 
  -12.76237  0.40155   5.32092     14.05038  1.92203  1.43867   5.91652  0.06362     0.02029  10191.72918   6205.21721  1.07523         3725.33855     19.01124   0.0057  58586.53763   3.66598  2.37575  4006718.92474  44.49784  19.66678     58632.81    51.14588       44.44235   22.37222  34.57525   46.0    0.26902  -21.38146  0.76137 
  -12.20907  0.33441   5.61197     14.16421  1.64469  0.91227  12.24498  0.04539      0.0499   9096.34629   5031.82251  2.94478         3486.29069     19.09292  0.00688  58587.09093   6.04393  4.09485  2257953.49567  44.63298   19.6649  58631.31113    51.08528        44.3819   24.40606  36.60908   68.5    0.21477  -21.37671  0.56994 
  -11.90991  0.25757     2.503     14.49062  1.73438  0.65517  15.40695  0.04931     0.05406   9299.71832   7255.67389  0.12954         4088.17788     19.28224  0.01064  58587.39009   7.94847  3.96832   105351.63997  46.68843  19.59691  58630.03544    51.04568       44.20984   24.40606  48.81211   55.5     0.2365  -21.29429  0.88547 
   -11.9215  0.47505   4.47924     14.21674  1.73825  0.95943   8.09273  0.05487     0.01463   9797.90628   8014.84666  0.78453         3342.31552     19.78508  0.03387   58587.3785   4.63435  3.84444  1193618.14269  45.12968  19.62359     58628.33    51.04868       44.36914   20.58234  38.39897   42.0    0.28146  -21.35665  0.70941 
  -13.25288  0.27662   5.42447     14.03914  1.92934  1.41194   8.20679  0.06114     0.02461  10644.92893   7509.46981  1.83744         3437.05815     18.15604   0.0008  58586.04712   5.54736   2.2702  4402154.33602  44.44187  19.59787  58629.39084    50.92707       44.27574   26.43989  34.57525   48.5    0.24562  -21.42728  0.76299 
  -12.83814  0.40057   5.06263     14.07544  1.83343  1.17124    8.2982  0.05049      0.0232   9654.24861   8497.09296  0.93852         3733.59884     19.15371  0.00791  58586.46186   4.61368    3.324  3082846.12668  44.63441  19.57517     58632.81     51.0062       44.32532   28.02645  38.64292   50.5    0.22506  -21.38725  0.70213 
  -12.94079  0.29797   6.00766     14.24729  1.71069  0.61581  14.18294   0.0294     0.04038   7942.76399   3847.21965  3.17855         3576.06893     16.05677    1e-05  58586.35921   5.33749  4.22604  1835720.41536   44.6808  19.61674  58631.31113    50.99204       44.30274   26.43989  38.64292   79.5    0.20575  -21.33871  0.53933 
  -11.64279  0.37213   6.02482     14.12217  1.80918  1.38459  10.46802    0.048     0.03576   9399.76019   4807.46984  2.51814         3582.09834     19.07328  0.00658  58587.65721   5.51728  3.89551  3474175.34519  44.42559  19.60545  58630.03544    51.01623       44.40947   22.61618  30.26361   63.5    0.23175  -21.38662  0.58208 
  -10.42262  0.29351   4.41381     14.21856  1.54725  1.17804  10.55729  0.06635     0.01894   9603.58347   5886.01631  2.49659          3442.3861     19.20726  0.00895  58588.87738   5.80826  3.09866  1023015.77723   45.1589  19.65866     58632.81    51.20024       44.59236    16.2707  29.78778   46.5     0.2532  -21.33997  0.72485 
  -10.07812  0.47107   7.64934     14.73608  1.71743  0.45227  15.51052  0.03374     0.08951   9143.61105   5163.54891  3.55137          3300.2543     19.05843  0.00636  58589.22188   7.73551  7.30653   314618.54379  45.23869  19.60177  58630.03544     51.0055        44.2656   26.43989   42.7106   87.0    0.21141  -21.34134   0.3022 
  -13.88617  0.32978   4.72006     14.08283  1.99753  1.08554   6.62658  0.05912     0.02998  11410.19645   6832.38331  0.00776         3380.27989     18.34259  0.00122  58585.41383   5.14639  2.18534  2821926.17059   44.7709  19.56866  58631.31113    51.08497       44.43999   24.40606  34.57525   48.0    0.23819  -21.40459  0.82412 
  -11.20692  0.33712   3.55922     14.24043  1.59886  1.27213  12.51003  0.05649     0.05159   9958.80662   7342.44968   0.9477         3529.48119     18.81827  0.00366  58588.09308   7.40116  4.21743   621538.59181  45.57648   19.6181  58629.39084    51.05937       44.28171   24.40606  48.81211   56.5    0.25411  -21.37256  0.75867 
  -11.29487  0.41902   4.00409     14.38205  1.65425  0.84672  11.51104  0.05345     0.02409   9856.91543   8604.68986  0.83451         3647.82145     18.60032  0.00221  58588.00513    6.6715  4.82336   423967.73419  45.65511  19.57485     58632.81    50.99013       44.30964   28.70582  36.60908   49.5    0.25301  -21.33876   0.6954 
  -12.78613  0.31806   4.43415     14.19893   1.7192  1.35742  10.18397  0.06026     0.05763   9672.63325   7247.47293  0.88209         3695.26975     18.76407  0.00323  58586.51387   5.68373  3.23916  1255739.02669  45.11165  19.63564      58634.3     51.0851       44.46704   24.63814  32.43865   56.0    0.25041  -21.31442   0.7449 
   -12.3506  0.44128   4.50923      14.1111  1.47382  0.87502   9.37299   0.0455     0.02052   10058.1287   8486.68446  1.96012         2854.51148     18.27876  0.00106   58586.9494   5.65639  4.13608  1668249.98743  44.90682  19.58884  58631.31113    51.07641       44.19878   27.22359  54.12993   49.5    0.24809  -21.36536  0.63455 
  -13.25821  0.28711   3.84597     14.06174  1.41133  0.73092    9.9935  0.04773     0.01116  10227.86612   9024.69788  0.41914          4059.4984     16.02991    1e-05  58586.04179   6.23613  2.86919  1458767.01497  45.08448  19.64403     58632.81    51.00901       44.35004   26.67198  34.57525   36.0    0.27319  -21.38325  0.76278 
  -13.69269  0.26779   5.31554     14.08492  1.85386  1.29813   9.20277  0.05567     0.02027   9262.40894   5115.10188  1.65161         3715.21305     18.13326  0.00076  58585.60731   4.70971   2.4644  3289681.82474  44.56867  19.57061  58630.03544    51.06314       44.35926   25.95789  36.60908   52.0    0.23513  -21.37075   0.7458 
  -12.74266  0.30326   4.13552     14.11558  1.70462  1.25616   9.42804  0.05885     0.03021   10579.2159    7075.1705  0.69947         3384.36874     19.96956  0.05179  58586.55734   6.29442  2.85918  1589775.71442  45.06608  19.65004  58630.03544    50.98674        44.2223   26.43989  46.77828   49.5     0.2656  -21.42973  0.78907 
  -11.42393  0.40042   6.71763     14.25964  1.70962  0.78649   12.7173  0.03628     0.15562   8626.71875   4897.13896  3.95578         3461.45676     19.15538  0.00795  58587.87607   5.64564  5.09221  2167016.54096  44.51145  19.60212  58631.31113     50.9864       44.29534   26.43989  36.60908   77.5     0.2237  -21.36417  0.43929 
  -13.05228  0.34585   5.84203     14.13023  1.88685  1.11307   9.65333  0.05571     0.01313  10007.06722   4630.34858  2.67278          3177.1859     19.04329  0.00614  58586.24772   5.76658  3.33857   3282669.1521  44.49523  19.63776  58630.03544    50.96182       44.25351   28.47373  40.67676   46.0      0.251  -21.35304  0.64696 
  -13.54914  0.29555     4.315     14.17695  1.87681  1.06429   8.28454  0.06232     0.04318  10857.74618   7649.37189  0.08793         3562.39447     17.20102    9e-05  58585.75086   5.82606  2.44847  1436461.51914  45.11501  19.57957  58627.53174    50.96972       44.19695   24.40606  48.81211   49.5    0.25825  -21.37405   0.8223 
  -12.98553  0.42985   4.83963     14.28659  1.79865  0.99386   9.70639  0.04625     0.07486   8733.62376    8339.9205  0.77303         3963.95967     18.03735  0.00061  58586.31447   4.41646  4.17228  1045236.26409  45.13495  19.69517  58631.31113    50.97869       44.22335   24.40606  40.67676   63.5    0.24211  -21.27657  0.67026 
  -14.45063   0.1353   3.92442      14.0384  1.76543  1.50125   7.53215  0.07558     0.02327  10232.84652   3271.30498  0.51242         3774.27313     19.79331  0.03452  58584.84937   4.70478  1.01912  2115563.82445  45.00272  19.64114     58628.33    50.95386        44.2616   24.40606  40.67676   43.0     0.2624  -21.44586  0.92449 
  -11.66784   0.4699   4.84701     14.16486  1.69115  1.25291   9.43883  0.05642     0.01401    9794.2943    8154.6403  1.18884         3151.27857      18.5413  0.00193  58587.63216   5.40122  4.43535  1726718.36764  44.88886  19.71922  58629.39084    51.04561       44.35582   22.37222  36.60908   43.5    0.24461  -21.32504  0.63405 
  -12.44013  0.48835   4.29099     14.11989  1.67959  0.98089   7.95226  0.04951     0.01468   8833.58156   9739.47726  0.55467         3850.03703     19.62252  0.02329  58586.85987   3.70161  3.88349  1653325.29698  45.01058  19.63886  58627.26088    51.05899       44.15293   24.40606  73.21817   41.5    0.22874  -21.33141  0.71343 
  -11.67237  0.38654   4.44415      14.1639  1.60486  1.36056  11.87656  0.05011     0.03255   9278.55791   7181.11256  1.83078         3339.66199     19.97227  0.05212  58587.62763   6.09929  4.59074  1383664.55086  45.03767  19.62726  58631.31113    51.08612       44.29072   24.40606   42.7106   62.5    0.23015  -21.39895  0.64894 
  -12.24475  0.35332   6.03749     14.55603  1.98399  0.47419   9.10939  0.07193     0.09046  10356.12849   5253.52351  4.32173          2986.2129     18.94931  0.00494  58587.05525   5.82789  3.21853   518808.00653  45.28967  19.59808  58631.31113    50.99162       44.26407   26.43989   42.7106   59.5    0.24344  -21.36258  0.66024 
  -15.23943  0.22061   4.90248     14.04278  2.15378  1.53435   5.91545  0.07078     0.01706   9926.03824   7225.15876  0.33792         4093.08307     17.67003  0.00026  58584.06057    3.4767  1.30499  3947260.75536  44.62492  19.68659     58633.26    51.08781       44.35752   25.95789  40.67676   41.5    0.25656   -21.3705  0.89022 
  -13.96962  0.25648   4.02983     14.07173  1.65119  1.15749   9.85518  0.05532     0.01017   9377.56811   7259.46879  0.87169         3796.25165     20.16459  0.08116  58585.33038   5.16978  2.52765  1789447.88824  45.02335  19.62047  58631.31113    51.02082       44.38072   26.43989  32.61856   40.0    0.27631  -21.42593  0.80904 
  -13.03615  0.33552   4.59592     14.08402  1.79364  1.51431   9.62379   0.0577     0.04159   10010.5799   8919.47106  1.06074         2843.43715     19.95659  0.05027  58586.26385   5.75296  3.22896  2389235.54183  44.81958  19.61209     58632.81    51.03018       44.38307   26.67198  33.32227   51.0    0.21702  -21.36219  0.74217 
  -12.24803   0.1734   1.49456     14.25322  1.52158  1.24848  12.42181  0.05783     0.11522   9323.52437    8545.2192  0.08095         3796.68349     18.75223  0.00314  58587.05197   6.44128    2.154    98331.22957  47.10942   19.6203  58630.03544    51.07754       44.33696   22.61618  36.36513   35.0    0.29168  -21.26629  0.97247 
  -11.93265  0.47317   4.90487     14.19863  1.75244  0.91295   8.73709  0.04972     0.01586   9121.91455   7910.00629  0.81009         3942.89261     18.76227  0.00321  58587.36735   4.33677  4.13412  1568401.35414  44.93578  19.61899  58631.31113    51.08328       44.42269   22.61618  35.11215   49.5    0.23766  -21.35449  0.65578 
  -12.37238  0.24082   3.78578     13.94479  1.68302  0.99286  12.27364  0.03927       0.227  10522.48045   9116.67462  3.57213         2670.45795     20.76418  0.32278  58586.92762   8.10656  2.95573  2888196.44353    44.878  19.63856  58630.03544    51.00067       44.26497   24.40606  40.67676   60.5    0.21266   -21.7268  0.80616 
  -13.43422  0.38675   5.75945     14.17096  1.90376  0.81891   7.73621  0.04938     0.02176   9219.42937   3812.89667  1.81918         3449.79363     17.01021    6e-05  58585.86578    3.9225  2.99199  2668533.67956  44.60142  19.51394  58630.03544    50.97872       44.32355   24.40606  34.57525   57.5     0.2144  -21.30632  0.67907 
  -13.53804  0.35493   4.50588     14.10896  1.84695  1.43161   7.79194  0.06361     0.02213  10454.08791   8479.04684  0.22976         3394.47639     18.11327  0.00072  58585.76196   5.07978  2.76561  2108179.49006  44.90383  19.60893     58633.26    51.03834       44.35516   24.40606  36.60908   40.0    0.25456  -21.33931   0.7854 
   -2.37957  0.30383   0.75135     14.87939  1.62313  0.80869  23.81873  0.04344     0.39722  12693.71398   5841.64733  2.61258         3375.51412     17.23798   0.0001  58596.92043  22.89408   7.2368     1482.76844  49.55644  19.58733  58631.31113    51.04093        44.2723   27.99173   42.7106   86.5    0.21778  -21.31175  0.99833 
  -12.54629  0.33613   4.89646     14.14471   1.6926  1.10728   9.63636  0.04963     0.01272   9845.06049   7720.02616  1.35008         3540.18639     19.01076  0.00569  58586.75371   5.57156  3.23912  1935168.79668  44.83092  19.64687  58629.39084    51.03444        44.2466   27.99173  48.81211   42.0    0.27531  -21.37693  0.69865 
  -12.07602   0.2971   3.37387     14.99339  1.78618  0.18526   12.5692  0.06376     0.12908  10368.66331   9824.76241  0.40501         3726.80888     19.92017  0.04623  58587.22398   8.06084  3.73435    19463.70729  47.17529  19.57596  58629.39084    50.93896       44.23444   26.43989  40.67676   38.0    0.25588  -21.39404  0.82366 
  -11.59439  0.20475   3.05449      14.0869  1.46845  1.53977  10.96604   0.0728     0.01627  10821.69315   5617.58803  0.62309         3448.46159     20.01111  0.05699  58587.70561   7.66069  2.24531   852607.60201  45.53508  19.60373     58632.81    50.97828       44.32084   28.70582  34.57525   38.0    0.28826  -21.42766  0.87569 
  -13.37775  0.36113   4.86982     14.09067  1.73353  1.19572   9.14886  0.05416      0.0158   9468.33769    8104.2492  0.91931         3682.98741     18.29467  0.00109  58585.92225   4.89262  3.30389  2514334.48466  44.73233  19.59332  58631.31113     50.9993       44.32363   25.95789  36.60908   46.0    0.23949   -21.3397  0.70343 
  -13.33123  0.38198   4.45829     13.88697  1.81947  1.51685   6.00761  0.05689     0.01162   10463.1349   9343.75635  0.76931         3142.72164     18.08863  0.00068  58585.96877   3.92331   2.2948  5651299.80884   44.4783  19.61664  58630.03544    50.97154       44.20376   27.99173  48.81211   34.0    0.29691  -21.38406  0.81071 
  -11.56134  0.34135    5.2904     14.16852  1.58029  1.05854  11.13018  0.04977     0.05727   9725.61512   7133.48472  2.76536         3381.06317     18.12187  0.00074  58587.73866   6.28006  3.79934  1890105.67914  44.74412  19.62041  58631.31113    51.02878       44.17526   29.25743  64.29912   62.5     0.2534  -21.36962  0.60437 
  -15.43522   0.1914   4.42435     13.98728  1.90319  1.47671   6.96179   0.0688     0.01608   9986.06139   8965.22163  0.18736         4077.95552     17.73446   0.0003  58583.86478    4.1413  1.33245  3668068.14719  44.69219  19.64799     58632.81    51.00829       44.36301   25.95789  33.32227   35.5    0.26174  -21.34778  0.89051 
  -12.01151  0.30071    5.9654     14.31426  1.70385  0.72926  13.61895  0.03979     0.11747   8741.36914   4140.97405  3.54694         3447.38121     17.97785  0.00053  58587.28849   6.20769  4.09533  1324359.74465  44.82699  19.61417  58631.31113    51.04123       44.34125   24.40606  38.64292   67.5    0.23379  -21.34808  0.55398 
  -13.32084  0.28376   5.38903     14.10459  1.81239  1.07715  10.59144  0.04818     0.03031   9377.62587   5609.02269  1.85152         3684.53734      18.2179  0.00092  58585.97916   5.55607  3.00538  3019342.30932  44.58416  19.67127  58627.26088     51.0407       44.19481   22.37222  63.04898   61.5     0.2235  -21.39911  0.69296 
  -11.55222  0.34575   5.91958     14.77666  2.14261   0.2715   8.58257  0.07554      0.1737  11507.34187   4731.17581  4.46756         2767.30948     19.36879  0.01299  58587.74778   6.77945  2.96743   194989.01139   45.7652  19.65099  58629.39084    51.03892       44.22771   24.40606  44.74444   58.0    0.25626  -21.46465  0.71046 
  -14.13777  0.21925   4.80545     14.04987  2.00513  1.54722   8.21781  0.06437     0.02403  10942.44835   6792.92017  0.23195         3796.53824     17.64858  0.00025  58585.16223   5.86965  1.80173  3417344.16977  44.67383   19.6491     58632.81    51.04628       44.39888    24.8821  34.40844   46.0    0.23251  -21.40371  0.84669 
  -11.46179   0.3762   4.65867      14.5605  1.55399  0.42893   12.6125  0.04786     0.12048   9369.04369   6335.24486  2.00943          3276.5951     17.32019  0.00012  58587.83821   6.60418  4.74487   237019.70536  45.74899  19.64891  58631.31113    50.97465       44.18768   28.67229  48.61356   71.0    0.23536  -21.33278  0.60816 
  -11.81127  0.29657   4.02077     14.23948  1.53035  1.18599  15.13753  0.04679     0.04399   8587.92132   7236.07554  1.86413          3686.1074     19.20865  0.00898  58587.48873   6.65976  4.48927   762545.92246  45.36275   19.6077  58631.31113    51.02953       44.38102   24.40606  34.57525   62.5    0.22007  -21.34843  0.68374 
   -12.5373  0.27324   4.68194     14.05937  1.80501  1.55538   8.33666  0.05933     0.01069   9294.65182    7377.5687  1.02897         3743.60465     18.94589   0.0049   58586.7627   4.29621  2.27792   2795171.6315  44.73807  19.66489     58633.26    51.17107       44.51482   14.23687  32.54141   39.5    0.28114  -21.37571  0.79823 
  -12.40618  0.33173   5.41783     14.13224  1.98098  1.41633   8.00192  0.05706     0.05121  11294.33836   7790.85294   0.6976         3512.05423     17.56944  0.00021  58586.89382   6.08895  2.65451   2936701.2357  44.63022  19.57945  58630.03544    51.03924       44.24781   26.43989  44.74444   53.5    0.26304  -21.37919  0.74402 
  -13.45816   0.2583   4.55245      14.0735  1.80323  1.29766   8.22964   0.0572      0.0355  10058.29034   6804.11644  0.62403         3653.05712     19.45996  0.01602  58585.84184   4.96657  2.12574  2473817.83813  44.81504  19.58512  58631.31113    51.02102       44.33852   26.67198  38.64292   54.5    0.24338  -21.36961  0.81758 
  -12.05371  0.40209    4.4136     14.02104  1.62508  1.24219   8.52735  0.05415     0.02953  10494.06851   9048.26792  0.74752         3576.43374     20.11178  0.07186  58587.24629   5.60182  3.42877  2668004.72968  44.76395  19.59027  58631.31113    51.07026       44.39421   24.16801  35.11215   47.0    0.24787   -21.4338  0.71638 
  -13.88494  0.21856   4.68802     14.01217  1.85598  1.49548   5.94912  0.07061     0.02487  11277.05137   4317.99218  0.42805         3686.69178     18.91075  0.00452  58585.41506   4.51306  1.30026  3581113.02018  44.64142  19.64537  58630.03544    50.96776       44.24873   26.43989   42.7106   42.0    0.29227   -21.3877  0.87742 
   -12.3017  0.33408   4.01143     14.13857  1.78344  1.46681   7.75441  0.06553     0.03801  11103.49213   8099.40721  0.21524         3107.44769     19.31783  0.01155   58586.9983   5.70289  2.59063  1407739.76256  45.16498  19.63163  58630.03544    50.96895        44.2219   26.43989  44.74444   43.5    0.28174  -21.39144   0.8248 
  -10.28184  0.41222   6.69844     14.09506  1.69547   1.0958  12.19533  0.03404     0.01081   8846.00399   4600.67134  4.09288         3239.56425     18.79544  0.00347  58589.01816   5.69266  5.02718  4559731.04363  44.18725  19.63569  58629.39084    50.98714       44.28168   24.40606  40.67676   58.0    0.22121  -21.30006  0.43811 
  -15.16348   0.1816   4.99526     14.08452  2.07403  1.36192   7.73089  0.06316     0.03011    9942.5388   4981.67414  0.60779         4012.42633     17.43264  0.00015  58584.13652    4.5588  1.40393  3256111.96552  44.67585  19.68452  58627.26088    51.05903       44.13501   24.40606  81.35352   52.0    0.23428  -21.39271  0.87338 
  -13.63882  0.37168   4.66715     14.34954   1.4467  0.31243    11.356  0.04154     0.02286   9972.01634   8345.33673  2.22412         2969.51409     16.90295    4e-05  58585.66118   6.73625   4.2208   585072.32747  45.32391  19.60323     58636.21    51.13928         44.424   15.67948  37.98117   59.5    0.18816  -21.36138  0.60132 
  -11.70401  0.42524    6.5547     14.09573  1.70855  1.18304  11.02345  0.03457     0.01569   8645.07257   5069.00163  2.97277         3533.03284     19.13275  0.00754  58587.59599   4.91453  4.68764  4386285.37892  44.22627  19.67079  58629.39084    51.03476       44.24407   24.40606  44.74444   63.5     0.2212  -21.32084  0.47023 
  -14.56587  0.24186    5.0551     14.10514  2.00783  1.25888   7.94816  0.06303     0.02242   10126.6718   7386.68534   0.9303         3762.38434     18.35757  0.00127  58584.73413   4.86214   1.9223  2935743.39423   44.6964  19.55003  58629.39084    51.04318       44.22296   26.43989  48.81211   46.5    0.24722  -21.42561  0.82438 
  -12.59765  0.35542   4.93843     14.13706    2.016  1.02193   6.21616  0.05682      0.0355  11464.94169   9030.38738  0.07792          3613.8421     18.07229  0.00066  58586.70235   4.87408  2.20936   2428628.7165   44.8008  19.64389     58633.26    50.98247       44.32025   28.70582  34.57525   41.0    0.23431  -21.36904  0.81139 
  -10.32614   0.2749   4.76935     14.10597  1.60458  1.49776  12.55104  0.04098     0.02265   9119.70459   8134.55733  1.89607         3368.14549     17.58862  0.00022  58588.97386   6.22685  3.45023  2080429.33495  44.79913  19.60193  58629.39084    51.03794       44.20285   26.43989  52.87979   54.0    0.24799  -21.33413  0.67989 
  -11.69009  0.33697   5.02462     14.02935  1.53535  1.48855   9.97102  0.04864     0.01639   8957.02037   6431.82192  2.56485         3605.36357      19.9183  0.04603  58587.60991   4.77193  3.35998  3144356.57456  44.55532  19.59412  58631.31113    51.04185       44.22809   26.43989  46.77828   52.0    0.25795  -21.39875  0.64602 
  -12.49106   0.3473    4.2745     14.06831  1.57106  1.24902  11.32228  0.04879      0.0273    8856.7197   8431.11756  1.21126         3638.76702      20.0111  0.05699  58586.80894   5.29794  3.93225  1946097.09708   44.9141  19.61211     58632.81    51.04574       44.30887   24.40606  38.64292   56.5    0.22323  -21.38995  0.69201 
  -12.09156  0.37386    4.7445     14.12336  1.81005  1.33692   8.54144  0.05569     0.02247  10060.28319   8103.80123  0.85881         3170.98442     19.15949  0.00802  58587.20844   5.15678   3.1933  2143724.59632  44.84299  19.63529  58630.03544    51.05431        44.2548   24.40606  46.77828   46.5    0.24255  -21.34875  0.73485 
  -12.38953  0.47262   6.01865     14.08596  1.95603  1.24364   8.95018  0.04518     0.04938  10459.97273   8845.51167  1.54075         3171.42831     18.75717  0.00318  58586.91047   5.84144  4.23003  4428591.18681  44.35496  19.60773  58627.53174    51.04078       44.28468   24.40606  40.67676   64.0    0.20619  -21.35553  0.58802 
  -12.75282  0.43888    5.5764     14.21341  1.79177  1.15723  10.15067  0.05531      0.0184   9693.94905   7896.44967  1.74096         3271.01018     19.01991  0.00582  58586.54718   5.69015  4.45489  1936347.13742  44.74244  19.57548  58630.03544    50.99061       44.34745   26.43989  33.32227   50.5    0.22593  -21.32898  0.58609 
  -12.00148  0.31174    5.6932      14.2435   1.8216   0.8875  11.06937  0.05834     0.08324   9762.18645   4801.12025  4.13642         3147.53834     19.33718  0.01208  58587.29852    6.2928   3.4508  1786406.40959  44.76661  19.74545     58632.81    51.11101       44.38829   18.30454  39.42379   62.5    0.22188  -21.38582  0.64129 
  -12.82891  0.42314   5.72901     14.09659  1.91141  1.03608   8.31378  0.04428     0.05138   9955.73256   7186.09137  1.39073         3522.69461     18.28777  0.00108  58586.47109   4.91555  3.51788  3733735.17682   44.4619   19.6187  58631.31113    51.05475       44.35839   22.61618  36.36513   71.5    0.22232  -21.35688  0.64652 
  -14.84291  0.19826   4.64434     14.05902  1.86516  1.41674   9.54709  0.06069     0.01227   9322.78391   5676.74261  0.91159          3947.9434     17.33344  0.00012  58584.45709   4.94982  1.89284  2846694.93797  44.75137  19.65822  58631.31113     51.0416       44.31364   24.40606  36.60908   43.5    0.24514  -21.39951   0.8354 
  -14.31396  0.34666   3.58388     13.95511  1.53324   1.2573   7.50452   0.0622     0.01281   9604.62773   9106.38505  0.10104         3751.60767     18.46546  0.00162  58584.98604   4.12963  2.60153  2248627.41982  44.99383  19.57838  58627.53174    51.03143       44.34937   22.61618  38.39897   34.5    0.26857   -21.3279  0.82292 
  -10.31693   0.4139   6.14544     14.28443  1.77419  0.74279  10.77434  0.04984     0.48593    9661.4222   3860.30963  4.83468         3136.64962     19.39463  0.01378  58588.98307   5.99929  4.45949  1679027.83974  44.71568  19.59784     58632.81    51.01717       44.37739   25.95789  33.32227   70.5    0.23043    -21.405  0.53167 
  -15.05877  0.24135   5.05767     14.05649  2.10466  1.33271   7.37855  0.06036     0.01471  10123.85582   8041.43067  0.36609         3989.21952     17.37612  0.00013  58584.24123   4.51118  1.78083  3854020.21645  44.59821    19.605  58631.31113    50.96885       44.23935   28.47373   42.7106   40.0    0.26157   -21.3545   0.8435 
  -13.05682  0.34204   4.04087     14.08783  1.54199  1.18055   9.62567   0.0554     0.03134   9322.12335   8684.26184  1.00707         3715.32742     19.44895  0.01562  58586.24318   4.98985  3.29239  1560225.49266  45.05079  19.60422  58630.03544    51.07407       44.40649   22.61618  35.11215   50.0     0.2408  -21.39053  0.74542 
  -11.56999  0.46587    6.0398     14.24387  1.70797  1.00719  10.35902  0.04962     0.02756   9623.46052   6805.80463  2.03293         3470.45747     18.69144  0.00273  58587.73001    5.7228  4.82592  1881938.26781  44.66468  19.59945  58630.03544    51.05959       44.16604   28.67229  60.81659   63.0    0.23721  -21.32802  0.50855 
  -12.65867  0.32019   4.97178     14.16555  1.83134  1.28389   9.73085    0.059     0.01677   9630.45036    6457.7908  1.07599         3855.25007     19.24058  0.00967  58586.64133   5.38358  3.11574  1961147.56461  44.84608  19.65552  58630.03544    50.92052       44.21243   30.02557  38.64292   47.0    0.25515  -21.38336  0.72491 
  -13.84218  0.29016   5.09821     14.01847  1.77532  1.14798   7.94874  0.06063     0.02125  10475.18431   8357.56177  1.30169         3530.49307     18.07098  0.00065  58585.45782   5.20294  2.30639  3935458.96905  44.50829  19.61827     58632.81    51.10556       44.44263   23.92405  34.57525   44.0    0.23763  -21.37386  0.75995 
  -10.85135  0.38164   5.68377     14.12336  1.56539  1.16516  10.58594  0.04268     0.02913   8854.63389   7023.31326  4.20703         3302.87839     19.18243  0.00846  58588.44865   4.95105  4.03997  2660679.22674   44.5292  19.65174  58630.03544    51.09583       44.35767   23.90939  36.60908   63.5    0.25412  -21.36418  0.54975 
  -10.72598  0.34968   3.73471     14.22182  1.32792  0.92998   10.8058  0.06857      0.0392   9404.23114   7591.45821  1.93263         3400.24853     18.49123  0.00172  58588.57402   5.70073  3.77862   619232.58823  45.45565  19.56411  58631.31113    51.05858       44.41641    24.8821  34.33129   54.5    0.23026    -21.277  0.70642 
  -11.13732  0.46196   6.08117     14.25913  1.86219  1.31156  10.29455  0.04714     0.01325   9573.54238   5364.33747   3.6314         2828.46055     18.99178  0.00545  58588.16268   5.62834  4.75568  1938880.75432  44.68334  19.64469  58631.31113    50.99939       44.32762   24.40606  36.60908   52.0    0.24538  -21.31003  0.54205 
  -11.84773  0.45769   4.52626     14.52271   1.7353  0.57082  10.16871  0.05178     0.02419   9478.02421   6603.21026   1.0588         3421.66451     20.11615  0.07259  58587.45227   5.44915  4.65414   297341.50422  45.72349  19.62673     58632.81    51.08354       44.43202   22.61618  35.11215   58.5    0.26009  -21.31095  0.66478 
  -10.30879  0.44941  12.33459     14.45097  1.74376  0.94645    17.165  0.02044      0.0564   8403.86436   4071.72325  4.79608         3388.20259      19.5523  0.01982  58588.99121   7.23151  7.71413  3087477.86946  43.83848  19.60911  58630.03544     51.0624       44.31354   24.40606   42.7106   96.5    0.23228  -21.30523  0.13608 
  -11.10149  0.39931   3.95151     14.17811  1.48155  1.55725  12.21648  0.05342     0.09567   8906.16483   6353.69071  1.43022          3748.0351     19.78003  0.03348  58588.19851   5.78036  4.87812   945904.84312  45.27019  19.64702  58629.39084     50.9955       44.19682   28.47373  46.77828   70.0    0.22165  -21.35877  0.66231 
  -13.72058  0.23446   4.50097     14.10383  1.99826  1.55333   7.10922  0.06888     0.03279  10982.16782   7791.14028  0.20709         3637.92243     18.38406  0.00135  58585.57942   5.11476  1.66684  2330364.04235  44.89546   19.5903  58631.31113    51.08574       44.35954   22.61618  38.39897   44.0    0.26103  -21.42186  0.87234 
  -12.61537  0.32165   5.31373     14.10067   1.8292  1.36255  10.10505  0.05426     0.02101   9924.38076   7461.64096  1.70478         3436.33528     19.06468  0.00645  58586.68463   5.93707  3.25034  3016722.14169  44.60077  19.62057  58631.31113    51.20655       44.43066   24.40606   42.7106   51.5    0.23229  -21.39665  0.68644 
  -12.89622  0.25429    5.1341     14.13242  1.82507  1.20339  10.16547  0.05433     0.03493   9825.54461   5559.86518  1.49979         3603.71389     19.05878  0.00636  58586.40378    5.8542  2.58497   2427644.9739  44.72401   19.6137     58632.81    51.09098       44.43854   24.40606  35.35611   56.0    0.24588  -21.38642  0.74667 
  -12.65981    0.333   4.62063     14.09855   1.8246  1.08266   7.69021   0.0509     0.01196  10081.95588   7894.92484  0.49085         3681.98619     18.72054  0.00292  58586.64019   4.66289  2.56082  2297682.48126  44.83932  19.63263  58629.39084     50.9181       44.21467   24.40606  38.64292   38.5    0.29739   -21.3524  0.78573 
  -13.50157  0.27964   5.04926     14.11237  1.95589  1.27648   7.50673  0.06323     0.02495  10900.66749   6093.05953  0.59965         3663.34155     18.25193  0.00099  58585.79843   5.32088  2.09917  2759828.64843  44.71285  19.56247  58630.03544    51.01342       44.26924   26.43989   42.7106   46.5    0.26249   -21.3893  0.80589 
  -12.99887  0.49683   5.32205     14.16828  1.85962   1.2554   8.27921  0.05237     0.03247    8786.3257   7689.08671  0.88354         3967.76494     17.67145  0.00026  58586.30113   3.81268   4.1134  2253442.51653  44.73326  19.62705  58633.38942    51.00422       44.32204   28.47373  36.60908   62.0    0.21912  -21.31252  0.63988 
  -13.43339  0.24657   3.63951     13.96909  1.64044  1.34323   7.22079  0.06386     0.01004   9629.82867   8491.60467  0.25163         4063.82985     20.09489  0.06912  58585.86661   3.99438  1.78047  2326429.24267  44.99503  19.61666     58632.81    51.01356       44.35955   26.43989  34.57525   34.0    0.32431  -21.38288  0.87929 
  -10.10265  0.36773   4.28656     14.12083  1.68233   1.4643  10.53812  0.06413     0.24802  10398.34594    3290.5176  3.33299         2982.59475     20.52789  0.18734  58589.19735   6.79703  3.87521  1645450.05065  45.01425  19.63038  58631.31113    51.13176       44.48848   20.46107   34.3498   59.0    0.24457  -21.56787  0.71598 
  -13.98489   0.2594   4.62707     14.06825  1.90718  1.14425   7.45553  0.05999     0.02402  10365.04735   6770.84588   0.1957          3710.6159     19.01098   0.0057  58585.31511   4.77802  1.93398  2769018.18839   44.7763  19.62909  58631.31113    51.07973        44.4141   22.37222  34.57525   48.5    0.23767   -21.3459  0.83753 
  -12.27278  0.34042   4.98162     14.10927  1.65215  0.91634  10.49455  0.05141     0.01414  10150.41178   6691.24617  2.08212          3214.7831     19.90825  0.04498  58587.02722   6.44998  3.57257  2301771.00277  44.73009  19.61621      58634.3    50.97766       44.26907   30.02557  38.64292   48.0     0.2386  -21.41287  0.65987 
  -13.56376  0.26902   5.52944     14.05631  2.00751  1.39846   8.66293  0.05655     0.01914   10091.2007    6653.0685  1.60777         3578.57531     18.39287  0.00137  58585.73624   5.26233  2.33049  4397538.82448  44.44293  19.61238     58632.81    50.97764       44.32158   26.67198  34.57525   49.5    0.23528  -21.41131  0.76193 
   -13.2453   0.4566   5.15807     14.21903  1.95655  0.74392   8.09127  0.04857     0.02413  10618.31858   5943.86836  0.34513         3627.22164     17.19001    9e-05   58586.0547   5.44196  3.69449  1762867.88897  44.88914  19.59153     58628.33    50.96852       44.31369   24.40606  34.57525   55.0    0.21031   -21.3776  0.69194 
  -12.12929  0.34679   4.13137     14.28576  1.74327  0.82656  10.97506  0.04071     0.06466   8914.76238   8772.78846  0.39121         3807.42346     17.79792  0.00035  58587.17071     5.203  3.80599   741056.45129  45.40817  19.60979  58631.31113    51.02082       44.18863   28.67229  54.71507   58.5    0.23234  -21.26517  0.74498 
  -12.43065  0.35515   4.32587     14.09144  1.71685  1.41634    8.5287  0.06014     0.04355    9685.6153   9393.98893  0.95233         3434.66827     20.19925   0.0879  58586.86935   4.77271  3.02895  1958000.25373  44.93962  19.67669     58636.21     51.1819       44.48621   20.33838  34.57861   47.0    0.24754  -21.39702  0.76499 
  -10.63628  0.40893   5.10192     14.50412  1.64517  0.62396  12.32618  0.05662     0.13049   9496.48283   4632.87475  2.71559         3450.23445     17.86593  0.00041  58588.66372   6.63103  5.04055   390166.58095  45.47834  19.62276  58630.03544    51.04007       44.41598   22.37222  32.43865   66.5     0.2219  -21.37106  0.57066 
   -10.0093  0.49702   5.35347     14.18104   1.7515  1.23505   9.69077  0.03883     0.02294   9988.76984   8418.84694  2.24816         2636.85393     19.43234  0.01503   58589.2907   5.76779  4.81652  2024964.59825  44.74857  19.58003  58630.03544    50.97014       44.24917   27.99173   42.7106   55.5    0.25475  -21.31897  0.57879 
  -11.57693    0.343   5.18654     13.96303  1.82271  1.42099   7.12451  0.05966     0.01539  11408.69533   8084.09194  2.35909         2921.29951     18.45273  0.00158  58587.72307   5.53164  2.44371  5398005.67596  44.36757  19.58777  58631.31113    51.04479       44.33697   24.40606  40.67676   38.5    0.29125  -21.40413  0.74894 
  -15.86308   0.1882   4.92381      14.0054  2.07619  1.49791   6.75946  0.06738     0.01612   9634.10794   6910.87752  0.69273         4123.14291     17.51612  0.00018  58583.43692    3.7425  1.27216  4559200.02345  44.54262  19.60377  58630.03544    51.04125       44.17486   29.95226  61.01514   44.0    0.25007  -21.41011  0.88595 
  -12.53814  0.39981   5.06748     13.97559  1.79359   1.4128   7.42502  0.05332     0.01666   9829.91059   7488.27084  1.08714         3625.97634       19.118  0.00729  58586.76186   4.27981  2.96861  4785610.71349  44.43305  19.59399  58630.03544    50.99562       44.20432   28.47373  48.81211   47.5    0.23198  -21.37013  0.71623 
  -11.18065  0.47527   5.49728     14.49306  1.78066  0.65787   10.2961  0.04921     0.05336   9535.41558   7819.62913  2.09321         3245.20886     18.65018  0.00248  58588.11935   5.58444  4.89348   515908.24794  45.32656   19.6215  58630.03544    51.08179       44.19504   26.43989  61.01514   65.0    0.26059  -21.33119   0.5698 
  -14.14693  0.34677   5.88285      14.1458  2.07525  1.07872   9.26629  0.04778     0.01662   9611.66917   7202.55543   1.1047         3665.44252     18.35258  0.00125  58585.15307   5.10659   3.2133  3407738.03144  44.51428  19.65933  58631.31113    50.98964       44.26664   28.70582   42.7106   52.0    0.22232  -21.33405  0.68321 
