 texplosion  fnickel    Pspin  log(Bfield)      Mns  thetaPB   mejecta    kappa  kappagamma      vejecta  temperature    alpha  cutoff_wavelength  log(nhhost)      A_V         MJD0   kenergy  mnickel               TSD   log(L0)  Peak_mag     Peak_MJD  log(E_rad)  log(Peak_lum)  Rise_Time     E_fold  tau_1  delta_m15     r_peak     frac 
  -11.17986  0.15719  1.57296     12.40544  1.51066  0.53515   3.47717  0.19795         0.5  13103.19798   4012.40938  4.15579         4303.09695     16.66546    3e-05  57323.03162   3.56129  0.54657   536463905.93494  43.32504  20.53178  57361.78419    50.58144       43.22224    41.0986  241.05433  155.0    0.24643  -19.50374  0.87394 
   -13.7292  0.07227  1.27989     12.06954  2.04682  1.13248   2.59242  0.19722     0.41979  15807.62299   3620.69467  0.47982         2567.11198     20.16416  0.08108  57320.48228   3.86425  0.18735    2260332992.768   43.0114  20.77028  57361.78419      50.634        43.2834   63.13912  207.17523  107.0    0.26464  -19.51894  0.96938 
  -12.34072  0.25559  1.34207     12.40095   1.5274  0.40751   4.92982  0.26801         0.5  19009.01641   4045.63044   2.6852         2808.00623     20.83987  0.38423  57321.87076  10.62619     1.26    403106620.3548  43.59183  20.72627  57359.42042    50.52548       43.29378   49.32744  147.98231  121.0    0.27277  -19.83363  0.77266 
  -17.92873  0.17112  1.89954     12.54668  1.64603  0.64717   2.40228  0.32964     0.49962  13567.09727    3977.6019  0.13717         2459.49226     19.17783  0.00837  57316.28275    2.6377  0.41107   444824234.56859   43.2798  20.67036  57357.05665    50.60816       43.25344   47.35434  220.98691  146.5    0.21048  -19.43843  0.91799 
  -14.28596  0.02031  1.76313      12.6012  1.90446  0.65912   1.34533  0.27929     0.36322  15581.79423   4068.45923  0.49566         3184.62049     20.82577  0.37196  57319.92552   1.94846  0.02732   344946334.17711   43.5183  20.71635  57364.14796     50.6029       43.24625   53.27363  224.93311   85.0    0.22079  -19.83416  0.99661 
  -12.99228  0.35906  1.85783     12.51477  1.75138  0.32701   3.70276  0.13678     0.49996    10903.059   4847.75802  0.69063         2488.24368     19.59456  0.02184   57321.2192   2.62573  1.32952   524416519.65089  43.25454  20.88273  57361.78419    50.74963       43.38108   65.11221  217.04072  116.5     0.3014  -19.59961  0.49976 
  -12.39184  0.05993  1.72013     12.38138   1.9459  0.83111   4.03025  0.20052     0.45104  17275.02066   3798.90752  3.72474          5962.5527     18.68572  0.00269  57321.81964   7.17458  0.24154     923208137.606  43.12154  20.63884  57359.42042    50.68173       43.24851   49.43411  280.07316  136.5    0.29763  -19.48698  0.95351 
  -13.16656  0.17077  1.31772     12.17585  1.93556  0.78371   3.96233  0.21741     0.49903  16172.25573   3887.52106  1.55878         2293.63477     20.61108  0.22689  57321.04492   6.18185  0.67665  1388577743.38007  43.17344  21.12158  57364.22352    50.64653       43.20973   61.16602   307.8032  142.5    0.24942  -19.68375  0.88546 
  -21.83325  0.40189  5.96724      13.5413  1.26389  0.86752   2.63861  0.28462     0.49982  10629.89471   9557.68209  1.07844         2167.77543     20.35409  0.12555  57312.37823   1.77853  1.06043    34552103.89117  43.28053  20.51476  57361.78419    50.60689       43.18296   49.32744   305.8301  136.5    0.06629  -19.60249  0.69005 
  -16.34971  0.00375  1.34591     12.83072   2.0805   0.1764   9.32196  0.08387         0.5  15213.36698   3775.96703  1.66911         5607.42633     17.59281  0.00022  57317.86177   12.8702  0.03496    76308614.60021  44.44641   21.2095  57361.78419     50.5973       43.32756   61.16602  161.79399  312.0    0.22255  -19.44508  0.99425 
   -8.47398  0.13649  1.83719     12.67956  1.71924  0.41568   2.57549  0.15767     0.49995  13437.43424   3966.47985  1.10893          5373.0662     17.38257  0.00013   57325.7375   2.77408  0.35153   235692423.51894  43.60353  20.86507  57361.78419    50.72455       43.33294   63.13912  238.74479  142.5    0.29796   -19.5512  0.92634 
  -11.90797  0.08438  1.33713     12.28339   1.4123  0.58551   5.25788  0.18111     0.14739  16863.16895   3953.25461  3.82449         4296.65083     16.18102    1e-05  57322.30351   8.91901  0.44367   635791660.62738  43.36311  20.92301  57361.78419    50.72937       43.37922   69.53476  204.72578   90.5    0.25523  -19.50217  0.91619 
  -20.60459  0.05723  1.20736     12.50766  1.96818  0.31714   5.55331  0.33124     0.48471  21445.41812   3378.53262  4.57052         4175.52517     19.58004  0.02112  57313.60689   15.2352  0.31782   257180249.66142    43.989  20.99335  57359.42042    50.76252       43.36131    74.9777  236.77169  133.5    0.20975   -19.3841  0.95448 
  -10.84625  0.16383  1.49708     12.59094  1.64387  0.30914   2.88033  0.16496     0.49955  13343.50384   4217.73567  2.20397         4223.80276     18.35723  0.00126  57323.36523   3.05921  0.47188   225062391.00091  43.78192  21.76285  57361.78419    50.74499       43.41921    73.0046  185.47116  158.5    0.30908    -19.494  0.89221 
  -13.53118  0.00748  1.16867     12.06041  1.70819  0.97413   3.16347  0.22298     0.49986  18873.85664   3542.65334  1.49718         2818.91354     18.88549  0.00427   57320.6803   6.72221  0.02366  1640259706.28224  43.15109  21.74452  57364.22352    50.74621       43.42174   75.36944  185.07941  119.5    0.28198  -19.47728  0.99651 
   -13.4149  0.42203  3.59469     12.63989  2.08505  0.77526   4.18844  0.14596         0.5  10523.12372   7063.73166  0.19309         5652.05819     20.28422  0.10689  57320.79658   2.76674  1.76763  1313643714.85589  42.35816  20.74898  57361.78419    50.61946       43.29607   54.75958  197.79688  106.0    0.19389   -19.7702  0.30801 
  -22.16591  0.00515  1.29168     12.25327  1.68569  0.77075   5.30177  0.32918     0.32179  21259.02283   3339.38732   0.5566         5930.55693     16.41354    1e-05  57312.04557  14.29337  0.02732   813516972.27726  43.36294  20.59635  57361.78419    50.58471       43.26312   43.40814  211.12142  104.0    0.20935  -19.38997  0.99644 
  -15.82873  0.00474  1.00504     12.40088  1.38871  0.29479   3.66444  0.24636     0.48816   20398.4732   3469.45766  0.07358         2670.50352       17.893  0.00043  57318.38275   9.09557  0.01738   205605047.65395  44.09406  20.84559  57364.14796    50.55952       43.24656   61.16602  185.47116  114.0     0.2645  -19.50305  0.99762 
  -18.14414   0.0043  0.94579     12.51446    2.037  0.20376   5.32698  0.25578         0.5  20933.11367   3472.16512  3.77196         5406.13848     20.25122  0.09907  57316.06734  13.92438  0.02292   158300698.53466  44.42676  20.67845  57361.78419    50.52131       43.24832   45.38124  179.55186  149.0    0.23394  -19.52751  0.99707 
  -16.14248  0.00216  2.05122     12.65168  2.01426   0.6971   4.31626  0.15175     0.49789  16228.31253   3681.32958  0.36926         2880.72465     18.75948  0.00319    57318.069   6.78081  0.00931   391369956.61696  43.35635  20.47668  57361.78419    50.37717       43.26592   39.46195  122.33204  179.0    0.24082  -19.45015  0.99848 
  -18.05046  0.00225   0.7238     12.58425  2.13779  0.11502   9.77359   0.2648         0.5  30782.03808   3032.50488  1.82409         3339.86534     16.36449    1e-05  57316.16102  55.24286  0.02197    70553637.65173  45.03105  20.69146  57364.14796    50.64268       43.28291   55.24673   226.9062  123.0    0.24226  -19.39228  0.99784 
   -18.3673   0.0036  0.93296     12.24833  2.02745  0.36832   6.55351  0.20675     0.49738  21320.01222   3360.09991  0.66582          2592.3304      18.2763  0.00105  57315.84418  17.76953  0.02359   522189885.41337  43.91824  20.53505  57361.78419    50.44627        43.2274   43.40814   151.9285  160.0    0.24116  -19.41479  0.99693 
  -14.67601  0.00276  1.03816     12.18357  1.42563  0.50933   4.77383  0.15852     0.47525  19416.36617   3535.49719  2.49998         4043.66019     19.90057  0.04419  57319.53547  10.73569  0.01319   612653248.84594  43.60311  20.53798  57359.42042    50.52471       43.27432   39.52502   177.5157  145.5    0.28824  -19.45092  0.99802 
  -14.60264  0.13488  1.26074     12.11629  1.78273  0.74464   4.29665  0.20394     0.49909  15406.71261   3825.86286  3.29114         3009.38428     19.52036  0.01841  57319.60884   6.08383  0.57952  1540153730.49079  43.13112  20.55668  57353.32366    50.43925       43.17498   33.60573   177.5157  152.0    0.25272  -19.48695  0.88356 
   -9.66535  0.39737  1.47118     12.03856  2.15703  0.61149   3.43486  0.09289     0.49102   9695.69914    6562.4365  3.64757         2134.13371     18.75657  0.00317  57324.54613   1.92617  1.36492  3629812781.07861  42.70748   20.9927  57364.14796    50.74907       43.41664    73.0046  189.41735  128.0    0.31756  -19.59689  0.47214 
  -12.17978  0.45516  2.48031     12.19056  2.03832   1.3499   3.74121  0.29023     0.49852  13507.63138   7292.79176  2.48939         2218.98914     19.19229  0.00865   57322.0317   4.07191  1.70286  4841437470.93092  42.10413  20.96963  57361.78419    50.72139       43.39027   69.53476  192.88719  113.0    0.09119  -19.61564  0.33771 
  -11.39601  0.15176  1.74218     12.22772  1.96796  1.39478   4.16345  0.21877     0.47186   17305.9743   3845.97915  0.58741         3877.99035     16.02139    1e-05  57322.81547   7.43828  0.63185  1943502516.90748  42.79209  20.82731  57361.78419    50.68908       43.22615   43.40814  335.42656  128.0    0.29903  -19.50674  0.86828 
  -14.55989  0.01535  1.39961     12.12037  2.08242  1.43718   4.22176  0.13278     0.49837  15837.87197   3578.88479  1.47598         2421.63676     18.76891  0.00326  57319.65159   6.31704  0.06481  2176038299.42373  42.95773  21.14608  57361.78419    50.71975       43.30605   71.03151  254.52957  167.5    0.24575  -19.46878  0.98969 
  -14.28461  0.10091  0.87993     12.11704  1.61824  0.37518   3.60504   0.2969     0.49973  18360.98303    3689.1647  4.33859          4661.4428     16.65431    3e-05  57319.92687   7.24985  0.36378   678683155.85691  43.75732  20.75354  57359.42042     50.5898       43.29318   47.35434  189.41735  126.5    0.25782  -19.49193  0.93791 
  -13.45088  0.00647  1.64756     12.33598  1.87053    1.107   3.37767  0.24869         0.5  18528.04785   3289.63193  3.58775         2481.07121     17.99964  0.00056   57320.7606   6.91678  0.02186  1003473017.03421  43.10562  21.08239  57361.78419    50.66474       43.21491   63.13912  292.01842   92.5    0.25056  -19.50417  0.99681 
  -14.37559  0.02333  2.01919     12.45723  1.70661  1.30257   3.01642  0.25082     0.49589   17548.2946   3726.69207   3.0878         3393.66421     16.94702    5e-05  57319.83589   5.54101  0.07038   786760570.16156  42.99478  20.94315  57361.78419    50.76076       43.41385    65.3653  202.97594  135.0      0.258  -19.45045  0.98816 
  -16.16574  0.00539  1.53434     12.24788  2.10441  1.45188   4.48664  0.30219      0.4901  21544.96003    3374.4728  0.12945         2403.36623     19.67579  0.02633  57318.04574  12.42337  0.02419  1469060089.99174  43.05309  20.89865  57359.42042     50.6895       43.27939   61.16602  256.50266  120.5    0.23107   -19.4586  0.99683 
  -14.38377  0.00363  1.90257     12.65507  2.02036  0.58877   3.23554  0.19959     0.49829  18242.95026   3589.65806  2.24007         2516.81349     18.50432  0.00177  57319.82771   6.42339  0.01176   332488421.44041  43.49382  20.71166  57359.42042    50.54614       43.25149   56.73268  178.06591  126.5    0.26836  -19.47214  0.99816 
  -15.69006  0.04052  1.09308     12.14175  2.03337  0.67221   4.60361  0.28066     0.49757  22526.17605   3293.03586  3.55974         3646.87808     19.40711  0.01419  57318.52142   13.9348  0.18656  1174438683.03299  43.42993   20.8391  57361.78419    50.60777       43.29755   61.16602  183.49806  100.0    0.26542  -19.52154  0.97534 
    -16.585  0.07479   1.1686     12.32127  1.56261  0.36905   8.05768  0.15244         0.5  14913.58123   3929.97961  1.06915          5842.6644     16.45763    2e-05  57317.62648  10.69058  0.60261   451287027.33034  43.67291   20.3132  57359.42042    50.44273       43.29186   33.54266  126.27823  233.5    0.19875  -19.45518   0.8779 
  -15.36858  0.17643  2.28308     12.49047  1.63474  1.21765   2.19141  0.22522     0.48811  13552.55675   4198.14491  1.22849         2301.29599     18.77336   0.0033   57318.8429     2.401  0.38662   826740438.92356  42.84788  20.89017  57361.78419    50.62466       43.33706   59.19292  171.65947  145.5    0.27755  -19.40744  0.91198 
  -20.28546  0.11383  2.03933     12.46647  2.12329   1.3361   3.45731  0.32429     0.49731  17435.74127   3570.49281  0.72851         3593.63272     20.68888   0.2714  57313.92602    6.2697  0.39354   956867237.87287  42.99603  20.82228  57361.78419    50.66733       43.31997   65.11221  203.22903  116.5     0.2123  -19.61723  0.94023 
  -15.30793  0.00218  1.07993     12.33008  1.88869  0.42904   5.28814  0.28132      0.4975  26126.09626   3291.79688  1.00327          4189.8654     18.11431  0.00072  57318.90355  21.53175  0.01153   447298414.16061  43.82762   20.6585  57359.42042    50.51758       43.26478   49.32744  161.79399  111.5    0.27592  -19.42007  0.99859 
   -12.8463  0.01983   1.3927     12.13725  1.71785  1.48173   2.71129  0.28152     0.49997  20578.24928   3431.33364  0.90123         2712.87894     16.28798    1e-05  57321.36518   6.84888  0.05376   1644433281.7346   43.0001   20.7664  57361.78419    50.59436        43.2938   59.19292  179.55186   88.5    0.30081  -19.49907  0.99212 
  -11.76281  0.41584  3.79469     12.64638  1.41142  1.32371   3.73256  0.08546      0.4997   7076.41104   7833.47258  0.45202         5117.29031     16.57376    2e-05  57322.44867   1.11496  1.55215   961769810.49083  42.27708  20.41497  57361.78419    50.54374       43.29194   37.48885  181.52496  129.0    0.20707  -19.61737  0.42578 
  -21.01933  0.37766  4.26133     12.64468  1.06196  0.24571   6.98901  0.12199     0.49983   6885.59698   8980.18288  2.54489         2762.40034     20.16029  0.08036  57313.19215   1.97663  2.63944   919718130.94917  42.07221  20.86296  57359.42042    50.65945       43.49091    41.0986  128.58778  107.0    0.06586  -19.65185  0.01887 
  -17.29096  0.00249  1.26711     12.08282  1.99361   1.4934   5.25337  0.25117         0.5  22482.91592   3267.87593  1.90384         3263.86193     18.63684  0.00241  57316.92052  15.84056  0.01309  2029816724.72174   43.0554  20.50432  57364.14796     50.5223        43.2665   45.38124  173.63257  117.0    0.25234  -19.46827  0.99833 
  -12.27911  0.37386  2.00943     12.06282   1.2792  0.14464   4.97207    0.058     0.23138   8352.53529   5772.42012  0.66716          2056.6262     16.57228    2e-05  57321.93237   2.06919  1.85887  3591408913.53955  42.21437  20.22055  57356.32482     50.5419       43.41857   20.66536  108.52036  100.5    0.29564  -19.63645  0.01325 
  -11.27637  0.05975  1.13143     12.07101  2.00411   0.7008    9.0794  0.08584     0.49194  17823.69809   3866.55322  1.12035         3431.25816     20.20572  0.08922  57322.93511    17.206   0.5425  1717758051.03854  43.22855  21.06446  57364.14796    50.84837       43.45616   69.05841  234.79859  203.0    0.30207  -19.59065  0.90254 
   -12.4256  0.39389  2.84687      12.4355  1.82181  1.43593   3.42421  0.16216         0.5  10611.08903    4391.8475  0.83997          2808.1598     17.60432  0.00022  57321.78588   2.29989  1.34875  1845199599.44695  42.35457  20.91855  57361.78419    50.62052       43.32258    65.3653  175.35258  105.5    0.26524  -19.61839   0.5317 
  -16.93452  0.31399  2.42819       12.117  1.17452   0.7821   5.66244   0.0748     0.47984   7814.84584    6415.6144  1.31326         2353.87839     16.46794    2e-05  57317.27696   2.06287  1.77797  3751806780.08483   41.9939  20.87774  57361.78419    50.78962       43.23103   57.21982  434.08143  108.5    0.21591  -19.58584   0.1654 
  -16.72969  0.02515  1.19775     12.16719  1.44797  0.73755   3.41742  0.27132     0.49996  17993.20581   3541.98782   2.5189          3498.5761     19.44374  0.01543  57317.48179   6.59998  0.08595   893144989.76781  43.32195  20.60092  57364.22352    50.51988       43.24766   51.30053  161.79399  129.0    0.23311  -19.46073  0.98698 
  -16.86946   0.4129  1.99991     12.29769  1.77801  0.37902   4.03013  0.16481     0.49739   8290.30632   5933.53011  2.11707         2129.05332      17.9878  0.00054  57317.34202   1.65229  1.66403  1676416774.21197  42.69238  20.84912  57361.78419    50.67824       43.31621    73.0046  211.12142  112.0    0.18379  -19.52369  0.22742 
  -14.44385  0.01649  0.98277     12.08596  1.49938  0.58375   4.52213  0.20409     0.48501  20254.13801   3475.49037  4.37766         3010.51346     19.36032  0.01274  57319.76763  11.06617  0.07455   905129896.27746  43.50314   20.8801  57364.14796    50.71096       43.36315   69.05841  203.22903  131.5    0.26587  -19.45098  0.98915 
  -16.25134  0.00373  1.43585     12.30666  1.95638  0.79849   6.43806  0.19031     0.49994  18727.37092   3481.26284   3.6791          4987.7737     16.54304    2e-05  57317.96014  13.46901  0.02398   912370884.25873  43.28591  20.42455  57361.78419    50.46808       43.27567   35.51575   151.9285  184.0    0.22262  -19.43601  0.99649 
  -11.12186  0.05681  1.40608     12.16657  1.98703  1.20537   3.09124   0.3065     0.49342   21619.5042   3447.09462  2.28906         4185.04462     18.11908  0.00073  57323.08962   8.61888  0.17562   1693970380.8719  43.04213  20.69748  57359.42042     50.6445       43.25862   53.27363  240.71788   87.0      0.294  -19.53142  0.97429 
  -16.69266  0.00193  1.55684     12.24378  1.78848  1.24152   3.68518  0.22738     0.49926  16144.39577   3786.56535  0.32124         3325.81737     16.38531    1e-05  57317.51882   5.72967   0.0071  1309892371.19209   43.0196  20.79397  57364.14796    50.67947       43.30585   61.16602   226.9062  182.0    0.21648  -19.41151  0.99888 
  -11.34125  0.00287   1.2818     12.09948  1.46451  1.12147   2.72617  0.22129     0.49977  18874.84524   3599.80005  2.12049         5646.92424     16.11234    1e-05  57322.87023   5.79359  0.00783  1413149803.14802  43.06871  20.91616  57364.22352     50.7819       43.34638    74.9777  266.36815  103.5    0.30311  -19.57868  0.99879 
  -20.56688  0.11095  2.19084     12.56313  1.34921  0.96722   2.35993  0.31673     0.25486  13105.22536    3772.1779   2.6383         2235.39442     16.11776    1e-05   57313.6446   2.41777  0.26184   449623201.48048  43.06486  21.09294  57361.78419    50.79529       43.49955   69.05841  171.65947   92.5    0.19155  -19.43973   0.9479 
  -16.51783  0.00395  1.03911     12.14085  1.68292   0.6498   5.09635  0.31281         0.5  25927.37301   3192.86694  0.01429           2863.723     16.02713    1e-05  57317.69365  20.43637  0.02015   882073626.54083  43.51608  20.24651  57359.42042    50.44566       43.34804   27.01249  111.10433   97.0    0.26147  -19.44223   0.9976 
  -17.67483  0.48151  2.88883     12.19507  1.97784  0.33932   3.99017  0.29753         0.5   9634.92065   8944.98066  1.13291         4426.44275     16.51078    2e-05  57316.53665   2.20961  1.92131  6241759204.72369  41.84829  20.80109  57361.78419    50.59719       43.29722   61.16602  181.52496  105.5    0.06725  -19.45196  0.02891 
  -17.28293  0.01814  1.51179     12.49404  1.91876  0.53267   3.33135  0.30334     0.49981  17403.58843    3723.5982  4.00694         5815.52839     20.54667  0.19561  57316.92855   6.01901  0.06042   418536074.29072  43.57115  20.75356  57359.42042    50.64857       43.30288   56.73268  207.66237  142.0    0.22833  -19.57083  0.99089 
  -13.98782  0.00223  0.95538     12.11147  2.10516   0.6797   5.80196  0.21029     0.48431  26101.96454   3492.66382  2.56766         5163.80545     21.06799  0.64971  57320.22366  23.58024  0.01297  1067846580.06264  43.60327  21.11357  57366.51173     50.7531       43.40639   76.68341  197.57713  114.0    0.27073  -19.97813  0.99884 
  -16.48605  0.01137   1.4346     12.57166  2.00821  0.41217    5.1073   0.2337     0.49886  20901.52958   3416.92084  1.81226         3562.82657     19.71919   0.0291  57317.72543  13.30989  0.05805   275902520.39455  43.81744  21.22318  57361.78419    50.67707        43.3071   65.58857  218.53746  136.5    0.24198   -19.4662  0.99205 
  -14.59649  0.00202  0.84884     12.10515  1.61976  0.42448   4.11517  0.25844     0.49661  22864.38901   3424.78278  0.63765         5297.80726     17.62757  0.00024  57319.61499  12.83316  0.00832   667757477.70345  43.79602  20.26594  57357.05665     50.4671       43.38223   24.50735  111.63637  112.5    0.29564  -19.46184   0.9989 
  -16.55739  0.00179  0.98894     12.22505  1.99559  0.44334   6.42721  0.19833     0.48472  21859.44693   3297.61844  1.49986         4483.12978     17.07239    7e-05  57317.65409  18.32011  0.01153   642869543.36554  43.77046  20.54615  57359.42042    50.61345       43.24924   40.08876  253.90276  138.5    0.24878  -19.44881  0.99851 
  -19.36933  0.04384   1.2668     12.65815  2.02965  0.25334   5.91462  0.29464         0.5  20912.22809   3363.37047   0.1383         2891.43757     19.45972  0.01601  57314.84215   15.4296  0.25931   145997088.30938  44.20651  20.70763  57359.42042    50.66458       43.28484   54.75958  233.31264  143.0    0.21274  -19.42843  0.96461 
   -16.7604  0.00355  0.84228      12.2359  1.59907  0.32703   6.78338  0.24528         0.5  24469.09579   3248.38252  2.21167         4504.98642     19.77837  0.03335  57317.45108  24.22752  0.02409   355469135.19112    44.071  20.66708  57359.42042     50.6228       43.26496   49.32744  222.96001  129.5    0.23798  -19.48693  0.99721 
  -13.61802  0.10703  0.94223     12.30064  1.23688  0.27971   3.08283  0.19669         0.5  15121.23197   3852.09652  0.49597          4037.2963     20.10844  0.07131  57320.59346   4.20486  0.32997   255370756.46538  44.00569  20.46955  57364.22352    50.42306       43.31836   51.30053  100.62797  150.0    0.25488  -19.53826   0.9427 
  -15.59296  0.02576  1.35024     12.22114   1.1174  0.75757   4.46078  0.10615      0.4753  15041.61172   3705.07261  2.44205         3414.84355     17.33052  0.00012  57318.61852   6.02042  0.11493   683221986.41856  43.22167  20.94458  57361.78419    50.73209       43.38723   67.08531  201.25594  179.5    0.26969  -19.40967  0.97844 
  -24.35193   0.0024  1.18338     12.12808  1.82902  0.80039    4.6808  0.26879         0.5  16308.00453   3448.98652  0.93941         3047.50138     17.75074  0.00031  57309.85955    7.4259  0.01126  1318657732.06597  43.26468   20.7973  57361.78419    50.62631       43.23308   59.19292  242.69098  177.0    0.18749  -19.32461  0.99831 
  -17.18647  0.01912   1.4074     12.26903  1.72178   0.7788   7.09212  0.09694     0.49404  16386.43726   3672.30473   0.0589         2583.70982     16.89179    4e-05  57317.02501  11.35985  0.13558    917435917.8784  43.24541  20.63404  57359.42042    50.55438       43.19854   47.30898  224.97847  223.5    0.24202  -19.46195  0.97779 
  -12.47708  0.00526  1.19604     12.07018    2.093  1.02102   4.49414  0.14291      0.4999  19973.90353    3507.7185  0.79873         3620.62196     18.61796  0.00231   57321.7344  10.69547  0.02365  2012379523.56018  43.13041  20.71001  57364.22352    50.51837        43.3136   57.21982  134.17062  135.0     0.3121  -19.50623   0.9966 
  -15.89181    0.054  1.26267     12.22439  1.61833  0.70168   3.77869  0.30794     0.49991  20134.87624   3525.72508  2.70743         3830.11491       17.254   0.0001  57318.31967   9.13831  0.20406   852473500.20719  43.34465  21.06072  57364.14796    50.73458       43.41861   69.05841  181.52496  119.5     0.2579  -19.44656  0.96892 
  -14.43542  0.02396  1.12585     12.28428   1.7071  0.49949   5.18787  0.24373         0.5  23094.45161   3359.00631  4.05005          2484.2321     17.51892  0.00018  57319.77606  16.50562   0.1243   542598789.29541  43.66366  20.84267  57361.78419    50.71983       43.30486   69.53476  250.10702  118.5    0.26309  -19.47696  0.98341 
  -13.19961   0.0901  1.26945     12.11303   2.0276  0.93151   4.85377  0.28281      0.4717   21483.2538   3445.77213  4.56009         4555.07692     19.11579  0.00725  57321.01187  13.36308  0.43732  1802898639.43819  43.11263  20.99256  57361.78419    50.73857       43.32207   69.05841  252.55647  105.5    0.26877  -19.51047  0.93082 
  -11.51382  0.13371  1.29808     12.07803  1.67675  1.04552   3.51165  0.26718         0.5  19596.39104   3594.56152  3.09865         2728.88333     17.80547  0.00035  57322.69766   8.04434  0.46954  1831586916.62642  43.00388  20.77404  57359.42042    50.61774       43.21306   54.75958  255.01671  102.5    0.29635  -19.53301  0.91819 
  -14.11946  0.22034  1.57671     12.06516  1.79824   0.5972   6.53053  0.16188         0.5  12805.27686   5211.88573  2.56927         2175.81998     19.08745  0.00679  57320.09202   6.38783  1.43892  3075069319.85231  42.64034  20.62521  57357.05665    50.54008       43.17674   36.14256  251.92966  123.0    0.25399  -19.52248  0.41029 
  -10.98184  0.22797  1.97941     12.33862  1.70264  0.15504   7.98111  0.06664     0.37957   9702.48266   4898.78635  2.25271         2326.56328     16.62948    2e-05  57323.22964   4.48184  1.81948  1302473002.24562  42.79213  21.70792  57364.22352    50.69378       43.43587   69.05841   151.9285   86.5     0.2656  -19.67966  0.05612 
  -17.18434  0.22995   1.9153     12.30541  1.55826  0.77468   4.73498  0.17315     0.49999  11198.60324   4819.13886  0.82323         3972.89283     16.39608    1e-05  57317.02714    3.5422  1.08881  1300495089.35996   42.7829  20.51605  57359.42042    50.54584       43.24722   37.55192  207.11216  166.5    0.22144  -19.48565  0.65592 
  -15.24131  0.00305  0.76765     13.27566  2.14573  0.02599   8.47276  0.29523     0.41019   31430.7635   3073.87883  4.93881         5932.75746      16.2842    1e-05  57318.97017  49.93006  0.02584     3299106.52288   46.3117  20.19764  57361.78419      50.403       43.39619   27.62336   96.68177   97.0    0.24351  -19.40528   0.9974 
  -11.00106  0.40056  2.80843     12.56204  2.03693  0.53553   3.54501  0.08975      0.3274   6915.20703   6708.24584  3.20443         3460.96192      19.3781  0.01327  57323.21042   1.01124  1.41998  1121110586.36043  42.63125  21.08318  57364.22352    50.78243       43.44924   75.36944  190.99871  121.0    0.24192   -19.5524  0.35929 
  -13.02589  0.31663   0.7482     12.12223  1.59113  0.11565   4.47292   0.2229     0.25281  11911.40735   4429.66721  1.94702         3383.47843     17.96569  0.00051  57321.18559   3.78569  1.41625   471086619.26933  44.04942  20.89582  57364.14796    50.73313       43.33303    73.0046  236.77169   93.5    0.23071  -19.53332   0.4351 
   -17.8527  0.15779  1.50698     12.15285  1.94723  1.20697   3.94495  0.29703     0.49984  14949.34985   3732.00168  3.42594         2132.74967     19.79864  0.03494  57316.35878   5.25912  0.62248  2031152105.35059  42.89431  20.79929  57359.42042    50.64946       43.27943   57.21982  222.96001  148.5    0.19434   -19.4979  0.88485 
  -15.28771  0.23706  2.52954     12.57916  2.19262  0.46222   5.85274  0.19255         0.5  11080.25946   4977.98763  3.06662         3974.18389     16.89507    4e-05  57318.92377   4.28633  1.38746   904778004.84252  42.84718  20.64105  57359.42042    50.61632        43.2608    43.0717  233.16194  123.5     0.2082  -19.48334  0.41936 
  -18.12717  0.39878  2.35784     13.22025  1.53587  0.14554   2.65993  0.30099     0.49631  11407.10863   4397.28423   0.9014         2594.98456      19.9677  0.05157  57316.08431   2.06466  1.06073    28754488.13637  44.25146  20.24774  57359.42042     50.4907       43.40195   23.46863  111.63637  135.5    0.21684  -19.52662  0.70306 
  -12.09756  0.03071  2.09302     12.46181  1.59668  1.14305   1.85068  0.12677     0.29999  12212.17365   4146.64387  2.79706         5224.20779     16.11375    1e-05  57322.11392   1.64644  0.05684   774397353.52823  42.94155  20.32251  57367.26265    50.42975        43.3345   36.14256  119.73213  118.5    0.29461  -19.49652  0.98796 
  -19.19965   0.0128  0.71768     12.49697  1.96472  0.13152   7.89101  0.28238         0.5   27462.5534   3145.92778  2.40362         2464.05308     17.88728  0.00043  57315.01183  35.50108  0.10098    95290444.12762  44.87123  20.61092  57359.42042    50.55671       43.27053   39.46195  191.39045  124.0    0.23594  -19.42403  0.98913 
  -17.49258  0.01659  0.76432      12.2304  1.88768  0.26787   7.68454  0.25071         0.5  27155.98568    3165.5031  3.20173         3775.18683     17.16847    8e-05   57316.7189  33.80463  0.12751   354403383.07595  44.22872  20.66324  57361.78419     50.6899       43.26269   49.32744  276.23364  121.5    0.25941  -19.41921  0.98523 
   -12.4662  0.10058  1.20178     12.34073  1.85173  0.37138   4.66389  0.13518     0.49991  11894.58888    4263.1755  1.79074         5881.59306     20.41407  0.14415  57321.74528   3.93617  0.46912   517124751.55447  43.66318  20.69207  57359.42042    50.57902       43.27074   51.30053  191.39045  232.5    0.22459  -19.58836    0.902 
  -21.00837   0.0473  0.91442     12.06609   1.6313  0.49351   8.09048  0.25385     0.49767  20653.59646   3374.40493  4.70392         5300.83524     18.98635  0.00538  57313.20311  20.58698  0.38272   934216553.52858  43.58864  20.70212  57364.22352    50.62891       43.30731   59.19292  193.36355  171.0    0.20112  -19.34363  0.94183 
  -12.27904  0.12309  1.37443     12.04806  1.94519  1.31992   5.53254  0.24775         0.5  20630.47643   3638.48752  0.46981         5079.80412     19.47745  0.01668  57321.93244  14.04656  0.68099  2734641558.56063  42.84466  20.72817  57361.78419    50.57796       43.27048   53.27363  189.41735  126.0    0.28627  -19.48054  0.87175 
  -17.52515  0.01944  1.98794     12.43315  1.59783  1.17428   4.56955  0.19411         0.5  14433.93658   3779.10167  4.38141         5607.94988     16.17119    1e-05  57316.68633   5.67898  0.08884   797735844.88991  42.97371  20.87609  57364.22352    50.65708       43.34484   67.08531  181.52496  199.0    0.21386  -19.44982  0.98309 
  -19.28089  0.00134   1.0834     12.26305  1.58087    0.545   5.15089  0.23148     0.49994  21591.84527   3569.45636  1.29743         4440.35013     20.83818  0.38274  57314.93059   14.3248  0.00689   513086919.19271  43.68797  20.70181  57359.42042    50.60129       43.28011   53.27363  195.33664  146.5    0.23955  -19.72156  0.99923 
  -21.74682  0.05202  1.08315      12.1036  1.91935  0.63124   6.48793  0.22116     0.49759  18799.32556   3475.73482  3.81086         3662.51882      16.5908    2e-05  57312.46466  13.67785  0.33753  1297642805.72442  43.36946  20.76734  57361.78419    50.64694       43.34876   59.19292  179.55186  169.5    0.22859  -19.34884  0.94501 
  -15.78344  0.01341  2.10864     12.99076   2.0243  0.30857   2.30004   0.3003         0.5  16222.70547   3697.31014  2.21837         4630.09282     19.25998  0.01011  57318.42804   3.61085  0.03084    87210765.39752  43.98655  20.83758  57361.78419    50.71164       43.24421   55.24673  331.48037  120.5    0.24483  -19.45679  0.99476 
  -15.85554  0.00297   1.0119     12.17585  1.88458  0.50251   3.45765  0.26054     0.49182  19622.13051    3473.9029  1.72841          3315.8121     19.91162  0.04533  57318.35594   7.94147  0.01026   797263887.05401  43.63219  20.71463  57361.78419     50.6817       43.26683   56.73268    260.936  117.5    0.25839  -19.44426  0.99855 
  -13.82124  0.20021  2.05499     13.32693  1.43098  0.10985   2.93579  0.33859         0.5  15655.36972    3842.6484  1.47354         3926.48669      16.1624    1e-05  57320.39024   4.29218  0.58776    12450911.51886  44.70366  20.63626  57356.32482    50.50578       43.22271   35.51575  193.36355  120.5    0.23944  -19.45036  0.87012 
  -13.40985  0.00304  1.07336     12.46555  1.36117  0.26587   2.45357  0.30342         0.5  16421.96126   3704.10177  2.70767         5410.90337     18.27477  0.00105  57320.80163   3.94708  0.00746   170653444.28327  44.10915  21.05732  57361.78419    50.70819       43.34046    73.0046  213.09452  126.0    0.24771  -19.47427  0.99879 
  -17.04811  0.12961  1.48646     12.30348  2.13736  0.41679   9.99297   0.1313     0.49998  13787.25734   4296.34664  2.19104          2426.4145     17.67728  0.00026  57317.16337  11.33124  1.29519  1084000403.78575  43.21939  21.02756  57364.14796    50.60619       43.34196    69.3115  155.62161  143.0    0.21786  -19.49235  0.60209 
  -17.24094  0.09987  0.97386     12.29995  1.15983  0.20463  10.70725  0.16818     0.49966  12949.48788   4187.97565  4.83905         5664.99553     17.19563    9e-05  57316.97054  10.71051  1.06938   256628585.71461  43.94694  20.65951  57359.42042    50.56276       43.27224   41.43505  187.44425  205.5     0.1492  -19.46998  0.70997 
  -14.91459  0.00399  1.25755     12.04264   1.9652  1.46292   3.85205  0.23626     0.49812  18645.95289   3440.96808  2.48599         4823.90568     18.75414  0.00315  57319.29689   7.98892  0.01538  2371343465.85634   42.9882  20.70079  57361.78419    50.64174       43.40264    41.0986  166.07663  125.0    0.25153  -19.46088  0.99772 
  -12.22939  0.01486  1.42084     12.21935   1.9348  1.01618   2.63899  0.26176     0.49895  20883.57555   3593.79967  0.37569         4383.00862     19.57628  0.02094  57321.98209   6.86555  0.03922  1320779186.63699  43.12956   20.6778  57361.78419    50.56581       43.24482   49.32744  203.22903   99.5    0.31072  -19.48921  0.99419 
  -13.96472  0.00209  1.23045     12.06207  1.33099  1.07831   3.17456  0.14248         0.5   16953.2059   3639.56355  4.00065         2399.58685      16.5266    2e-05  57320.24676    5.4427  0.00662  1405996759.78031   43.0649   20.6204  57359.42042    50.53827       43.39181   41.43505  120.35894  140.5    0.29044  -19.44963  0.99892 
  -18.02263  0.12398  1.90204     12.58107  2.05736  0.60642   3.00293  0.29762     0.48204  13925.71894   3901.28534  1.13385         2034.40399     17.89854  0.00044  57316.18885   3.47383   0.3723   475800499.53968  43.34629    20.337  57357.05665    50.47836       43.34184   27.62336  134.17062  161.0    0.20368   -19.4208   0.9295 
   -16.2599  0.00429  1.06763     12.22225   2.0492  0.55772    6.2785  0.18027     0.48614  22474.33417    3429.6879  1.66609         3255.30154     20.58246  0.21241  57317.95158  18.91719  0.02692   779367282.82557  43.63184  21.18213  57359.42042    50.55803       43.22097   47.35434  213.09452  143.5    0.25295   -19.6116  0.99683 
  -11.89162  0.00612  1.43594     12.78199  2.16144  0.22769   4.72608  0.11151         0.5  16756.22823   3654.68472  3.76394         4203.11133     16.65861    3e-05  57322.31986   7.91554  0.02892   112940115.60905  44.23647  20.65547  57361.78419    50.66348       43.33819    43.0717  213.43097  176.5     0.2788  -19.48093  0.99531 
  -19.08992  0.20216  1.34184     12.10871  1.46026  0.62566   4.34879  0.18858     0.49965    8662.0646   5019.27718  4.61338         4519.31634      17.2244    9e-05  57315.12156   1.94643  0.87913  1479843254.27308  43.00766   20.3051  57364.22352    50.60921       43.44888   41.49812  145.94614  243.0    0.16142    -19.458  0.73856 
  -13.22341  0.05494  1.04048     12.27476  1.31906  0.39246   4.47086  0.24163     0.49966  20279.65607   3557.13408  1.41696         4713.04736     17.12164    7e-05  57320.98807  10.96831  0.24564   374139047.29763  43.78161  20.87081  57364.14796    50.81547       43.23982   63.39221  441.72073  129.0    0.27546  -19.47523  0.96159 
  -13.84956  0.00604  1.19697     12.48205  2.14059  0.35166   4.05317  0.30098         0.5   23444.1887   3218.13613  2.91483         5947.19756     16.90131    4e-05  57320.36192  13.28902  0.02446   309320271.88948   43.9528  20.49856  57359.42042    50.56726       43.23742   33.54266  224.93311   80.0    0.27841  -19.48524  0.99674 
   -15.1304  0.02176  0.89945     12.24242  2.03347   0.3307  10.59948  0.14112      0.3881  23426.51799   3315.63159  3.46079         4556.88291      18.9864  0.00538  57319.08108  34.69981   0.2306   500236689.78441  43.96995  20.63749  57361.78419    50.42388       43.26121   47.35434  122.33204  145.5    0.26002  -19.44559  0.96832 
  -18.59896  0.01546   0.7942     12.15332  1.64789  0.34459   7.21577  0.24554     0.49927  25034.45364   3125.92155  1.82207         3548.01349     18.78803  0.00341  57315.61252  26.97652  0.11157   476390580.95618  44.00795   20.9516  57361.78419    50.66079       43.32846    67.3384  195.08355  113.5    0.24917  -19.44041   0.9867 
  -21.96543  0.00247  1.03422     12.43559   2.1215  0.30211   8.10794  0.20528     0.49992  23570.63345   3249.26062  0.81103         2907.94639     19.73202  0.02997  57312.24605  26.87077  0.02003   283472944.38334  44.11375  20.50168  57357.05665      50.552        43.2276   33.54266  222.96001  157.0    0.23532  -19.39161  0.99755 
  -17.07946  0.00323  0.70545     13.25931  2.19578   0.0222  10.27191  0.24573         0.5    32229.741   3141.31918  4.90932            5860.43     16.30678    1e-05  57317.13202  63.64908  0.03322     3074024.99987   46.4258  20.71493  57361.78419    50.59926       43.28875   55.24673  187.44425  141.5    0.25156  -19.31206  0.99651 
  -17.70357  0.00258  0.74383     13.21357  2.16951  0.02757   9.61725  0.27422     0.48811  30816.69046   3089.01095  4.85601         5859.70095     16.33746    1e-05  57316.50791  54.48161  0.02483      4168397.8363   46.2423  20.27097  57359.42042    50.48823       43.39827   29.59646  116.41275  130.0    0.24124  -19.32112  0.99741 
  -16.56068  0.35142  2.54192     12.46083  1.89553   0.5545    4.0968  0.14239     0.49311   8678.01381   5593.73045  0.93748         5056.32869     19.16601  0.00814   57317.6508    1.8404  1.43968  1362086498.41056  42.60205  20.73004  57361.78419      50.622       43.32039   59.19292  179.55186  114.0    0.22979  -19.60038   0.3556 
  -14.65682   0.0277  0.85519      12.4959  1.55393  0.16881    4.9023  0.26941     0.49874  24187.31437   3304.33696  2.38609         4146.31219     19.76291  0.03218  57319.55466  17.10811  0.13581   107542874.28903  44.56457  21.13048  57364.14796    50.64764        43.1946   63.13912  290.04532  104.0    0.28254  -19.44878  0.98185 
  -16.62429  0.00213  1.22568     12.50786  2.08681  0.34472   5.11755  0.21744     0.46179   20841.0149   3411.79823  1.10176         4151.85399     16.34841    1e-05  57317.58719  13.25951  0.01092   280749734.34446  43.96326  20.85137  57359.42042    50.65159       43.34135   55.24673  191.39045  133.0    0.24766  -19.44961  0.99852 
  -14.54028   0.0095  1.82821     12.45637  1.48976  0.92146   1.91605  0.28401     0.49912  16482.46058    3710.1864  2.19131         3016.52685     17.59917  0.00022   57319.6712   3.10512   0.0182   565245850.93562  43.16567  20.70384  57359.42042    50.54312       43.30375   51.40721  153.79493  106.5    0.26621  -19.47379  0.99694 
  -16.47429  0.00231  0.79259      12.5389  2.18713  0.14581   8.90102  0.26492         0.5  28368.56952   3129.94199  3.36191         4663.83594     16.34758    1e-05  57317.73719  42.73086   0.0206   106656741.40537  44.78264  20.84052  57361.78419    50.68169       43.32856   65.11221  209.14833  137.5    0.23297  -19.34167  0.99777 
  -14.60949  0.00582  1.15972     12.61877  1.78486  0.23193   5.79182  0.20441         0.5   21600.2294   3459.28429  4.56604         5643.43134      19.8062  0.03556  57319.60199  16.11976  0.03373   129001635.48561  44.28114   20.8431  57361.78419    50.61053       43.32465   59.19292  169.68638  146.0    0.26646  -19.49113  0.99524 
  -11.91279  0.39007  2.83522     12.47365  1.14954  0.81816   3.63476  0.10693     0.49992   9869.74456   5051.95862  1.34424         2223.33123     18.20288  0.00089  57322.29869    2.1121  1.41782   968754672.05611  42.43798  20.85176  57361.78419    50.71835       43.33523   71.03151  224.93311  112.5    0.31122  -19.60056  0.41086 
  -15.09499  0.15663  0.95112     12.04904  2.03582  0.38929    5.3409  0.15503     0.49998  13188.55843   4016.69392  0.80342         4259.41886     17.08519    7e-05  57319.11649   5.54162  0.83657  1364408082.93917  43.48617  20.90094  57364.22352    50.70775       43.34324   69.05841  215.06762  156.5    0.24971  -19.49965  0.79271 
  -13.89877  0.00121  1.32788     12.23855  1.62541  0.78837   4.72678  0.14165     0.49999  19257.21517   3531.79988  1.20962         3730.93797     16.84975    4e-05  57320.31271  10.45634  0.00574   887127768.50996  43.28551   20.9009  57364.22352    50.73692       43.38492   71.03151  203.22903  147.0    0.29123  -19.47578  0.99914 
  -13.81763  0.04076  0.90768     12.05003  1.69609  0.50037   3.58162  0.18932         0.5  17307.11222    3682.9874  1.51859          4094.1123     16.63852    2e-05  57320.39385   6.39965    0.146  1030559990.03857  43.56935  20.62079  57359.42042    50.62304       43.27438   41.43505   226.9062  144.5    0.27353  -19.47795  0.97661 
  -22.21656  0.08714  1.38114     12.30601  1.60115  0.70904   3.13345   0.2357      0.0836  12026.86814   4044.95788  1.88431         2312.79122     19.76066  0.03202  57311.99492   2.70368  0.27304   692945222.59202  43.35211    20.679  57356.32482    50.65079       43.22338   43.40814  284.12603   68.5    0.18836  -19.63851   0.9596 
  -18.39603  0.01089  1.17646     12.33621  1.85436  0.51965   5.09525  0.25594     0.49998  21419.71363   3501.19297  0.66846         4892.26413     20.68965  0.27188  57315.81545  13.94506   0.0555   506695289.27655  43.69114  20.93695  57364.14796    50.70853       43.27498   79.31564  260.05712  140.5    0.23763  -19.62443  0.99343 
  -17.02441  0.00762  1.56995     12.93483  1.24925  0.18884   4.01533  0.18841      0.4504  15524.52014    3606.2084  3.85328         3965.71162     16.44434    2e-05  57317.18707   5.77278  0.03058    38599276.49964  44.38714  20.68664  57359.42042    50.75623       43.26659   49.32744  341.34585  157.0    0.22562  -19.37626  0.99453 
  -13.77221  0.06066  1.39137     12.62603  1.75631  0.27557   3.00313  0.18759     0.38277  13441.63171   3872.69815  3.99492         4987.60532     16.05056    1e-05  57320.43927   3.23672  0.18216   176704204.91548  43.97931  20.67337  57359.42042    50.65616        43.2954   51.30053  220.98691  141.5    0.23934  -19.47724  0.96433 
   -17.1821  0.00684  1.48555      12.8364  2.19152   0.2344   3.65649  0.27718     0.23176  17642.33083   3667.78975  0.81359         4049.98724     18.24228  0.00097  57317.02938   6.78895    0.025    95395733.97864  44.28629  20.79896  57361.78419     50.5986       43.30136   57.21982  179.55186   92.0     0.2147   -19.5137  0.99654 
  -17.17847  0.00184  0.81916     12.31918  2.00106  0.26446   7.08548  0.27011         0.5  27535.01796    3185.5908  3.97387         3900.88849     20.40281  0.14045  57317.03301   32.0455  0.01301   286709948.21112  44.28593  20.81281  57361.78419    50.65841       43.34271   59.19292  189.41735  118.0    0.25726  -19.48656  0.99862 
  -19.30553  0.00266  1.04801     12.58149   1.7248  0.20613   5.74158  0.19077         0.5  19224.84649   3392.95381  0.46177         3176.49915     17.82844  0.00037  57314.90595  12.65855  0.01528   120867556.19272  44.38254  20.73542  57361.78419    50.60089       43.31276   53.27363  179.55186  159.5    0.23759  -19.41787  0.99786 
   -17.2815  0.00741  1.04339     12.43715   1.9358   0.2904   7.28569  0.18503         0.5  21369.13407   3324.20162  2.86316         5434.33518     17.70167  0.00028  57316.92998  19.84595  0.05396   261374870.36841  44.10155  20.62689  57359.42042    50.55764       43.29715   43.40814  171.65947  153.5    0.24425  -19.46172  0.99269 
  -13.46538  0.00478  1.46588     12.47402  1.23095  0.48081   3.44031  0.16465     0.49911  14953.42489   3974.73919  3.84949          5277.4297     18.03224   0.0006   57320.7461   4.58887  0.01646   276824758.45851  43.58468   20.5153  57361.78419    50.44976       43.27008   37.48885  142.06301  184.5    0.25025  -19.48143  0.99697 
  -15.32951  0.00906  1.18826     12.12721  1.96025  0.83571   4.73088  0.17375         0.5  21053.93314   3449.08653  4.30184         2319.26187     17.92225  0.00046  57318.88197  12.50938  0.04288  1430600132.60266  43.25582  21.03171  57361.78419      50.794       43.49879   61.16602  173.63257  130.5    0.29955  -19.47044  0.99388 
  -10.84334  0.10895  3.16272     13.21731  1.51495  0.33537   2.85937  0.14761         0.5  11706.87054   4284.53828   3.6506         5436.94131     16.18939    1e-05  57323.36814   2.33765  0.31154    51726598.29797  43.73541  20.93759  57361.78419    50.64091       43.36308   63.39221  165.48709  165.5    0.29366  -19.56349  0.91564 
  -19.63765  0.00955  1.85131     12.40358  1.26197  1.29929   3.15463  0.33319         0.5  17940.81635   3549.52705  0.27381         2117.21716     18.90885   0.0045  57314.57383   6.05703  0.03014   626134654.04275  43.03827  21.31541  57361.78419    50.62929       43.28924   63.39221  201.00285  123.0    0.21881  -19.43926   0.9951 
  -19.23397  0.00288   0.8061     12.33306   2.1115  0.27279   6.90779  0.30082         0.5  28533.22213   3222.58014  1.66379         4777.11747     20.86846  0.41038  57314.97751   33.5481   0.0199   274835725.24137  44.34158  20.92079  57361.78419    50.64903       43.37697   63.39221   161.5409  109.0    0.24241  -19.72998  0.99825 
  -14.42845  0.00221  1.84557     12.38844  1.90103  1.38988   3.35061  0.26066     0.49969  19393.49437   3556.60616  2.01533         3845.29109     16.95063    5e-05  57319.78303   7.51733  0.00741  1005021881.75841   43.0134  20.20445  57364.14796    50.55914        43.4039   27.01249  122.94291  123.0    0.26166   -19.4569  0.99887 
  -18.06249  0.44562  1.81766      12.1445  1.11282  1.45925   2.54916  0.26877     0.49999  10269.92751   4465.69973  2.71597         2493.52437     17.36196  0.00013  57316.14899   1.60383  1.13595  1754976176.72561  42.55198  20.21937   57368.8755    50.51911       43.42028   45.38124  112.46655  139.0    0.20112  -19.55358  0.67653 
  -11.95506  0.18292  1.01763     12.22207  1.83999  0.51058   3.28535  0.30904     0.49913  24882.33349   3720.46007  3.17498         2483.41101     21.08564  0.67666  57322.25642  12.13362  0.60097   636322583.63146  43.71481  20.84144  57361.78419    50.68598       43.35084   67.08531  195.33664   84.0    0.32906  -20.02627  0.93535 
  -21.47881  0.40137  2.32529     12.50932  1.80981  0.66472   3.31302  0.29957     0.43458   9977.76595    3893.1915  1.93954         2397.05482     17.82347  0.00037  57312.73267   1.96751  1.32976   870500894.75958  42.85375  20.16679  57357.05665     50.3986       43.48471   21.70407    76.9508   96.0    0.16752  -19.49316  0.58741 
   -9.14961  0.20554  1.21106     12.03423  1.30839  0.43444   6.13874  0.04232     0.49978  10240.84287   5777.57467  0.64131         3034.56829     18.35888  0.00127  57325.06187   3.84041  1.26176  1522047938.95141  43.03682  20.60832  57359.42042    50.73369       43.30017   39.46195   307.8032  138.5    0.37859  -19.60557  0.52452 
  -21.52278  0.04095  0.93561     12.26588  1.84508  0.40001     5.841  0.25748     0.49998  19735.51522   3469.86544  0.54735         5451.37614     21.03518  0.60243   57312.6887  13.57098  0.23916   440818828.34204  43.94841  20.30356  57361.78419    50.50595        43.3398   29.59646  144.03611  147.0    0.18769  -19.85143  0.97541 
    -17.891  0.01749  1.37998     12.20651  1.75477  1.02122   4.13452  0.33637         0.5  21467.89902   3277.05771  2.47229         2774.72802     18.01606  0.00058  57316.32048  11.36662  0.07231   1198850570.9077  43.15456  20.25804  57359.42042    50.45452       43.39704   27.62336  100.62797  104.5    0.23683  -19.39264   0.9899 
  -16.86241  0.02081  1.05148     12.13623  1.60642  0.52259  10.27554  0.08686     0.44079  14571.73345   3703.24263  2.17725         5518.49267      19.6771  0.02641  57317.34907  13.01531  0.21381   880673604.64965  43.48628  20.76596  57361.78419    50.62243       43.29024   59.19292  199.28284  272.5    0.20579  -19.45846  0.96194 
  -12.87166    0.105  1.18644     12.06946   1.9249  0.33979  14.87649  0.12033         0.5  13957.13138   4096.76541  3.57717         4494.34523     16.92538    5e-05  57321.33982  17.28701  1.56207   1827252082.8225  43.14296  20.39192  57364.22352    50.42797       43.30942   35.51575  118.38584  101.0     0.1969  -19.50793  0.41864 
  -22.22018  0.01006  1.30818     12.18404  2.10618  0.93491   3.98849   0.3187     0.49423  18011.14685   3398.27999  1.11622         4788.07896     19.87826  0.04197   57311.9913   7.71824  0.04013  1434052399.40648  43.20244  20.79397  57361.78419    50.63926       43.29818   57.21982  205.20213  132.5    0.20015  -19.45572  0.99446 
  -16.57505  0.01024  0.92595     12.50791  2.05942  0.20214   6.18529  0.25563         0.5  23559.31534   3270.45411  1.54671         4705.56097      18.0695  0.00065  57317.63643  20.47918  0.06332   158090046.28131  44.45051  20.86929  57366.51173    50.73464       43.29585    73.0046  270.31435  127.5    0.24721  -19.45844  0.99225 
  -13.91999  0.35246  1.99627     12.33417  1.19497   0.6152   3.66784  0.20092     0.49996  10695.75376   4920.58305  0.45109         5562.35352      17.2099    9e-05  57320.29149   2.50299  1.29278   948988288.11873   42.7685  20.68418  57361.78419    50.54885       43.31584   51.30053   149.9554  123.5    0.24758  -19.57359  0.51316 
  -15.50342  0.00283  2.01467     12.56658  1.76515  0.84261   3.78909  0.15212     0.49706   16370.6172   3624.13261  3.76222          2704.0692     16.08819    1e-05  57318.70806   6.05749  0.01072   489612506.33575  43.21737  20.78855  57364.22352    50.65985       43.26796   65.11221  236.77169  156.5    0.24922  -19.44659  0.99819 
  -17.05862  0.03978  1.08432     12.36405    1.616  0.35557   4.86969  0.24476         0.5  18844.95748   3478.49501  0.78403         2880.28895     17.17093    8e-05  57317.15286  10.31617   0.1937   329964043.19886   43.8885  20.76875  57359.42042    50.55663       43.27604   51.30053  173.63257  145.5    0.22081  -19.45041  0.97136 
  -18.23724  0.01188  0.92855     12.27569   2.1129  0.34191    8.8427  0.18655     0.48956  21887.14611   3301.16461  2.93286         4008.84406     18.05686  0.00063  57315.97424  25.26913  0.10505   475267589.08921  43.98117  20.67121  57361.78419     50.4618       43.24751   53.22827  142.10838  175.0    0.22672  -19.41587  0.98653 
   -13.9163  0.00402  1.40293     12.11909  1.59243  1.21539   3.48839  0.18141     0.49991  13399.62235   4009.05871    4.817         5726.01514     16.09559    1e-05  57320.29518   3.73626  0.01402  1681791378.25938  42.95106  20.35687  57371.23927    50.36542       43.28403   45.38124  114.43965  210.0    0.21868  -19.48751  0.99741 
  -15.32695  0.35339  2.44058     12.71763  1.64781  0.43819   3.16508  0.22425     0.42096  10501.40008   4770.28106  1.28552         3241.10798     18.12611  0.00074  57318.88453   2.08212   1.1185    334536221.2009  43.18632  20.48757  57361.78419    50.48239       43.25757   37.48885  167.71328  139.0    0.22394  -19.48852  0.62928 
