 texplosion  fnickel    Pspin  log(Bfield)      Mns  thetaPB  mejecta    kappa  kappagamma     vejecta  temperature    alpha  cutoff_wavelength  log(nhhost)      A_V         MJD0  kenergy  mnickel            TSD   log(L0)  Peak_mag     Peak_MJD  log(E_rad)  log(Peak_lum)  Rise_Time    E_fold  tau_1  delta_m15     r_peak     frac 
   -7.49831  0.00151  1.87203     13.61007  1.42578  0.61364  4.19344  0.33406     0.01013  7312.74004   4987.91746  2.11453            3096.47     16.18351    1e-05  58574.89169   1.3377  0.00635  2794854.30666  45.43191  18.61861  58642.17514    51.33129       44.54713   44.79589  45.42391   56.5    0.15114   -21.9388  0.99983 
   -6.95619  0.14494  2.48478     13.68443  1.96512  1.05118  4.40873  0.29522     0.01084  7426.77224   3123.93862  1.73692         3177.47694      17.9716  0.00052  58575.43381  1.45058    0.639  4818653.17285  45.08873  18.62447     58641.33    51.33211       44.55985    43.6624  44.35935   54.5    0.14989  -21.93367  0.98219 
   -7.34834  0.03068  2.48115     13.83404  1.91298  0.68975  4.03474  0.32452     0.01206  7237.52241   3957.92795  1.92274         3222.98145     18.13427  0.00076  58575.04166  1.26073  0.12379    2348252.343  45.39051  18.63303     58642.45    51.33544       44.55305    43.6624  45.09459   53.0    0.15386  -21.93226  0.99639 
   -7.35611  0.01322    2.339     13.57297  1.82707  1.19763  4.14172  0.31547     0.01219  7703.46365   4567.55383  1.68629          3191.9183     16.59881    2e-05  58575.03389  1.46616  0.05476  6632683.34745  44.97085  18.61867      58641.3    51.32593       44.55328    43.6624  44.35935   54.5     0.1537   -21.9419  0.99845 
   -7.22343    0.008  2.23388     13.57046  1.70754  1.13661  4.29856  0.32887     0.01411  8351.79586   4778.73799  1.57344         3045.14229     16.78106    3e-05  58575.16657  1.78859   0.0344  5719891.10151  45.04571  18.63628     58641.45    51.33644       44.55632    43.6624  44.72333   52.5    0.16164  -21.96629  0.99903 
   -7.35534  0.03444  2.40558     13.73535  1.82814  0.69132  3.75311  0.32092     0.01477  7827.32429   4764.39123  1.98389         3093.89079     18.59221  0.00217  58575.03466  1.37166  0.12926  3323269.54674  45.24685   18.6407     58641.22    51.31339        44.5343   44.79589  43.96109   55.0    0.15882  -21.95431  0.99614 
   -7.60804  0.00189   2.3793     13.69976  1.86354  0.83373  4.55673  0.28101     0.01015  7436.05654   3646.82396  2.02545         3099.09849     16.01381    1e-05  58574.78196  1.50302  0.00862  3904203.07053  45.19476   18.6356     58641.33    51.33977       44.56506   43.28177  44.73998   53.5     0.1552  -21.93107  0.99976 
   -7.49348  0.01146  2.49027     13.73365  2.00367  0.77085  4.08848  0.29659     0.01046  7204.26821   3595.70758  2.00262         3182.31436     17.16104    8e-05  58574.89652  1.26581  0.04684  3934003.92191  45.18334   18.6124  58642.17514    51.32911       44.54606   44.79589  44.74228   57.0    0.14879  -21.92232  0.99869 
   -6.80019  0.00168  2.38542     13.95886  1.79373  0.45917  5.78785  0.22852     0.01006  7859.55144   5911.85879  1.83385         3110.20204     16.52004    2e-05  58575.58981  2.13275   0.0097  1145471.77403  45.70849   18.6294  58642.17514    51.32855       44.54695   44.79589  44.74228   53.0    0.16121  -21.95612  0.99971 
   -7.53146  0.00449  2.24979     13.97475   1.7707  0.38743  4.19587  0.33868     0.01139   7558.7845   5181.11022  1.63372         3238.67148     18.14533  0.00078  58574.85854  1.43006  0.01882   934853.02217  45.84197  18.61694     58642.48    51.33465       44.55109   44.79589  44.74228   54.5    0.15507  -21.94065  0.99949 
   -7.09354  0.00736  2.41801     13.57305  1.82547    1.367  4.77603  0.25003     0.01028     7279.46   3980.34114  2.00613         3267.90341     17.04202    6e-05  58575.29646  1.50971  0.03514  7079443.14025   44.9133  18.62361     58641.22    51.32776       44.55323    43.6624  44.38195   55.0    0.16158  -21.94799  0.99894 
   -7.75902  0.00653   1.9141      13.5466  1.38233  0.73171  4.42254  0.27897     0.01092  7357.37861   5201.03042  1.82688         3165.88666     17.67925  0.00027  58574.63098  1.42806  0.02889     3794582.33  45.26636  18.62188     58641.22    51.32913       44.55929   43.52355  44.35935   55.0    0.14997  -21.92931  0.99917 
   -6.96238  0.00843  2.14369     13.54194  1.60542  1.11185  4.94966  0.27153     0.01069  7768.89058   4080.13997  1.65658         3238.43092     16.81358    4e-05  58575.42762  1.78205  0.04172  5647292.62098  45.06027  18.63826     58641.45    51.33121       44.55384    43.6624  44.72333   52.5    0.15868  -21.95821  0.99881 
   -7.06716  0.00493  2.38353     13.94499  1.79378  0.43675  4.01423  0.30095     0.01268  7354.44525   3285.57257  1.78693          3254.8302     18.60851  0.00226  58575.32284  1.29518  0.01979  1219118.01484  45.68213  18.62328     58641.45    51.32376       44.54692   44.65705  43.96109   55.0    0.15847  -21.93721  0.99941 
    -7.0053  0.03548  2.03582     13.63506  1.51291  0.74937  4.93345  0.29343     0.01138  8012.44349   3825.32724  1.55772         3196.30641     16.13229    1e-05   58575.3847  1.88933  0.17505  3126024.10635  45.33619  18.60907     58641.45    51.33846       44.56059    43.6624  45.01034   52.0    0.15447  -21.96323  0.99511 
   -6.59714  0.01936  2.38724     14.22907  1.75898  0.23386  5.19604  0.25546     0.01081  7634.08305   3308.29448  1.98271         3226.71079     17.07576    7e-05  58575.79286   1.8064  0.10058   324133.31696  46.24759  18.61807  58642.17514    51.33318       44.55254    43.6624  45.09459   53.0    0.16349   -21.9564  0.99692 
   -7.10498  0.00133  2.16497     13.85802  1.63052  0.44571  4.55939  0.28596     0.01063  7473.78103   4073.87512  1.89553         3181.46357     17.08773    7e-05  58575.28502   1.5192  0.00608  1364610.32669  45.67526  18.62064     58642.48    51.33466       44.54584   44.79589  45.55088   55.0    0.15889  -21.94177  0.99983 
   -7.31191  0.00511  2.31011     13.98826  1.82115  0.37564  4.34907  0.31256     0.01164  7677.53838   5473.17773  1.77893         3111.33107     16.94045    5e-05  58575.07809  1.52921  0.02221   952612.58664  45.82301  18.61951     58642.28    51.32604       44.53907   44.79589  45.42391   54.0    0.14964  -21.94776  0.99939 
    -7.2567  0.11771  2.29489     13.54823  1.69251   1.3807   5.1354  0.23684     0.01075  7541.17384   5569.79971  1.61582         3280.42531     16.67423    3e-05   58575.1333  1.74213  0.60448  6628316.54784  44.95445  18.62481     58641.45    51.33589       44.55887    43.6624  44.38195   54.5    0.15636  -21.95141  0.98203 
   -7.46336  0.07775  2.24701     13.64167  1.68306  0.86518  4.91709  0.27507     0.01145  7763.80594   3709.36145   2.0209         3045.48249     18.26858  0.00103  58574.92664  1.76801  0.38229    4109394.122  45.17796   18.6271  58642.17514      51.323       44.53888   44.80355  44.89236   54.5    0.15448  -21.95462  0.98892 
   -6.94028  0.00463  2.11763     13.58048  1.51725  0.94949  4.75679   0.2677     0.01264  7750.20633   3325.15999  1.70879         3150.96875     18.71185  0.00286  58575.44972  1.70438  0.02204  4361330.05824  45.15858  18.62245     58642.28    51.33092       44.54963   44.79589  44.74228   52.5    0.15604  -21.94946  0.99933 
   -7.01571  0.00909   2.0205     13.89041  1.49573  0.36457  4.20077  0.32155     0.01232  7716.80959   4119.10898  1.80658         3126.69062     17.50428  0.00018  58575.37429  1.49222  0.03817   939212.48745  45.86002  18.62294     58641.45    51.33626       44.56068    43.6624  44.38195   54.5     0.1564  -21.94942  0.99892 
   -7.01133   0.0026  2.49195     13.92331  1.92061  0.54337  5.17724   0.2571     0.01085  7582.47946   4836.26697  1.88778         3110.55535     17.43794  0.00015  58575.37867  1.77561  0.01348  1576598.38219  45.56149  18.62838     58641.24    51.32095       44.54327   44.78058  43.96109   54.0    0.15733  -21.94533   0.9996 
   -7.06521  0.00892   2.4748     13.70001  1.95032  0.88222  4.38898  0.27777       0.011  7585.25983   5489.26773  1.83109          3197.1929     16.47889    2e-05  58575.32479  1.50637  0.03914  4415403.24084   45.1269  18.61519  58642.17514    51.33181       44.54642   44.79589  44.90002   53.5    0.16145  -21.94943  0.99888 
   -7.52758   0.0024  2.33657     13.96149   1.8629  0.41212  4.54537  0.30668     0.01078  7671.70027   3966.90164  1.84407         3110.33145     16.87297    4e-05  58574.86242   1.5958  0.01089  1127686.21246  45.74969  18.61646     58641.45     51.3295       44.55636    43.6624  44.35935   54.5    0.15636  -21.94653   0.9997 
   -7.44389  0.05114  2.18628      13.6282  1.67604   0.7758  3.93891  0.31077     0.01114  7268.83178   4517.06122  1.85112         3238.69535     17.96789  0.00052  58574.94611  1.24146  0.20143  4122020.29995  45.19861  18.62253  58642.17514    51.33593       44.55775    43.6624  44.72333   55.0    0.14986  -21.93086  0.99435 
   -7.33407    0.001  2.33195     13.66607  1.80306  0.97309  4.80339  0.29241     0.01068  7588.92067   4004.84073  1.92575         3173.28489     16.84076    4e-05  58575.05593  1.65019  0.00481  4237617.41945   45.1623  18.61775     58641.24    51.32969       44.54614   44.79589  43.96109   53.0    0.15288  -21.95587  0.99986 
    -7.0275  0.00394  2.48541     13.62809  2.01295  1.40621  4.32872  0.30093     0.01096  7562.71593   6059.92452  1.93904         3043.60098     18.36185  0.00128   58575.3625  1.47687  0.01707  6401198.90285  44.97562  18.60767     58641.22    51.32913       44.55254    43.6624  44.72333   55.0    0.15338  -21.94279  0.99953 
   -7.19416  0.00275  1.98639     13.48828  1.47344  1.00827  5.03128  0.27239     0.01069  7844.26982   3581.11581  1.82681          3100.9915     16.46376    2e-05  58575.19584  1.84676  0.01385  5697808.66169  45.08534  18.61159     58641.22    51.32416       44.54895    43.6624  44.72333   54.0    0.15056  -21.96001  0.99961 
   -7.44734  0.00547  2.11779     13.79925  1.60991  0.46545  4.40408  0.29709     0.01227  7940.31994   4108.02468  1.61283         3198.12321     17.98717  0.00054  58574.94266  1.65638  0.02409  1690013.63151  45.59599  18.63202     58641.45    51.33079       44.55429    43.6624  44.72333   54.5    0.15665  -21.96593  0.99932 
   -7.61538  0.00267  2.17394     13.55629  1.65527  1.15995  4.76353  0.28973     0.01013   7459.1969   4717.25547  2.00291         3107.32347     17.06634    6e-05  58574.77462  1.58103  0.01272  5605339.90253  45.06461  18.61252     58641.22    51.33072       44.55614   43.57816  44.44359   53.0    0.15664  -21.93697  0.99964 
   -7.16286  0.00461  2.14955     13.65096   1.5346  0.69228  4.30893  0.29341     0.01439  7975.34462   5616.88578  1.80655         3178.00792     16.76663    3e-05  58575.22714  1.63492  0.01988  3285298.13288  45.27357  18.61286     58641.43    51.33105        44.5519   44.79589  43.96109   54.5    0.15706  -21.96111  0.99939 
   -7.11581  0.00145  2.05611     13.47623  1.49224  1.14686  4.64187  0.27145     0.01062  7413.75196   3775.38146  1.91055         3222.66084     17.27021   0.0001  58575.27419  1.52194  0.00674  6535505.30185  45.00131  18.62264  58642.17514    51.33457       44.55302   44.79589  43.96109   55.0    0.15888    -21.939   0.9998 
    -7.1976  0.00276  2.47387      13.7624  1.92825  0.75425  4.56132  0.26717     0.01082   7539.5494   3746.25812   1.6894          3283.5448     18.68788  0.00271   58575.1924  1.54671  0.01259  3272968.96243  45.25231  18.61995     58641.24    51.32907       44.54704   44.79589  44.74228   53.5    0.16163  -21.94995  0.99963 
   -7.62798  0.01342  1.90128     13.49928  1.40198  0.94892  4.88769  0.31805     0.01194  8171.88558    5250.1376  1.87042         3006.47016      17.8336  0.00038  58574.76202  1.94704  0.06559  4721661.89815   45.1834  18.61666     58641.45    51.33235       44.55396   44.79589  43.96109   52.5    0.15724  -21.96976   0.9982 
   -7.36458   0.0341   1.9959     13.51156  1.50396  0.95927  4.47373  0.30746     0.01075  7569.20307   5148.06432  2.04088          3039.5071     16.79536    3e-05  58575.02542  1.52896  0.15253  5274876.80917  45.12359  18.62452     58641.45    51.32936       44.55009   44.79589  43.96109   54.5    0.15354  -21.94136  0.99583 
   -7.46875   0.0223   2.1568     13.98335  1.65804  0.32451   3.7889   0.3369     0.01187  7421.47049   4891.33982  1.91675         3116.67685      16.8425    4e-05  58574.92125  1.24486   0.0845   773258.48316  45.93249  18.61295      58641.3    51.31653       44.53531   44.79589  44.74228   55.5    0.15133  -21.93207  0.99766 
   -7.38506  0.06875  2.22785     13.97354  1.69211  0.38768  4.60176  0.33516     0.01258  7908.84583   3926.75764  1.85534         3090.03792     17.53811  0.00019  58575.00494  1.71703  0.31636   880928.05364  45.85656  18.61582     58641.45    51.33511       44.55593    43.6624  45.09459   53.5    0.15305  -21.95489   0.9911 
   -7.11352  0.00216  2.09936     13.81442  1.51493  0.47501  4.60891  0.29078     0.01253  7696.61794   3237.09419   2.1595         3029.83093     17.30755  0.00011  58575.27648  1.62864  0.00997  1457293.67368  45.64152  18.63634     58641.44    51.32145       44.54092    43.6624  45.09459   54.5    0.15459  -21.95159   0.9997 
   -6.93914   0.0118  2.49133     13.59632  1.92016  1.39926  3.60227  0.32801     0.01495  7592.74353   3411.69033  1.80534         3158.26492     16.04153    1e-05  58575.45086   1.2388  0.04249   7101863.9164  44.90795  18.62744     58641.45    51.32486       44.54678   44.79589  43.96109   54.5    0.15424  -21.94816  0.99874 
   -6.70675  0.00234  2.41091     13.83382  1.81932  0.65376  4.87728  0.27493     0.01021  7273.32485   3851.14623  1.95397         3213.91822     17.25449   0.0001  58575.68325  1.53912  0.01142  2110835.03897  45.43994  18.61942     58641.45    51.32138       44.53851    43.6624  45.87578   52.5    0.15243  -21.92138  0.99966 
   -7.54644  0.07093  2.46833     13.76049  1.89651  0.74258  4.26501  0.28533     0.01202  7353.75775   3996.90415  1.96091          3153.8999     17.02236    6e-05  58574.84356  1.37583  0.30253  3232891.00893   45.2524  18.61274     58641.45     51.3296       44.55171    43.6624  44.72333   55.0    0.15629    -21.943  0.99111 
   -7.21025  0.01192  2.58587      13.8069  1.98731   0.7899  3.88006  0.32925     0.01364  7354.56921   3167.40696  1.88047         3202.04705     18.80451  0.00354  58575.17975  1.25193  0.04624  3002516.79813  45.26441  18.61306     58641.24    51.33553       44.56387    43.6624  44.35935   54.5    0.15315  -21.93153  0.99861 
   -7.63313  0.00256  2.03964     13.95002  1.50928  0.30363  3.79439  0.33981     0.01289  7582.68895   5331.75485  1.63607         3333.17507     16.84016    4e-05  58574.75687  1.30141  0.00972   733919.18007  45.96286  18.63109     58641.45    51.33276       44.54804   44.79589  44.74228   55.0    0.15624  -21.94818  0.99972 
   -7.49799  0.00943  2.26579     13.61266  1.80482  0.94552  3.91252  0.32652      0.0113  7414.20204    3597.9579  1.75967         3194.16242     18.51881  0.00183  58574.89201  1.28296   0.0369  5121191.75165  45.10547  18.62537  58642.17514    51.32806       44.54425   44.80355  44.89236   55.0    0.15036  -21.93825    0.999 
   -7.13843  0.01192  2.49537     13.81815  1.96036  0.67422  4.73871  0.28746     0.01004  7410.82687   4725.46514  2.04102         3222.96164     18.48892  0.00171  58575.25157  1.55246   0.0565  2618914.53533  45.34879  18.63109     58641.45    51.32659       44.54832    43.6624  45.09459   54.5    0.15606  -21.94355  0.99838 
   -6.89769  0.01495  2.47626     13.71538  1.95189  0.93666  3.95227  0.33499     0.01165  7370.77768   3424.27705  1.81219         3251.36789     17.93571  0.00048  58575.49231  1.28086  0.05908  4121903.41678  45.15661   18.6341     58641.45    51.32234       44.54159    43.6624  45.09459   53.0    0.15877  -21.93214  0.99832 
   -7.47159   0.0884  2.17372     13.52643  1.61302  1.27382  5.45082  0.24097      0.0101  7651.86593   4545.38268  1.81569          3100.0119     17.90938  0.00045  58574.91841  1.90381  0.48184  6266167.40151  45.00508   18.6267     58641.45    51.32974       44.54669   44.79589  44.90002   54.5    0.15619  -21.94972  0.98615 
   -7.93643  0.00355  2.07472     13.42577  1.50106  1.27254  3.72748  0.31065     0.01467  7561.14233   3826.31013  1.86959         3193.33375     18.54025  0.00193  58574.45357  1.27121  0.01324  8444724.79636  44.88474  18.61713     58641.45     51.3345       44.55895    43.6624  44.72333   55.0    0.15255  -21.95247   0.9996 
   -7.22441  0.01568  1.98893     13.44544  1.52236  1.06424  3.87509  0.31612     0.01171  7583.40919   4314.30811  1.75001         3197.38048     16.18681    1e-05  58575.16559  1.32935  0.06077  7189465.36523  44.99743  18.61626     58641.41    51.32432       44.55077    43.6624  44.38195   55.0    0.15303  -21.95285  0.99836 
   -7.20205  0.00147  2.61894     13.75543  2.09976  0.93861  4.22152  0.33913     0.01322  7840.82089   4910.27787  1.68292         3220.63704     18.03704  0.00061  58575.18795  1.54817  0.00622  4124506.35941  45.13939  18.61096     58641.33     51.3232       44.54046   44.79589  44.74228   53.5    0.14984  -21.95691  0.99982 
   -7.07385  0.00244  2.33066     13.88711  1.77295   0.5312  4.26419  0.28769     0.01086  7155.99686   5478.89511  1.75414         3226.82679     16.90551    4e-05  58575.31615  1.30258  0.01041  1504024.54836  45.60533  18.61691     58641.45     51.3351       44.55507   44.79589  43.96109   53.5    0.16074  -21.91903   0.9997 
   -7.18099  0.01331  2.29683      13.6068  1.77379  1.23294  4.50084  0.32502      0.0123  7834.15027   5869.31724  1.78199         3119.41904     18.64537  0.00246  58575.20901   1.6478  0.05991  5313410.90919  45.07012  18.62382     58641.45    51.32638       44.54796   44.79589  43.96109   52.5    0.15395  -21.95622  0.99832 
   -6.95211  0.00704  2.33682     13.99454  1.76341  0.39431  4.73948  0.27836     0.01124  7580.06828   3875.94819  1.92242         3115.51932     17.15572    8e-05  58575.43789  1.62444  0.03335    916926.0431  45.81561  18.61302  58642.17514    51.33377       44.54794   44.79589  44.90002   52.5    0.16067  -21.94007  0.99902 
   -7.55115  0.05893  2.02914     13.50837  1.50291   0.9361  4.44138  0.30427     0.01138  7711.93193    3585.9043  2.12329         3052.30324     17.10545    7e-05  58574.83885  1.57569  0.26175  5528900.69081  45.08852  18.61988     58641.22    51.33043        44.5502    43.6624  45.01034   55.0    0.15109  -21.94432  0.99259 
   -7.07564  0.00118  2.68172     13.84924   2.1402  0.66005  5.50259  0.21589     0.01007  7829.07394   5029.15035   1.8765         3112.66105     18.50629  0.00178  58575.31436  2.01194   0.0065  2861674.98515  45.28585   18.6353  58642.17514    51.33855        44.5594    43.6624  44.72333   54.5    0.16102  -21.96162  0.99981 
   -7.39918  0.00105  1.71989     13.36739  1.18346  0.99245  4.64521  0.29106     0.01074  7448.23325   4145.88819  2.09476         3167.34622     17.75788  0.00032  58574.99082  1.53723  0.00489  5986765.50543  45.09381  18.62266  58642.17514    51.32938       44.55653   43.52355  44.35935   55.0    0.15778  -21.94278  0.99986 
   -7.46225  0.00123  2.15748     13.50037  1.64215  1.52127  4.54513  0.29054     0.01038  7394.50011   3321.70904  1.76885         3211.25714     16.48586    2e-05  58574.92775  1.48249  0.00558  7085794.57759  44.96597  18.61716     58641.45    51.33018       44.55082   44.79589  43.96109   55.0    0.15815   -21.9344  0.99984 
   -7.18279  0.00103  2.10142     13.67009  1.59165  0.74305  4.01044  0.33411     0.01126  7284.87413   4924.05232  1.63134         3309.59226     18.36685  0.00129  58575.20721  1.26959  0.00415  2981968.21177  45.35116  18.62104     58641.45    51.33897       44.56234   43.57816  44.44359   53.0    0.15839  -21.92868  0.99989 
   -7.60777  0.00133  2.32458     13.68972  1.80542   0.8389  4.99734  0.27703     0.01131  7918.30192   3607.10694  1.70007         3149.48422     16.90923    5e-05  58574.78223  1.86909  0.00664  3781218.57174   45.2151  18.61657  58642.17514    51.33334        44.5492   44.79589  44.74228   54.5    0.15706  -21.96865  0.99981 
   -7.48874  0.00183  2.19635     13.47229   1.6171  1.53794  4.95332   0.2451     0.01022  7406.30847    5646.5349  1.90145         3218.55341     18.26798  0.00103  58574.90126  1.62079  0.00909  8229456.78769  44.87881  18.61192     58641.22    51.32278       44.55339   43.52355  44.35935   54.5    0.15639  -21.93352  0.99973 
   -7.17016  0.00186   1.8595     13.39928  1.28771  1.13272  5.74996  0.21224      0.0102  7730.12261   4666.39792  1.72207         3124.14822     16.89189    4e-05  58575.21984  2.04958  0.01069  6574523.68506  45.02201  18.62343     58641.45    51.31666       44.53623   44.79589  44.74228   54.5    0.15635  -21.95036  0.99968 
   -7.52303  0.18707  2.47947     13.78437  1.86513  0.75587  4.67672   0.2792     0.01213  7532.05291   3252.51695  1.91254         3089.12953     17.88787  0.00043  58574.86697  1.58269  0.87486  2874097.22834  45.29234   18.6295  58642.17514    51.32519       44.54311   44.97871  44.57835   54.5    0.15089  -21.93593  0.97406 
   -7.31488  0.03742  2.02455     13.45312  1.49413   1.2291  4.29102  0.29787     0.01283  7872.83064   3689.90657  1.80361          3033.1565     18.74974  0.00312  58575.07512  1.58654  0.16058  7057112.55681  44.98195  18.61865     58641.45    51.33647       44.55783    43.6624  45.01034   54.5    0.15208   -21.9564  0.99544 
   -7.47892  0.04028  2.20423     13.77242  1.72189   0.5802  4.12956  0.32026     0.01046   7247.9255    4415.3246  2.14514          3064.0661     16.18423    1e-05  58574.91108  1.29407  0.16633  2215570.61545  45.47285  18.62279  58642.17514    51.33793       44.56246    43.6624  44.38195   55.0    0.15079  -21.92685  0.99547 
   -7.45356  0.03913  2.66068     13.76595  2.13416  0.93002  4.12612  0.32852     0.01229  7584.92351   4446.62135   1.8718         3168.22137     17.69654  0.00028  58574.93644  1.41603  0.16145  4122220.93892  45.13295  18.63009  58642.17514    51.32371       44.54465   44.79589  43.96109   54.5    0.15623  -21.93923  0.99537 
   -7.81004  0.00207  2.46942     13.63583  1.91747    1.277  3.97123  0.33872     0.01383  7578.94434   3701.19399  1.81776         3171.14432     18.00953  0.00057  58574.57996  1.36072  0.00821  5808571.02695  45.00231   18.6153     58641.45    51.32544       44.54619   44.79589  44.74228   54.5    0.15426  -21.95024  0.99976 
   -7.80758  0.00223  2.12224     13.48445  1.58029  1.27611  4.90292  0.26311     0.01073  7532.19202   3789.18818  1.71675          3206.8432     19.00848  0.00567  58574.58242   1.6593  0.01094  7099798.13007  44.96275   18.6119     58641.45    51.32237         44.543    43.6624  45.09459   54.5    0.15024  -21.94331  0.99968 
   -7.00819   0.0376  2.39849     13.67909  1.90125  0.96784   5.2175  0.28482     0.01059  8132.59776   3479.93574  1.66149         3170.76287     16.73151    3e-05  58575.38181  2.05849  0.19616   4451921.0491  45.13946  18.62269     58641.45    51.32774       44.55031    43.6624  45.01034   52.0    0.15533   -21.9699  0.99458 
   -7.09046  0.00135  2.00752     13.46569  1.40592  1.26179  5.63304  0.22724     0.01032  7573.44879   3761.60835  2.09197         3030.21108     18.04555  0.00062  58575.29954  1.92734  0.00762  6161831.56281  45.02178  18.63689  58642.17514    51.31608       44.53162   45.11756  45.10224   52.5    0.15884  -21.93808  0.99977 
   -7.17906  0.00358  1.81463     13.52218  1.28942  0.74432  5.17068  0.26121     0.01032  7728.49538   4090.78876   1.9821         3009.86265     16.85864    4e-05  58575.21094  1.84232   0.0185  3559782.15649  45.31024  18.62086     58641.45    51.32549       44.54713   44.79589  43.96109   54.5    0.15873   -21.9452  0.99947 
   -7.22612  0.00199  2.21278     13.77441  1.66485  0.59808  5.02082  0.26818     0.01027   7526.3142   3512.87467  1.84064         3165.50352     16.85708    4e-05  58575.16388  1.69655  0.00997  2139125.47488  45.47011   18.6239     58641.45    51.32852       44.54643   44.79589  43.96109   54.5    0.15264  -21.93911  0.99971 
   -7.32702   0.0637  2.30026     13.61142  1.73696  0.94988  3.71701  0.33201     0.01359  7441.33266   4068.61593  1.86118         3200.42504     18.65897  0.00253  58575.06298  1.22779  0.23679  5108798.07748  45.07676  18.62329  58642.17514    51.32098       44.54031   44.79589  44.74228   54.5    0.15286  -21.94032  0.99307 
   -7.29689  0.00151  2.17915     13.71021  1.65469   0.7365   4.3976  0.32303     0.01229  7686.08021   5567.80436  1.89632         3003.02645     17.83212  0.00038  58575.09311  1.54972  0.00665   2771283.2655  45.36831  18.62922  58642.17514     51.3279        44.5471   44.79589  43.96109   54.5    0.15194   -21.9353  0.99981 
   -7.17617  0.13424  2.18574     13.53387  1.69172  1.12388  3.86434  0.32811     0.01137  7388.08239   4474.21639  2.00567         3101.03356     19.18066  0.00842  58575.21383  1.25825  0.51873  6421038.42556  45.01037  18.62971     58641.22    51.33149       44.55482    43.6624  45.01034   55.0     0.1542  -21.93576  0.98584 
   -7.30091  0.24248  2.53921     13.65145  1.92352   1.2863  4.46205  0.29116      0.0123  7579.90633   5420.03639  1.87517         3122.48816     17.61525  0.00023  58575.08909  1.52929  1.08194  5733436.73178  44.98513  18.63194  58642.17514    51.33407       44.55767    43.6624  44.72333   54.5    0.15518  -21.93653  0.96802 
   -7.74882  0.14092  2.29103     13.70113  1.76246  0.70371   4.1378  0.29384     0.01123  7413.86056   3190.99638  1.79472         3225.84301     17.60332  0.00022  58574.64118  1.35671  0.58312  3401953.59314  45.26317  18.62142  58642.17514    51.33267        44.5576   43.52355  44.35935   55.5    0.15791  -21.93917  0.98354 
   -7.25595  0.00591  2.17974     13.68058   1.6078  0.69057  4.68246    0.276      0.0113  7538.86606   4908.01431  2.10155         3080.72544      16.1137    1e-05  58575.13405   1.5875  0.02765   3088094.9039  45.30858  18.61731  58642.17514    51.33041       44.55473    43.6624  44.72333   54.5    0.15247   -21.9387  0.99918 
    -7.3962  0.03061  2.05834     13.89639   1.5125  0.37024  4.39941  0.30168     0.01184  7522.45626   3594.88355  1.75374         3199.25785     16.09908    1e-05   58574.9938  1.48505  0.13469   958863.10571  45.83975  18.61944     58642.41    51.33172       44.55236   44.79589  43.96109   54.0    0.14911  -21.94226  0.99613 
   -7.65359  0.01554  2.04892     13.81092  1.53935  0.47386  4.88118  0.28023     0.01032  7578.65818   3650.71596  1.64741         3184.38869     18.22365  0.00093  58574.73641  1.67238  0.07586  1433380.92693  45.67677  18.61078     58641.22    51.32717        44.5533    43.6624  44.35935   54.5    0.14902  -21.94153   0.9979 
   -6.96235  0.02881  2.47881     13.60305  1.92202  1.38231  4.47812  0.27019     0.01018  7222.61719   3438.87792  2.16749         3107.78294     17.78778  0.00034  58575.42765  1.39352    0.129  6822793.73412  44.93016  18.62101     58641.45    51.33161       44.55199    43.6624  45.09459   55.0    0.15393  -21.92376  0.99623 
   -7.81387  0.01686  2.18738     13.49908  1.71454  1.18213   4.5106  0.28482     0.01052  7613.65415    3158.5885   1.7047          3259.9071      17.8527   0.0004  58574.57613  1.55973  0.07605  7649870.96203  44.93949  18.62548     58641.45    51.32658        44.5452   44.79589  44.74228   54.5    0.15675  -21.95348  0.99792 
   -7.25403   0.0104  2.53172     13.82474  1.98865  0.74007  4.66469  0.30024      0.0124  7986.19548   4932.86379  1.67525          3130.8707     17.03254    6e-05  58575.13597  1.77472  0.04852  2652946.73322  45.33684   18.6078     58641.45    51.32541       44.54781    43.6624  45.09459   52.5    0.15392  -21.95797   0.9986 
   -7.79509  0.00132  2.37033     13.94704  1.85044  0.46472  5.05271  0.27735     0.01085  7731.62771   3688.03303  1.77013         3082.60364     16.65804    3e-05  58574.59491  1.80175  0.00666  1232038.48355  45.69588   18.6167     58641.33     51.3371       44.56491    43.6624  44.35935   54.5    0.15787  -21.94661  0.99981 
   -7.40488  0.03046  2.23921     13.47018  1.66329  1.46716  4.42037  0.24107     0.01063  7157.57006   3660.56852  1.92694         3256.23906     18.71035  0.00285  58574.98512  1.35088  0.13466   8883972.4442  44.84102   18.6125  58642.17514    51.33351       44.55305   44.79589  44.74228   55.5    0.15558  -21.93648  0.99597 
   -7.44205  0.01041   2.2144      13.5728  1.72949  1.09171  4.57211  0.30474     0.01063  7697.74902   3295.80049  1.89594         3143.12557     18.32225  0.00117  58574.94795  1.61611  0.04759  5631674.44391  45.06561  18.60983  58642.17514    51.33585        44.5556    43.6624  45.09459   53.0    0.15744  -21.95915   0.9987 
   -7.15904  0.03015  2.48087     13.64313  1.96056  1.15589  4.09928   0.3161     0.01178  7584.91021   5362.97852  1.95006         3160.69849     18.32412  0.00117  58575.23096  1.40681   0.1236  5796267.06159  45.00887  18.62281     58641.22    51.32568       44.54844    43.6624  44.72333   53.5    0.16078  -21.95094  0.99649 
   -7.21999  0.00511   2.3525     13.82517  1.87579  0.54462  4.05908  0.29345     0.01037  7246.22668   3959.72927  1.73426         3238.52905     17.88891  0.00043  58575.17001  1.27139  0.02075  2156363.08284  45.46525  18.61791  58642.17514    51.32121       44.53763   44.79589  44.74228   55.0    0.14971  -21.92131  0.99943 
    -7.6116  0.05902  2.10359     13.71579  1.60801  0.63667  4.29048  0.33587     0.01188  7840.56311    4002.1488  1.73301         3150.43661     17.61929  0.00023   58574.7784  1.57336  0.25322  2445958.02572  45.44076  18.62123     58641.45    51.32024       44.54051   44.79589  43.96109   53.0    0.15845  -21.95773   0.9931 
   -7.10393  0.00101  2.34586     13.84075  1.82545  0.55637  4.61185  0.28362     0.01072  7493.78798   5265.48466  2.32854         2987.11644     18.61239  0.00228  58575.28607  1.54492  0.00466   1942130.0721  45.50133   18.6125     58641.22    51.32808       44.55529    43.6624  44.35935   55.0    0.15105  -21.94843  0.99987 
   -7.54574  0.00373   2.2595     13.97327  1.71053  0.35302  4.98427  0.25484      0.0111  7758.76557    3019.7684  1.80303         3092.04291     16.65801    3e-05  58574.84426  1.78984   0.0186   917111.69357  45.83153  18.61344  58642.17514    51.33188       44.55204    43.6624  45.09459   54.5    0.15568  -21.94802  0.99946 
   -7.60414  0.00342  2.23817     13.53431   1.7247  1.15315  4.50619  0.27422     0.01034  7390.67109   3390.63966   2.0096         3153.92038     18.96321   0.0051  58574.78586  1.46826   0.0154  6849946.52363  44.97008  18.61776  58642.17514    51.33073       44.54745   44.79589  44.74228   55.0    0.15537  -21.94431  0.99956 
   -7.73621  0.14293   2.5125     13.69082  2.00424  1.06369  4.28761  0.31271     0.01161  7585.18848   5291.40875  1.69214         3161.95954     18.26621  0.00103  58574.65379  1.47155  0.61282  4879035.09682  45.08225  18.62289  58642.17514    51.33168        44.5508   44.79589  44.74228   55.0    0.15127  -21.94022  0.98303 
    -7.6939  0.01676  2.34784     13.55888  1.80649  1.34593  5.26485  0.25681     0.01019  7679.21773   4544.43981   1.7825         3221.28578     16.53706    2e-05   58574.6961  1.85203  0.08824  7050675.63185  44.93611  18.61053  58642.17514    51.33658       44.55845    43.6624  44.72333   54.0    0.14934  -21.95333  0.99746 
   -8.04844  0.00315  2.06642     13.46348  1.55495  1.27262  4.29336  0.32046      0.0123  7628.19608    4002.9513  1.80275         3153.94316      16.4812    2e-05  58574.34156  1.49028  0.01352  7294683.67318  44.96712  18.61872     58641.45    51.32493       44.54732   44.79589  43.96109   56.0    0.14545  -21.95089  0.99962 
   -7.51249  0.00418  2.26082     13.61853  1.68587   0.8894  5.42065  0.22879     0.01001  7593.01293   5281.96257  1.78735         3232.74512      17.9113  0.00045  58574.87751  1.86426  0.02266  4635709.57112  45.12102  18.62507  58642.17514     51.3348       44.55887   43.64709  44.72333   54.5    0.15783  -21.95449  0.99933 
   -7.06682  0.03232  2.43392     13.72092  1.95378   0.9032  4.36474  0.30631     0.01044  7428.91924   3537.68515  1.85716         3148.29098      19.1026  0.00704  58575.32318  1.43693  0.14106  3885660.08525  45.19764  18.62199     58641.41    51.32245       44.54562    43.6624  44.72333   55.0    0.15326  -21.93944  0.99614 
   -7.84212  0.02014  2.20705     13.60269   1.6428  0.95194  4.28596  0.30327     0.01294  7580.07082   3759.30848  1.58134         3218.22885     18.21766  0.00092  58574.54788    1.469  0.08632  4630591.84322  45.13117  18.62788  58642.17514    51.32864       44.54838   44.79589  43.96109   54.0    0.14862  -21.93626  0.99748 
   -6.97232  0.00199  2.14369      13.5322   1.5763    1.141  4.04401  0.31339     0.01277  7573.85821   3079.40296  1.84425         3162.09469     18.12308  0.00074  58575.41768   1.3838  0.00803  5799325.88128  45.04078  18.61855  58642.17514    51.33421       44.56146    43.6624  44.35935   53.0    0.15688  -21.94263  0.99976 
   -7.73683  0.08839  1.95457     13.38813  1.41022  1.37691  4.46308  0.25911     0.01044  7205.46777   3513.87475   1.7356         3198.84193     16.39783    1e-05  58574.65317  1.38225  0.39447  8374160.46363  44.91309  18.61947     58641.24    51.32533        44.5436   44.79589  43.96109   55.0    0.14859  -21.91716  0.98865 
   -7.36761  0.03874   2.1168     13.47776  1.51317  1.37653  4.32269   0.2736     0.01022  6890.23643   3469.01203   2.0757         3227.90365     16.75929    3e-05  58575.02239  1.22419  0.16744  6974953.86561  44.95383  18.62665     58640.37    51.32413       44.54849    43.6624  44.38195   55.5    0.15633  -21.90385  0.99492 
   -7.85678  0.00408  2.33852     13.57442  1.87576  1.25695  4.16967  0.31627     0.01202  7844.90075   3864.92588  1.73592         2984.44489     16.20959    1e-05  58574.53322  1.53075  0.01702  6761432.55794   44.9741  18.63289     58641.45    51.32332       44.53909   44.79589  44.90002   55.0    0.15616  -21.93453  0.99954 
   -7.40616  0.08472  2.18511     13.75466  1.67537  0.58811  4.58794  0.29387      0.0103  7467.31523   4543.97847  1.95442         3110.35374      18.3922  0.00137  58574.98384  1.52607  0.38871  2299135.48171  45.45244  18.61071     58641.22    51.32649       44.55735   43.52355  42.85913   54.5    0.15325  -21.93457  0.98924 
   -7.93593  0.00603  2.08058     13.61177  1.59748  0.79372   4.9337  0.29417     0.01071  7932.68596   5146.75789  1.63659         3163.27582     17.55573   0.0002  58574.45407    1.852  0.02973  3837745.25549  45.25184   18.6247  58642.17514    51.33091       44.55414    43.6624  45.01034   54.5    0.14857   -21.9591  0.99919 
   -7.54364  0.00209   2.5114     13.92323  1.96592  0.54468  4.28312  0.32946     0.01401  7873.83774   5671.21542  1.73863         3119.08676     16.26163    1e-05  58574.84636  1.58402  0.00896  1639683.57413  45.54782  18.60782     58641.45    51.31952       44.53759   44.79589  44.74228   54.0    0.15473  -21.95966  0.99974 
   -7.21064   0.0027  2.42125      14.1583  1.92065  0.27685  4.03427  0.32143     0.01136  7405.23464   3154.01338  2.02077         3124.09191     19.18409  0.00849  58575.17936  1.31968   0.0109    504357.2004  46.08148  18.62955     58641.45    51.33202        44.5512    43.6624  45.09459   53.5    0.15904  -21.94193   0.9997 
   -6.85083  0.00964  2.39449     13.68277  1.87978  0.95321  4.57706  0.28049     0.01021  7460.29548   6049.32289  2.07707         3029.78727     17.47022  0.00016  58575.53917  1.51959  0.04413  4313194.72913  45.14973  18.60965  58642.17514    51.32884       44.55455   43.64709  44.72333   53.5    0.15967  -21.93251  0.99876 
   -7.46917  0.10181  2.13395     13.93804  1.58115  0.36471  4.51481  0.29306     0.01147  7579.23352   4631.65969  1.94532          3011.8063     17.05143    6e-05  58574.92083   1.5471  0.45963   889364.61807  45.86037  18.62228     58641.45    51.32647       44.54911   44.79589  43.58984   54.5    0.14917  -21.92569  0.98686 
   -6.79931   0.0013  2.02942     13.99021  1.48464  0.30304  4.56402  0.28864     0.01017  7159.34328   5719.41599  2.09786           3137.808     17.43725  0.00015  58575.59069  1.39547  0.00594   593963.30543  46.05197  18.61249  58642.17514    51.33178       44.55817    43.6624  44.38195   54.5    0.15355  -21.92687  0.99983 
   -7.57575  0.00409  2.01516     13.46346  1.55305  1.18324  4.57965  0.29653     0.01043   7683.5565   3960.00327  1.81473         3113.51208     17.23926   0.0001  58574.81425  1.61281  0.01874  6929619.44505   45.0107   18.6084     58641.45    51.31253       44.53645     42.696  43.87685   55.0    0.15145  -21.95616   0.9995 
   -7.08142  0.02235  1.81525      13.4299  1.30395  0.95791  4.06642  0.31856     0.01163  7385.91741   3417.48053  2.06464         3077.04018     16.67734    3e-05  58575.30858  1.32327   0.0909  5510074.57768  45.12508  18.61958  58642.17514     51.3362       44.55671   44.79589  43.96109   54.5    0.15555  -21.93959  0.99745 
   -7.30648  0.00362  1.91913     13.39352  1.42567  1.41783  4.56142  0.29454     0.01022  7489.01985   4272.00736  1.98228         3107.00303     18.86036  0.00403  58575.08352  1.52608   0.0165  7961541.57265  44.95566  18.63143     58642.41    51.32575        44.5386   44.79589  45.42391   55.0    0.15759  -21.94116  0.99955 
   -7.54312  0.00951   2.4462     13.67478  1.92483    0.973   3.9561  0.32766     0.01102  7180.55033   3564.84004  1.84098         3384.38763     18.38851  0.00136  58574.84688  1.21677  0.03762  4782241.47929  45.09662  18.62404     58641.22    51.32988       44.55576    43.6624  44.35935   55.5    0.15467  -21.94287  0.99893 
    -7.4852  0.01044  2.11208     13.64293  1.62458  0.72827  3.96014  0.33597     0.01228  7625.52728   5007.18537  2.00457         3047.20984     18.51844  0.00183   58574.9048  1.37366  0.04134  3484278.14079  45.28805  18.61683  58642.17514    51.32579       44.54419   44.79589  44.74228   55.0    0.15152  -21.95016  0.99887 
   -7.22113  0.00399  2.30043     13.57942  1.75786  1.12313  4.10094  0.31026     0.01256  7592.39441   4514.26838  1.92413         3115.77112     16.17121    1e-05  58575.16887  1.41016  0.01636   5992160.8001  45.01263  18.62658     58641.45    51.32845       44.55632    43.6624  44.35935   54.5    0.15807  -21.94662  0.99953 
   -8.05562  0.00469   1.9794     13.41591  1.46607  1.47246  4.28053  0.30382     0.01217  7719.02693   4621.98562  1.58999         3172.87595     16.53771    2e-05  58574.33438  1.52142  0.02007  7856223.05097  44.94672  18.60586  58642.17514    51.33634       44.55661    43.6624  45.09459   55.0    0.15649   -21.9465  0.99944 
   -7.62488  0.03572  1.95332     13.41887  1.43979  1.14771   4.0304  0.31426     0.01215   7504.4794   4515.77609  1.84795         3175.02357     17.12278    7e-05  58574.76512  1.35399  0.14398  7411737.07671  44.97568  18.63067  58642.17514    51.32087       44.53581   44.79589  44.90002   54.5    0.15439  -21.94731  0.99595 
   -6.80017  0.00527  2.23253     13.58639  1.73929  1.17014  4.56559  0.31369     0.01055  7742.11783   4495.83672  2.00386         3081.82482     17.89421  0.00044  58575.58983  1.63246  0.02405  5407678.94295  45.07861  18.61646  58642.17514    51.33808       44.56078    43.6624  44.38195   53.5    0.16219  -21.95169  0.99934 
   -7.42249  0.00562  2.44947     13.61395  1.88875  1.31439  4.07285   0.3334     0.01277  7629.13217   3340.99814   1.7596         3276.13264     16.42306    1e-05  58574.96751  1.41409  0.02288   6226504.6331  44.97263  18.62978  58642.17514    51.33223        44.5489   44.79589  44.74228   52.5    0.15995  -21.94557  0.99933 
   -6.81916  0.00173  1.94674     13.44032  1.35821  1.15514  4.64136  0.26533     0.01119  7245.41428   4297.98176  2.26641         3042.19603     16.50426    2e-05  58575.57084  1.45345  0.00804  6291619.91716  45.02443  18.61671     58641.45    51.34058       44.56499    43.6624  44.35935   54.5    0.15768  -21.92526  0.99976 
   -7.29181  0.02872  2.37091     13.80158  1.85597  0.58209  4.47752  0.27003     0.01121  7636.84727   3845.62706  1.75384          3145.0566     17.46749  0.00016  58575.09819  1.55773   0.1286   2415775.1296  45.40453  18.62622     58641.33     51.3296       44.54975    43.6624  45.09459   54.5    0.15903  -21.94578  0.99635 
   -7.22246  0.00131  2.48557     13.82178  1.95216  0.67986  5.32692  0.25737     0.01147  8178.45411    3517.4943  1.75929         3011.14186     19.29821  0.01104  58575.16754  2.12542  0.00695  2544632.31315  45.36288  18.62842  58642.17514    51.32213       44.54066   44.79589  44.74228   52.5    0.15937  -21.97006   0.9998 
   -7.33688  0.10253  2.04399        13.58  1.48736  0.82552   3.8509  0.33597     0.01243  7329.40568   5076.69204   1.7539          3265.6867     16.64765    2e-05  58575.05312  1.23403  0.39485  3992070.41391  45.21911   18.6174  58642.17514    51.33183       44.54855   44.79589  44.74228   54.5    0.15553   -21.9285  0.98862 
   -7.07054  0.03201  2.08295     13.46052   1.5619  1.38566  4.02773   0.3248      0.0117  7452.32925   3114.42788   2.1458         3087.69047     17.00113    6e-05  58575.31946  1.33436  0.12892  7547100.85622  44.94736  18.63007     58642.28    51.33386       44.54945   44.79589  44.74228   55.0    0.15071  -21.94363  0.99637 
   -7.42233   0.0354  2.44106     13.73664   1.9401  0.79867  4.34949  0.32882      0.0122  8000.02836   3528.01092  1.70529          3228.1706     18.41645  0.00145  58574.96767  1.66054  0.15397  3610046.76088    45.224  18.61082  58642.17514    51.32633       44.54961   44.79589  43.96109   52.5    0.15364  -21.96786   0.9957 
   -7.25236  0.01266  2.40358     13.72197  1.85047    0.843  4.78056  0.27635      0.0109  7554.66991   5277.04901  1.84902         3147.37049     17.26628   0.0001  58575.13764  1.62756   0.0605  3571641.39601  45.22154  18.62558     58641.45    51.32734       44.54914   44.79589  43.87685   54.5    0.15785  -21.94069  0.99825 
   -7.13386  0.00192  2.29377     13.65834  1.70835  0.86861  4.02536  0.31835     0.01198  7160.49822    3162.2288  2.36667         3065.82678     17.19824    9e-05  58575.25614  1.23117  0.00771  4025460.24234  45.17551  18.62133     58641.45    51.33236       44.55628    43.6624  44.72333   54.5    0.15191  -21.91791  0.99977 
   -7.29649  0.00589  1.82588     13.48945  1.33263  0.82378  4.38656   0.3127      0.0104  7429.48794   4039.29637  1.98001         3139.10144     16.30105    1e-05  58575.09351  1.44434  0.02582  4330823.07267  45.23404   18.6248  58642.17514    51.32643       44.54729   44.79589  43.96109   55.0    0.14998  -21.93835  0.99929 
   -7.72546  0.00164  2.32301     13.90741  1.78231  0.44481  4.82241  0.26494     0.01045  7491.21383   4175.63794  2.00014         3100.23478     17.39301  0.00014  58574.66454  1.61434   0.0079  1368010.76123  45.65164  18.62488  58642.17514    51.32796       44.54459   44.79589  44.74228   55.0    0.15249  -21.93878  0.99977 
   -6.81656   0.0026  2.38791      13.8506  1.83869  0.58615  4.95247  0.27293     0.01127  7888.12048   4834.63709  1.54255         3214.29585     17.39492  0.00014  58575.57344  1.83821  0.01287  1937160.39044  45.49015  18.62425     58641.45    51.32944        44.5521    43.6624  45.01034   52.0    0.16292  -21.94969  0.99963 
    -7.1271  0.00665  2.05324     13.62656   1.5222  0.69132  4.02441  0.32047     0.01172  7440.03215   4299.79442  1.81191          3262.0849     16.75194    3e-05   58575.2629  1.32886  0.02677  3326888.17454   45.3044  18.62421     58642.48    51.32645       44.54236   44.80355  45.41625   54.5     0.1545  -21.93869  0.99924 
   -7.89948  0.00231  2.53205     13.72591  2.00312  0.95677  4.57428  0.29461     0.01251  7836.43703   5314.78588  1.84754         2952.43006     17.09106    7e-05  58574.49052  1.67567  0.01059  4213505.16546  45.13896  18.62113     58641.45    51.31664       44.53281   44.79589  44.90002   54.5    0.15724  -21.93743   0.9997 
   -7.67909   0.0351   2.3912     13.62633  1.88546  0.94563  4.11713  0.29415     0.01193  7529.94948   3715.10681  1.71079         3271.95904     17.37865  0.00013  58574.71091  1.39254   0.1445  5594909.03556  45.03924  18.62656     58641.45    51.32162       44.53742   44.79589  44.90002   56.5    0.15487  -21.95244  0.99591 
   -7.64895  0.13475  2.57916     13.81323  2.07292  0.74991  4.23849  0.31144     0.01014  7171.82884   6544.75768  1.89457         3224.08029     16.43908    2e-05  58574.74105  1.30046  0.57112  3026126.72666  45.28159  18.61493  58642.17514    51.33432       44.55519   44.65705  43.96109   55.0    0.15091  -21.91758   0.9841 
   -7.27496  0.00555  2.08093     13.60941  1.55797  0.84643  4.46289  0.31873     0.01135  7601.75134   3956.61688  1.90927         3121.94162     18.65438  0.00251  58575.11504  1.53841  0.02479   3785058.0736  45.24682  18.63518  58642.17514    51.31327       44.53641     42.696  43.96109   54.5    0.15612  -21.94119   0.9993 
   -7.78497  0.00197  2.38873     13.75007  1.91095  0.71092  4.33957  0.32439     0.01133  7777.75172   3762.12605   1.7514         3250.55875     18.59078  0.00217  58574.60503  1.56597  0.00853  3200840.02815   45.2885  18.61523     58641.45    51.33326       44.54966   44.79589  44.74228   55.0    0.15335  -21.95663  0.99976 
   -7.46703  0.00842   1.9597     13.53453    1.414  0.80955  5.04966  0.25534     0.01074  7795.25402   4006.70604  1.74682         3177.90408     16.18535    1e-05  58574.92297  1.83042   0.0425  4301252.06157  45.20132  18.63222  58642.17514     51.3234       44.54309   44.79589  43.96109   55.0    0.15543  -21.95711  0.99877 
   -7.16656  0.01917  2.40563      13.9009  1.91802  0.50519  4.71101  0.27816     0.01059  7780.08718   3142.28723   1.7787         3092.78286     17.23922   0.0001  58575.22344  1.70102  0.09029  1626728.76474  45.57793  18.61745     58641.41    51.32344       44.54491    43.6624  45.01034   53.0     0.1577  -21.95201  0.99751 
   -7.95933   0.0014  2.07851     13.43484  1.50835  1.48436  4.85039  0.23855     0.01008  7148.15185   5521.69406  1.92012         3170.87012     16.77141    3e-05  58574.43067   1.4784  0.00678   8168395.8259  44.89971  18.62172     58641.45    51.33535       44.55768    43.6624  45.01034   55.0    0.14931  -21.92217   0.9998 
   -7.05655  0.00144  2.62965     13.79225  2.09941  0.77127   4.0463  0.29782     0.01166  7248.00639   5143.02585  2.11379          3110.2478     17.70245  0.00028  58575.33345  1.26801  0.00584  3509132.87033  45.20595  18.62056     58641.45    51.31417       44.53139   44.80355  45.41625   56.5     0.1497   -21.9302  0.99983 
   -7.52029  0.00634  2.34068     13.66939  1.82183  0.97296  4.00452  0.33212     0.01122  7130.12159    5143.2551  1.92608         3183.87546     16.32871    1e-05  58574.86971  1.21443   0.0254  4248422.57226  45.16244  18.62562     58641.45    51.31995       44.54519   43.52355  44.72333   55.0     0.1481     -21.92  0.99929 
    -7.8103  0.03754  2.57321     13.64474  2.03534  1.56671  4.12731  0.31605     0.01146  7295.59236   3580.82152  1.80382         3244.14026     16.00599    1e-05   58574.5797  1.31043  0.15495  6425687.50375  44.94861  18.61631  58642.17514    51.33784       44.55893    43.6624  45.01034   55.0    0.15119  -21.92457  0.99554 
   -7.32993  0.00158  1.98933     13.83186  1.49312  0.38259  4.30824  0.29548     0.01026   7249.2505   4363.61812  2.18025         3063.06933     18.03694   0.0006  58575.06007  1.35056  0.00679  1190167.71647  45.76992  18.61611     58641.45    51.33224       44.54425   44.79589  44.90002   57.0    0.15353  -21.92867  0.99981 
   -7.20454  0.00476  1.71588     13.29753  1.21018  1.49835  4.04019  0.33053     0.01286  7751.97056   3013.92004  1.90174         3042.75069     18.01318  0.00057  58575.18546  1.44828  0.01925  8405735.80226  44.95815  18.60806     58641.41    51.33709       44.55963    43.6624  44.72333   54.5    0.16029  -21.94991  0.99946 
   -7.21629  0.00199  2.44096     13.85342  1.93169  0.61993  3.98192  0.32532     0.01085  7146.17501   3368.04865  1.68286         3384.42619     17.03151    6e-05  58575.17371  1.21302  0.00793  2099062.43435  45.45763  18.62133     58643.26    51.32602        44.5416   45.11756  45.10224   53.0    0.15271  -21.93347  0.99978 
   -7.69443  0.01495  2.53458     13.61535  2.01955  1.38545  4.61282    0.274     0.01005  7351.72102   3754.65128  1.86444         3292.51537     16.19094    1e-05  58574.69557  1.48721  0.06896  7082457.32937   44.9161  18.62661     58641.22     51.3302       44.56297   43.28177  43.23976   55.0    0.15498   -21.9481  0.99803 
   -7.33439  0.00544  2.40468     13.66471  1.89936  0.94392  3.99811  0.30517      0.0113  7200.18872   3276.88754  1.91881         3183.72651     18.52695  0.00187  58575.05561  1.23643  0.02175   4776623.5074  45.10622  18.61816  58642.17514    51.33031       44.55365   44.79589  43.87685   55.0    0.15569  -21.93696  0.99939 
   -7.23422  0.00144  2.27779     13.61352  1.73835  0.99143  4.18935  0.30923     0.01175  7467.64391   4110.30015  1.89135         3157.56057     17.34972  0.00012  58575.15578  1.39361  0.00605  4965147.66586  45.09802  18.62223     58641.45    51.32508       44.55047   43.64709  44.38195   54.5    0.15779  -21.93709  0.99983 
   -7.89075  0.01656  2.36144     13.74429  1.80539  0.73136  4.33403   0.3127     0.01215  7465.34269   3452.44778  1.83144          3196.7909     17.25327   0.0001  58574.49925  1.44085  0.07177   3034946.0646  45.29691  18.61029     58641.45    51.33335       44.55264   44.79589  43.96109   54.0    0.14763  -21.93596  0.99791 
   -6.97782  0.00253  2.23607     13.73397  1.66753  0.68553   3.8112  0.33073     0.01288  7334.11949   3351.29914  1.80836         3210.00247     17.81171  0.00036  58575.41218  1.22288  0.00965  2635807.54394  45.37103  18.62766     58641.45     51.3253       44.55142    43.6624  44.38195   53.0    0.15956  -21.92788  0.99972 
