 texplosion  fnickel     Pspin  log(Bfield)      Mns  thetaPB   mejecta    kappa  kappagamma     vejecta  temperature    alpha  cutoff_wavelength  log(nhhost)      A_V         MJD0  kenergy  mnickel             TSD   log(L0)  Peak_mag     Peak_MJD  log(E_rad)  log(Peak_lum)  Rise_Time     E_fold  tau_1  delta_m15     r_peak     frac 
   -19.2595  0.00903   6.31754     13.59962  1.60618   1.4648   4.86369  0.26693     0.01246  4745.48788   4526.90908  4.58103         4542.25641     21.13932  0.76568   58198.9869  0.65336  0.04394  37623310.73221  43.29809  18.52741  58278.39934    50.35031       43.29544   73.00349   85.72492   63.0    0.11037  -19.77978  0.98679 
  -20.04666  0.00708   8.34361     13.83601  1.96118  0.92284   6.46626  0.27295     0.01314  5568.74489   3880.59387  4.50978         4523.20478     20.47167  0.16459  58198.19974  1.19617  0.04579  26978981.85372  43.28763  18.51676   58279.1954    50.13445       43.06324      80.56   88.40365   58.5    0.11266  -19.24981  0.98137 
  -19.12484  0.01071   7.56495     13.74861  1.82348  0.96684   5.66565  0.23714     0.01535  5353.61446   4059.74327  3.45285         4666.86558     20.83628  0.38108  58199.12156  0.96866   0.0607  30839936.36522  43.28302  18.53594   58278.2053    50.32504       43.25861   75.94645   89.01675   61.0     0.1104  -19.45369  0.97724 
  -19.24119  0.00265   7.17345      13.7293  1.89546  1.31049   6.90648  0.22923     0.01405  5789.33055   4258.71898   4.6225         4391.98982     21.11614  0.72589  58199.00521  1.38083   0.0183   31505621.3315  43.33672  18.52646    58277.326    50.28336       43.21607   73.15046   89.01675   59.0    0.11262  -19.76335  0.99447 
  -20.49891  0.00619   7.78366      13.8446  1.97606  0.64792   5.10717  0.32143     0.01578  5627.83698   3922.54727  4.66615         4553.57516     17.43917  0.00015  58197.74749  0.96492  0.03164  22739731.26934  43.42549  18.52121    58277.326    50.18291       43.07482   81.67007   96.66601   58.0    0.12114  -19.11095  0.98744 
  -18.99805  0.00562   8.95505      13.8488  1.70417  1.39806  10.04346  0.21178     0.01002  5827.89252   4247.43701  3.91134         4620.34931     20.05205  0.06263  58199.24835  2.03486  0.05644  25460957.81954  43.19035  18.52402  58278.39934    50.18069       43.07082   81.38742   96.87097   63.0    0.11295  -19.16354  0.97131 
  -18.49648  0.00494   6.33841     13.92219  1.64414  0.66956   4.88706  0.29801     0.01333  4791.10422   4641.70983  4.82305         4478.85359     21.28259  1.06493  58199.74992  0.66918  0.02414   8776787.23958  43.93749  18.52842   58278.2588    50.30597       43.23241   76.80422   89.26635   61.0    0.10455  -20.06024  0.99353 
  -21.09357  0.00146   6.69048     13.91389  1.69171  0.40963   6.24733  0.30692     0.01352  5809.24022   3688.29303  4.80459         4525.06464     16.74759    3e-05  58197.15283  1.25765  0.00909  10453826.84747  43.82698  18.53885    58278.218    50.16119       43.04746   77.74115    99.5805   59.0    0.11819  -19.12207  0.99662 
  -18.33955  0.00404  10.47466     13.99859  1.90384  1.25305   5.70359   0.3308     0.01521  5184.45356   4223.71578  4.86623         4650.46164     17.86558  0.00041  58199.90685   0.9145  0.02305  19523324.92884  43.21764  18.54624   58279.1954    50.19507       43.10773    79.5239   91.03127   60.0    0.11076   -19.1106  0.98652 
  -20.11569  0.00526   7.97892     13.90984  2.04632  0.76954   6.66271   0.2302     0.01085  5167.61024   4252.75446  4.23006         4578.74007     20.94489  0.48934  58198.13071  1.06135  0.03508  18322677.32236  43.51294  18.54071   58278.2053    50.32535         43.274   72.69565   83.87959   61.0    0.10863  -19.53549  0.98797 
  -20.88615  0.00321   7.30018     13.94276  1.68524  0.57169   7.76098  0.26449      0.0117  5778.29569   4081.73368  4.96962         4421.77713     20.72253  0.29326  58197.36025  1.54576  0.02492  10854668.95128  43.73322  18.54337   58278.2879    50.42953       43.39236   72.02706   81.06111   58.5    0.11236  -19.37166  0.99066 
  -19.74724  0.00104   7.35757      14.1919  1.71404  0.38427   7.83413  0.26713     0.01185   5782.8804   4392.79357  4.91614         4417.06572      20.9933  0.54705  58198.49916  1.56281  0.00819    3560379.1295   44.2179  18.54015  58276.91185     50.3081       43.24139    74.9095   87.25771   60.5    0.11261  -19.61626  0.99717 
  -20.45446  0.00114   8.72262      13.9611  1.93925  0.81253   7.43937  0.23252      0.0106  5264.11657   4221.24286  4.06195         4622.71409     20.68688  0.27015  58197.79194  1.22974  0.00847  16388751.90649  43.46064  18.50536  58278.39934    50.39221       43.38276   72.08798    76.0993   59.0    0.10901  -19.34381  0.99639 
  -18.62731  0.01201   6.67922     13.67011  1.75958  1.52642   4.90523  0.25376     0.01313  4789.27296   4450.25803  3.45896         4665.35755     21.19328  0.86698  58199.61909  0.67116  0.05892  33300349.23613  43.34235  18.52848  58278.39934    50.25941       43.19644   77.64324   87.31996   62.5    0.10525  -19.87798  0.98312 
  -20.29857  0.00112   8.25017     13.74022  1.78841  1.15819   8.18179  0.20879     0.01027  5395.67671   4039.30706   4.0911         4620.71406     18.57327  0.00208  58197.94783  1.42091  0.00919   37391403.5225  43.11562  18.52879  58278.39934    50.12134       43.05468      80.56   87.19918   60.5     0.1086  -19.10577  0.99575 
    -19.226  0.00388   8.22754     13.85528  1.56116  0.83779  11.10822  0.16586     0.01027  5780.85856   3815.51209  4.45002           4597.984     19.69733  0.02767   58199.0204   2.2144  0.04308  19109534.78081   43.3505  18.53125   58279.1954    50.21429       43.13777   76.87318   89.29448   56.0    0.11027  -19.14332  0.97781 
  -18.67892  0.00781   7.11786     13.71312  1.87344  1.19707   5.55203  0.20627     0.01153  4773.28753   4373.80563  4.41319         4575.65518     21.14283   0.7719  58199.56748  0.75459  0.04335  33030680.81053  43.31787  18.54698    58277.326     50.3414       43.29628   71.23425   83.65614   63.5     0.1082  -19.77406  0.98662 
  -20.15535  0.00368   6.50567     13.79607  1.56144   0.6105   5.08355  0.28369     0.01461  5126.53328   4126.34064  4.54745         4575.69154     20.91203  0.45369  58198.09105  0.79697  0.01872  15696110.84577  43.63999  18.52047  58278.39934    50.28283       43.21103   77.79505   88.27552   60.5    0.10807  -19.49464   0.9934 
  -19.01444  0.00525   6.98929     13.76579  1.90437  1.01186   4.61557  0.27052     0.01201  4653.97046   4662.17364  4.80369         4538.67473     21.16775  0.81749  58199.23196  0.59635  0.02423  25400594.33859  43.45489  18.53022   58278.2053    50.32411       43.26711   75.49163   86.03276   63.5     0.1081   -19.8276  0.99303 
  -19.76998  0.01235   7.78495     14.07295  2.12598  0.53779   5.21238  0.24316     0.01261  4839.68736   4212.63594   3.4544         4643.95753     21.16061  0.80415  58198.47642  0.72828  0.06436    8550225.8403  43.88192  18.50555  58278.39934    50.31392       43.27555   73.15046   81.73992   63.5    0.10409  -19.80367  0.98088 
  -19.31626  0.00389   8.09082     13.72256   1.6665  1.42498  10.29142  0.17706     0.01074  5855.89145   4014.18172  4.14471         4565.76033     20.30519  0.11218  58198.93014  2.10518  0.04008  36348100.31493  43.11418  18.53391  58278.39934    50.19097       43.05618   82.74893   103.9751   60.0    0.10959  -19.21687  0.98145 
  -18.78091  0.01414   7.90067     13.81352  1.91555  0.67819   7.26993  0.20406     0.01371  5697.95823   3741.13579  4.01701         4637.17932     16.37622    1e-05  58199.46549  1.40798   0.1028  26205902.96331  43.33741  18.51289   58279.2882    50.13281       43.06423   81.38742   87.57623   60.5    0.11255  -19.11394  0.95656 
  -19.38332  0.00394   6.30373     13.80103  1.48761  0.64483   5.04132  0.24227     0.01357  4775.71568    4402.5179  3.33577         4666.27052     21.09652  0.69383  58198.86308  0.68588  0.01988   13722711.8529   43.7047  18.53083  58278.39934    50.15065       43.05279   77.76402   95.58714   63.0    0.10629   -19.6969  0.99334 
  -19.77611  0.00224   6.96068     13.61997  1.77917  0.93881   7.50552  0.21441     0.01126  5580.29494    3842.8776  3.92734         4618.82923     19.48009  0.01678  58198.47029  1.39419  0.01685   46068365.9749  43.17036  18.52698   58279.1954    50.16078       43.05441   81.08361   97.17478   60.0    0.11025  -19.12787  0.99354 
  -18.30268  0.01251   6.02909     13.62666  1.31483  1.22128   4.24534  0.31403     0.01579  4788.27119   4406.04731  3.79377         4631.52455     21.14357  0.77322  58199.94372  0.58063  0.05313  24766594.59479  43.43335  18.53158  58278.39934    50.37786       43.34853   72.69565    79.3997   59.5    0.10708  -19.80239  0.98194 
  -19.04685  0.00342   7.61155     13.65935  1.59805  1.46022   9.52966  0.18714     0.01127   5809.2008   3935.51963  4.36543         4554.00068     20.32516  0.11746  58199.19955  1.91839  0.03259  41271265.75926  43.09384  18.53227   58277.1968    50.22751       43.15251   73.15046   90.12412   57.5    0.10678  -19.21816  0.98538 
  -20.34849  0.00172     6.139     13.56698   1.7329  1.56046   4.71512  0.26907     0.01348   5064.2312   4300.50186  3.03351         4633.42064     21.15027  0.78524  58197.89791  0.72135  0.00813  44546823.15216  43.28261  18.51442   58279.2882    50.15921       43.05856   78.28762   95.06354   62.5    0.11111  -19.79206  0.99782 
  -18.52862  0.00545   6.59308     13.81528  2.09412  0.89964   3.57859  0.26689     0.01274  4387.03345   4915.19526  2.81411         4664.97755     21.32154  1.16484  58199.71778  0.41085  0.01952  19789624.19731  43.65523  18.51099   58280.3211     50.1529       43.06218    80.4202   92.93096   65.0    0.11117    -20.117   0.9957 
  -19.23248  0.00889  10.01548     13.98253  1.87514  1.19701   7.05912  0.31995     0.01343  5448.29762   4004.56613  4.87769         4603.22168     16.48566    2e-05  58199.01392  1.24997  0.06277  18929498.20299   43.2634  18.54206    58277.326    50.52508       43.50684   69.89966   78.28762   57.0    0.10479  -19.12095  0.96637 
  -20.11118  0.00224   7.97065     13.77914  1.72046  0.85174   5.13927  0.30624     0.01804  5384.99791   3952.22634  4.59848         4596.36168     16.19997    1e-05  58198.13522    0.889  0.01153  28065044.20098  43.25334  18.54102    58277.326     50.3334        43.2717   75.49163   86.67558   60.0    0.10919  -19.10855  0.99459 
  -17.35404  0.05187   6.54693     13.49389  1.53326  1.05399   5.26136  0.29312     0.01424  5460.34786   3908.67647  4.87711         4616.16151     19.89823  0.04395  58200.89236  0.93576  0.27292  62767773.28943  43.02465  18.53234   58278.2053    50.30325       43.26122   72.69565   82.19474   58.5    0.11588  -19.15121  0.89251 
  -18.75919  0.01097    7.7256     14.01739  1.44514  0.47702   8.45383  0.24964      0.0132  6053.00437   3959.83348  4.31215         4561.68748     19.07668  0.00663  58199.48721  1.84766  0.09274   7392910.46175  43.78407  18.50903  58278.39934    50.14315       43.06236   80.52572   90.02945   58.0    0.11115  -19.12744  0.95411 
  -19.87091  0.01154   6.93432      13.6468  1.78401  1.44496    4.6703  0.29734     0.01118  4659.09758   4418.14755  4.91608         4595.34697     21.03796   0.6063  58198.37549  0.60475  0.05387  40514849.91776  43.23062  18.53111   58278.2588    50.28574       43.22293   73.89942    85.4718   61.5      0.111  -19.62089  0.98286 
   -21.1716  0.00407   7.40908     13.99208  1.81563  0.43238   6.17299  0.31464     0.01347  5677.91177   3853.97473  4.25845          4562.8396     17.14757    8e-05   58197.0748  1.18713  0.02514   9598833.43404  43.80612  18.52457   58279.1954    50.16455       43.06548   81.08361   95.06354   58.5    0.11064  -19.14297  0.99028 
  -18.47423  0.00242   6.43148     13.77954  1.93539  1.07497   4.05654   0.2948     0.01244  4557.15156   4746.40291  4.08904         4515.35875     21.33686  1.20667  58199.77217  0.50254   0.0098  20517825.15794  43.62686  18.53415   58279.2882     50.1601       43.09097   81.08361   86.67558   62.0    0.10765  -20.17197  0.99779 
  -18.77973  0.01154   5.83457     13.86341  1.58445  0.62207   4.86838  0.28706     0.01485   5047.4965   4416.26064  4.49633         4459.30946     21.31176   1.1389  58199.46667  0.73988   0.0562      9394864.94  43.96382  18.53482    58277.326    50.22361       43.10795   78.66765   97.47949   61.0    0.10465  -20.11892  0.98623 
  -20.41267  0.00329   5.25913     13.45625   1.3958  0.65273   6.72323  0.18537     0.01084  5075.12511   3767.68483  4.46992         4665.52661     18.71921  0.00291  58197.83373    1.033  0.02212  43849347.95308  43.32988  18.53527  58278.39934    50.26432       43.19408   78.28762   87.78295   63.0    0.10648   -19.0975  0.99179 
  -19.50635  0.00627   7.36669     13.66816  1.71687  1.24824   4.16524  0.31515      0.0135  4692.59406   4260.54956  4.70667         4668.87695     20.80278  0.35279  58198.74005  0.54713  0.02612   39881482.9448  43.16827  18.53753    58277.326    50.49048       43.45734   70.22996    80.7533   59.5    0.11204  -19.41259  0.98986 
   -17.9141  0.02575   5.74308     13.67051   1.5926  1.16111   5.05091  0.23179      0.0104  4563.80543   5301.01427  4.50981         4433.88982     21.35517  1.25864   58200.3323  0.62755  0.13004  22242339.11878  43.60548  18.53077   58278.2053    50.48108       43.47242   70.28549   75.10581   64.5    0.10601  -20.20496  0.97008 
  -19.12369  0.03038   5.70866     13.51143  1.51434  1.37265   3.78802  0.32973     0.01185  4469.27472   4503.33139   4.6814         4620.84968     21.15522  0.79423  58199.12271  0.45135  0.11509   43474823.4419  43.29776  18.52798   58278.3444    50.32946       43.28237   72.95746   82.88234   62.0     0.1072  -19.80647  0.96864 
  -20.26701  0.00238   5.43947     13.59527   1.3369  0.75894   5.60812  0.24771     0.01158  4984.23546   4189.50599  4.86866         4543.60425     21.05013  0.62354  58197.97939  0.83108  0.01336  23685804.05837  43.54934   18.5191    58277.326     50.1952       43.06622   79.66917  102.30714   61.5    0.10847  -19.65376  0.99587 
  -19.69706  0.00172   6.47266     13.71194  1.49242  0.59601   6.94202  0.22611     0.01377  5716.35183    3694.2498  4.76388         4570.37362      18.2473  0.00098  58198.54934  1.35316  0.01191  21877601.28001  43.48057  18.51294   58279.2882    50.14967       43.08672   78.72527   86.23793   58.5    0.11522  -19.11788  0.99502 
   -18.8298  0.02371   6.75248     13.68764  1.76398  1.48475   5.95735  0.21708      0.0101  4672.55892   4575.53246  4.46615         4530.21231     21.21556  0.91261   58199.4166  0.77587  0.14127  31474767.68299  43.35845   18.5308  58278.39934    50.34228       43.28425   73.15046   86.22076   62.5    0.10368  -19.90551  0.96016 
  -19.19685  0.00482   6.62619     13.61644  1.67946  1.21047   5.69104  0.20218     0.01151  4825.28009   4275.33193  3.76219         4646.41947      21.0507  0.62435  58199.04955  0.79043  0.02744  40053533.59516  43.24885  18.53858   58279.1954    50.39716       43.35573   72.69565   82.19474   63.5    0.11034  -19.64495  0.99103 
  -20.78717  0.00296   7.66176     13.69445  1.81681  1.01226   7.64192  0.22342     0.01081  5442.74479   3733.30574  4.39006         4617.82977     18.74662   0.0031  58197.45923  1.35041  0.02258    40447314.177  43.15261   18.5323   58278.2053    50.27542       43.22852   72.95746   82.88234   60.0    0.11292  -19.11764  0.99057 
  -20.33815  0.00447   6.43005     13.49389  1.60667  1.10421   4.80027  0.32232     0.02029  5707.23776   3718.99292  4.31046         4579.06681     17.96987  0.00052  58197.90825  0.93271  0.02143  63444296.33725  43.05595  18.54209   58278.2053    50.26518       43.19677   76.80422   88.15897   60.0    0.11012  -19.11709  0.99162 
  -20.05943  0.00107    7.7612     13.82496  1.85769  1.09501   9.46346  0.22587     0.01067   6019.5304   4114.97258  4.96894         4437.17616     20.90585  0.44727  58198.18697  2.04551  0.01012  23265770.30509  43.39124  18.52927    58277.326    50.28864       43.24175   72.69565   83.14415   58.5    0.11174  -19.51921  0.99641 
  -19.90944  0.01039   7.87223     13.73658  1.52397  1.12142   6.79328   0.2796     0.01234  5398.20991   4285.33076  4.22111         4663.11202     19.88854  0.04298  58198.33696  1.18088  0.07058  29500838.28247  43.18979  18.52652   58278.2053    50.31697       43.25796   75.94645   86.22076   64.5    0.10884  -19.14472  0.96566 
  -17.95694  0.00555  10.56601     14.35296  2.05187  0.51965   8.50467  0.28871     0.01139  5796.93098   4385.96293  4.72879         4582.36147     20.21904    0.092  58200.28946  1.70483  0.04719   4186728.53286   43.9113  18.51097  58278.39934    50.14506       43.06328   77.72973   90.02945   64.5    0.11542  -19.20453  0.97588 
  -19.43835  0.00524   8.73867     13.86787  1.77257  0.93876   7.29565  0.26403     0.01416   5708.5109   4011.26699  4.00673         4642.73342     16.79291    3e-05  58198.80805   1.4182  0.03822   23097515.2384  43.27099  18.52655   58279.2882    50.16346       43.05911   81.38742   96.87097   61.5    0.11132  -19.12186  0.98122 
  -19.84581   0.0038   7.15413     13.77559  1.72604  0.84513   6.51045  0.26422     0.01167  5419.75982    3970.7633  4.72336         4518.60209     20.82993  0.37554  58198.40059  1.14077  0.02477   23056409.7274  43.43399  18.53145  58278.39934    50.30966       43.25176   76.77367   85.39354   58.5    0.11083  -19.44212  0.99116 
  -18.07432   0.0591   6.02722      13.5872  1.49247  1.03637   3.67427  0.30611     0.01491  4610.51424   4443.32098  4.96729         4577.75809     21.14844  0.78193  58200.17208   0.4659  0.21715  33693427.43021  43.35497  18.53402  58278.39934    50.32515       43.25927   73.89942   88.26779   62.0    0.11215  -19.79386  0.93495 
  -18.47336  0.02634   6.25934     13.59974  1.55625  1.17041   4.34133  0.27824     0.01388  4740.02205   4429.68562  4.42365         4591.12751     21.12116  0.73433  58199.77304  0.58185  0.11437  35766310.08909  43.31439  18.52432  58279.91306    50.15218       43.07402   81.52126   89.03392   63.0    0.10872  -19.74991  0.96469 
   -20.3825   0.0056   7.53575      13.9934  1.57143  0.47755   6.94457  0.25079     0.01044   5137.0657   4101.43066  4.52081          4619.0893     20.32235   0.1167   58197.8639  1.09321  0.03891   8542198.91212  43.77932  18.53405  58278.39934    50.26753       43.19031   74.99907   89.96413   58.5    0.11359   -19.2135  0.98268 
  -20.20808  0.00616   7.60935     13.74287  1.60781  0.92178   7.75534  0.25762     0.01262  5809.44797   3929.09766  4.15842         4611.06454     16.33929    1e-05  58198.03832  1.56134  0.04774  28249320.63373  43.26138  18.53251   58276.2465    50.58257        43.5824   67.56353   75.03178   60.0    0.11136  -19.11746  0.97857 
  -17.76756  0.00754    7.4359     13.93087   1.7635  0.82427   7.02476  0.17899      0.0104  4697.35545   4702.79887  4.67986         4548.52714     21.21349  0.90827  58200.47884  0.92462    0.053  12448425.72329  43.67744  18.51858   58279.1954    50.40935        43.3806   72.11351   78.86976   61.0    0.10204  -19.89318  0.98249 
  -18.80238  0.00163   7.85116     13.88745  1.44025  0.99023   8.16244  0.27301     0.01328  5782.34133   4477.94267  3.80384         4579.13653     20.64985  0.24807  58199.44402    1.628  0.01327  13842622.52952   43.4962  18.51735    58277.326    50.16695       43.05839   76.87318   96.47797   65.0    0.10701   -19.3276  0.99352 
  -19.42997   0.0108   6.61243     13.59291  1.46282  1.17634   4.55059  0.27615     0.01663  4955.47727   4232.23686   4.2654         4633.39952     20.90721  0.44868  58198.81643   0.6666  0.04913  38718131.08552   43.2054  18.52893   58279.1954    50.16742       43.05252   81.08361   99.03402   61.5    0.10292   -19.4877   0.9809 
   -20.2579  0.00143   7.87374      13.8987  1.72254  0.61042   7.34798  0.23643     0.01292  5575.91559   3775.20123  4.75181         4576.16576     17.19454    9e-05   58197.9885  1.36279   0.0105  15810673.19527   43.5137  18.52562  58278.39934    50.14026       43.06146   80.52572   90.02945   58.0    0.10945  -19.11706  0.99523 
  -17.85922   0.0626   6.82535     13.75002  1.67252   1.5052   5.17765  0.25347     0.01046  4511.30437   5194.58184  4.13052         4567.10668     21.27607  1.04906  58200.38718  0.62859   0.3241  22876962.93176  43.46457  18.51788  58278.39934    50.16996       43.05929      80.56   97.69838   63.5    0.10615  -20.02002  0.90991 
  -17.81218  0.00149   6.83345     13.96652   1.8312  0.79055   4.63993  0.27677     0.01109  4296.48526   5039.78055  4.47006         4541.86458     21.32931  1.18586  58200.43422  0.51093  0.00691   9263915.84617  43.89551  18.54912   58278.2053    50.19795       43.05125   80.52572  106.80537   61.0    0.10405  -20.14608   0.9982 
   -17.0379  0.02275   6.37411     13.62046  1.33065  1.56213   6.20208  0.18419     0.01051  4473.72572   4635.99745  4.72476         4590.83766     21.15392  0.79186   58201.2085  0.74046  0.14111  28827055.67466  43.32427  18.52479  58278.39934    50.21089       43.11765   78.28762   95.06354   63.0    0.10145  -19.79196  0.94882 
  -20.29936  0.00287   5.77436     13.47482  1.64123  1.22366   5.71732  0.23113     0.01018  4988.98266   4123.60568  4.77279         4506.36767     20.98762  0.53994  58197.94704  0.84887   0.0164  57063368.63882  43.20465  18.53449    58277.326    50.15663       43.06775   79.66917   93.68199   62.0    0.11168  -19.56839  0.99532 
  -17.57941  0.01553   6.10794      13.7057  1.55583  1.47207   5.52806  0.20135     0.01027  4281.13855   4606.15432  4.42261         4557.34652     21.34861  1.23975  58200.66699  0.60439  0.08585  20901235.29598  43.56885  18.53281  58278.39934    50.38375       43.33891   72.11351   82.77688   64.0     0.0987  -20.18772  0.97752 
  -18.72352  0.00315   6.78026     13.78416  1.85812  0.95847    3.6963  0.31537     0.01144  4277.05223   4978.01105  4.33611         4637.00342     21.21456  0.91052  58199.52288  0.40335  0.01164  21431962.29121  43.54436  18.53011   58279.1954     50.1695       43.06928   79.66917   93.68199   62.0    0.10751  -19.90183   0.9968 
  -19.63467  0.01284    6.0181     13.52461  1.52296    1.382   4.81563  0.25049     0.01346  4858.79332    4325.9283  4.22664         4585.94758      21.0954  0.69204  58198.61173  0.67817  0.06185  45730553.10736  43.23241   18.5324   58279.1954    50.15871       43.05221   81.08361   97.17478   62.0    0.10537  -19.70663  0.98095 
  -18.39615  0.01241   6.46216     13.64176  1.53071  1.17486   4.37774  0.30352     0.01293  4755.08992   4643.51318  4.90297         4548.63732     21.07889  0.66621  58199.85025  0.59046  0.05433  30899282.80061  43.34304   18.5333   58279.1954    50.48983       43.47865   71.28544   76.90184   61.5    0.11593  -19.69218    0.982 
  -20.58973  0.00296   5.23224     13.62994  1.19731  0.76102   6.29658  0.26496     0.01117  5144.67853   4212.64074  3.34806         4584.25309     21.10963  0.71508  58197.65667  0.99414  0.01866   16730932.4734  43.68616  18.52367    58277.326    50.33405       43.29668   72.02706   81.06111   61.0    0.10975  -19.73589  0.99426 
   -18.4644  0.00211    7.2333     13.74925  1.41359  1.46749   6.88401  0.29621       0.013  5487.40005   4746.06617  4.77343         4505.19483     20.86667  0.40869    58199.782  1.23652  0.01452  21792441.17825  43.36219  18.52574   58280.2435    50.16206       43.05407   81.52126   97.42187   66.5    0.11067  -19.46801  0.99374 
  -18.09211  0.00126    6.5125      13.8543  1.86656   0.8554   3.77296  0.28403     0.01392  4377.06083   4714.02019  4.23928         4563.58532     21.34472  1.22869  58200.15429   0.4312  0.00474   14379496.0549  43.75465  18.52843   58278.2053    50.19437       43.06255   80.54858  103.98652   64.0    0.10476  -20.18342  0.99885 
    -18.775  0.00862   6.88181     13.95772  1.69618  0.54459   5.29512  0.23682     0.01494  4986.93557   4192.99783  4.27535         4538.30677     21.14999  0.78473   58199.4714  0.78554  0.04563    9062426.5173  43.86567   18.5394    58277.326    50.29422       43.23139   72.95746   86.41376   62.5    0.10566  -19.78811  0.98532 
  -20.19294  0.00167   7.36343     13.81987  1.61402  0.64057   4.71972  0.27769     0.01372  4797.35697   3945.57164  4.59592         4673.42222     20.38567  0.13502  58198.05346  0.64796  0.00789  18626765.75709  43.47246  18.52844  58278.39934    50.36433       43.34002   72.69565   78.28762   59.5    0.11204  -19.21189   0.9965 
  -20.38266  0.00157   6.75807     13.59504  1.40033   0.9649   4.97864   0.3187     0.02016  5535.08681   3801.64255  4.71893         4579.78281     16.87528    4e-05  58197.86374  0.90989  0.00783  38335857.30551  43.17183  18.50126   58279.1954    50.21368        43.1259   79.66917     90.886   60.0    0.10828  -19.10846  0.99637 
  -19.46409  0.00668   6.95521      13.6507  1.77279   1.3484   4.82227  0.26281     0.01215   4817.1588   4318.09469  4.05271         4632.52211     21.03008  0.59539  58198.78231  0.66751   0.0322  39782435.88632  43.23319  18.51924  58278.39934    50.11814       43.06583   78.28762   83.87959   60.0    0.11048  -19.62821  0.98949 
  -19.32234  0.03595   6.32319     14.03114  1.64686  0.48965   4.99623  0.32444     0.01462  5055.40642   4544.66657  4.60915         4368.58156     21.28126  1.06167  58198.92406   0.7617  0.17964   5297425.10065  44.15956   18.5336   58279.2882    50.44414       43.41166   72.69565    79.3997   62.0    0.10075  -20.04009  0.95379 
  -18.25926  0.01322   9.80065     14.00494  1.76924  0.99464   7.36315  0.30993     0.01534  5945.36791   4237.54853  4.88644         4557.76772     18.85585  0.00399  58199.98714  1.55256  0.09734  15425537.17412  43.34588  18.52748   58277.1968     50.2941        43.2363    74.9095    86.6149   64.5    0.11511  -19.12326   0.9468 
  -18.33893  0.00186    4.8651     13.55678    1.545  1.50992   3.31555  0.31365     0.01063  3952.48643   5706.55217   4.5934         4473.75739     21.44111  1.53404  58199.90747  0.30898  0.00618  26143348.55226  43.66623  18.52199   58279.1954    50.18329       43.10131   78.28762   89.47157   65.0    0.10576  -20.45139  0.99891 
  -18.64355  0.00147   7.47323     13.77798  1.72465  1.50882   7.73448  0.20726     0.01081  5318.44041   4699.29322  3.31837         4606.68554       21.062  0.64081  58199.60285  1.30505   0.0114  24864180.06727  43.36295  18.52398   58279.1954    50.17794       43.05955   78.28762   99.03402   62.5    0.11051  -19.69463  0.99598 
  -22.01003  0.00155   5.63942     13.59454   1.7374  0.59038   6.83344  0.26057     0.01029  5511.00905   3795.97001  4.97317         4512.96156      18.2232  0.00093  58196.23637  1.23802   0.0106  33197534.59967  43.48517  18.54688  58278.39934    50.33141       43.27096   75.49163   86.67558   61.0    0.11572   -19.1042  0.99672 
   -19.6722  0.00343    9.5577     13.88289  1.95395  1.49132   7.29927  0.28976     0.01275  5641.57497   4040.30227  4.35014         4597.01757     18.41108  0.00143   58198.5742  1.38582  0.02506  28421595.53037   43.1454  18.52454   58279.2882    50.18049       43.06515   81.08361   99.03402   60.0    0.11051   -19.1255  0.98765 
  -17.66817  0.02981   8.68496      13.8457  1.89115  0.76225   7.58475   0.2045     0.01256  5644.64676   3965.61123  4.45827         4603.75684      17.6372  0.00024  58200.57823  1.44159  0.22612  26956776.37526  43.23737  18.51003   58278.2053    50.33826       43.30813   72.02706   78.95621   58.5    0.10786  -19.10567  0.89596 
  -19.87417  0.00683    6.8471     13.59916  1.42914  0.96614    4.8911  0.31479     0.01954  5492.66345   3781.65239  4.19718         4637.15774     16.10386    1e-05  58198.37223  0.88024  0.03342  39407970.28885  43.15732   18.5254  58279.91306    50.18906       43.10068   78.72527    91.8299   60.5    0.11066  -19.10942  0.98456 
  -17.97419  0.00593   6.57915     13.84418   1.5709   0.8134   5.11783  0.28657     0.01483  5079.99384   4815.22069  4.09816         4532.11123     21.20903  0.89899  58200.27221  0.78784  0.03037  12940483.77176   43.7167   18.5349  58276.91185    50.37387       43.31596   73.08147   86.28975   63.0    0.10613  -19.89639  0.99058 
  -18.40321  0.00609   7.56682     13.97146  1.72563  0.50034   3.98565  0.27484     0.01647  4729.87841   4146.80206  4.52478         4683.00211     20.83796  0.38255  58199.84319   0.5319  0.02427  10463098.71355  43.72831  18.54037   58276.2851    50.48526       43.46037   67.48588    80.7014   62.0    0.11107  -19.43305  0.99005 
  -19.04902   0.0159   7.13735     13.62975  1.68404  0.97735   6.32669  0.27138     0.01272  5554.16185   3855.01028   4.4779         4619.06254     17.29678  0.00011  58199.19738  1.16424  0.10057  43826178.94268  43.14639  18.51425   58280.2613     50.1171       43.05669   78.72527   86.23793   58.0     0.1111   -19.1219  0.95934 
  -19.14211  0.00105   8.91766     13.97893  1.77576  0.70312   8.29816   0.2156     0.01329  5601.28878   3886.23245  4.56421          4627.8292     16.23006    1e-05  58199.10429  1.55305  0.00869  14449194.15834  43.45788  18.52712   58279.2882    50.15723       43.05245   81.38742   96.87097   59.0    0.10496  -19.12658  0.99552 
  -17.64145  0.00247   5.42884     13.77898  1.44632  0.77288   5.47376  0.20281     0.01085   4343.6709   5118.14724  4.83429          4483.0419     21.39056  1.36547  58200.60495  0.61607  0.01354  10953098.71928  43.92016  18.52132  58278.39934    50.15932       43.06171   76.87318   93.68199   63.5    0.10117  -20.29535  0.99681 
  -19.61745  0.00534   7.09437     13.81334  1.82126   0.8208   3.99748  0.31341     0.01671  4862.73793   4415.96369  4.37977         4575.34201     21.10663  0.71016  58198.62895  0.56387  0.02136  20106278.54112  43.52406   18.5194   58279.1954    50.14329       43.07272   78.72527    87.4424   61.5    0.10932   -19.7182  0.99317 
  -19.09129  0.03177    7.5411      13.8745  1.88716  0.83662   4.35719  0.32333     0.01204  4640.11351   4628.68098  4.77619         4592.63163      21.0953  0.69187  58199.15511  0.55962  0.13845  17761719.00123   43.5403  18.54413   58278.2053    50.28539       43.22657   75.94645   86.22076   61.5    0.11101  -19.70751  0.95574 
  -19.96571  0.00233   8.94704     13.95563  2.03473  0.74655   5.54721  0.33741     0.01503  5616.11889   4154.72896  4.64802         4577.40964     16.02235    1e-05  58198.28069   1.0437  0.01294  18553442.59927  43.40557  18.49469   58279.1954    50.17411       43.07387   81.08361   95.06354   63.0    0.11807  -19.12741  0.99425 
   -19.2021  0.01986   6.60062     13.66214  1.60463  0.99006   4.93104  0.27525     0.01257  4884.60667   4185.49081  4.17719         4612.10291     21.00109  0.55695   58199.0443  0.70182  0.09792   30767342.4689  43.34696  18.52491   58277.1968      50.482       43.46359   69.31577   78.87151   61.0    0.11014  -19.59174  0.96732 
  -20.29601  0.01008   8.11312     13.81576  1.88641  0.81773   5.74085  0.32421     0.01655  5813.11928    3783.9271  4.40088         4548.97417     16.96833    5e-05  58197.95039  1.15724  0.05788  26934127.09318   43.2958  18.53874   58278.2053    50.36848         43.313   74.87158   84.49964   58.5    0.11253   -19.1152  0.97547 
  -19.52452  0.00749   6.96891     13.79653   1.7878  0.82692   3.89303  0.32469     0.01543  4746.41221   4456.94513  4.28261         4589.39859     21.09255  0.68751  58198.72188  0.52317  0.02916  20578421.16403  43.52142  18.52291   58278.2879    50.47134       43.43786   72.02706   80.06829   61.5    0.10677  -19.70725  0.99077 
   -19.6919  0.00508   7.62886       13.921  1.89052  0.66861   6.72823  0.23625      0.0131  5554.67984   4033.31466  3.49212         4601.16753     20.91882  0.46083   58198.5545  1.23836  0.03418  14699800.05476   43.6132  18.52438   58278.2053    50.36111       43.31169   72.11351   84.46173   58.5    0.11281    -19.524  0.98801 
  -18.78318  0.00471   7.48599     13.83806  1.83692  0.95661   5.08287  0.20289      0.0102  4194.28989   4712.97599  4.05304         4694.97772     21.16457  0.81152  58199.46322   0.5334  0.02392  20150192.39324  43.48016  18.53868    58277.326     50.3518       43.29246   72.11351    86.6149   63.5    0.10237  -19.79489  0.99198 
  -18.44458  0.01014   6.82948     13.77321  1.42658  0.53954   7.82471  0.17467     0.01295  5548.31735   3671.95092    4.818         4587.22367     17.92106  0.00046  58199.80182  1.43687  0.07935  17557954.67952  43.50989  18.53294  58278.39934    50.19102       43.10781   79.66917     90.886   61.0    0.10614  -19.09774  0.96271 
  -20.15034  0.00171   7.90875     13.77929  1.58139  1.01235    7.4294  0.27755     0.01198  5643.55757   4051.14617  3.69762         4679.36896     18.05864  0.00064  58198.09606  1.41152  0.01267  25380202.12549  43.26717  18.51754   58278.2503    50.26369        43.1793   74.84725   91.32041   60.5    0.11175  -19.12098  0.99394 
  -19.69201  0.00711   6.23885     13.58263  1.59954  1.20998   4.67565  0.27669     0.01344  4863.47942    4390.7771  4.81378         4553.12096     21.08404  0.67417  58198.55439  0.65973  0.03323  39513985.72074  43.28588  18.51802   58278.2053    50.36395       43.30361   73.89942    85.4718   61.5    0.10596  -19.69143  0.98975 
  -18.50121  0.02113   7.17967     13.66476  1.71388  1.22844   5.71605  0.23353     0.01425  5361.32246   4166.94305  3.31525         4691.50856     20.95676  0.50291  58199.74519  0.98009   0.1208  38414252.15772  43.20612  18.52595   58277.1968    50.15874       43.05666   79.46307   93.88809   59.5    0.11202  -19.55224  0.95708 
  -21.74632  0.00118   5.77137     13.49738  1.40344  0.87375   6.65615  0.25559     0.01148  5475.68206   3732.86018  4.85283         4575.76393      20.0406    0.061  58196.50008  1.19049  0.00786  43935367.96882  43.25067  18.53014  58278.39934    50.13475       43.08019   76.87318   85.29403   59.5    0.11031  -19.16867   0.9971 
  -21.34904  0.00169   6.93263      13.9134  1.78727  0.44625   7.61851  0.26635     0.01181  5968.83942   3691.34037  4.91945         4483.94987       16.969    5e-05  58196.89736  1.61911   0.0129  11885239.90772  43.76423    18.513  58278.39934    50.43385       43.40913   72.11351   78.86976   59.0    0.11715  -19.11765  0.99529 
  -20.20342  0.00341   6.72117     13.76764  1.64071  0.77343   5.36571   0.2805     0.01629  5452.35059   4043.29974  3.94268         4516.85566     20.98609  0.53805  58198.04298  0.95153  0.01828  20065967.68819  43.52653  18.51757  58278.39934    50.17482       43.06735      80.56   97.69838   61.0    0.11002  -19.58386   0.9938 
  -21.13311   0.0026   7.97225     13.83069  1.86757  0.83722   5.88708  0.28397     0.01291  5212.61108   3873.28299  4.97906         4500.39893     20.55926  0.20136  58197.11329   0.9542   0.0153  24036754.02451  43.35608  18.52078   58279.1954    50.09551       43.04325   77.76402   84.40319   60.5    0.10766  -19.26613   0.9938 
  -18.66174  0.01404   7.74995     13.71303  1.69134  1.20738    6.4797  0.25063     0.01404  5523.63836   3940.15108  4.56998         4568.34814     20.68802  0.27086  58199.58466  1.17932  0.09097  35365614.41566   43.1699  18.53086  58278.39934    50.27666       43.20619   77.64324   88.42733   58.0    0.11294  -19.34472  0.96208 
  -18.05023  0.04207   7.18885     13.82048  1.71548  0.81866   3.88014   0.3248     0.01805  4956.46849   4651.73353  4.05679         4559.91684     21.10234  0.70318  58200.19617  0.56862  0.16324  18817328.95943  43.51535  18.52717   58279.1954    50.23085       43.15773   79.66917   88.09001   63.0    0.10667   -19.7121  0.94536 
  -18.31196   0.0017   6.14232     13.77746  1.53167  0.85367   3.92043  0.32869     0.01907  4867.22266   4481.37147  4.73849         4448.76145      21.2731   1.0419  58199.93444  0.55402  0.00666  14953149.86961  43.70261  18.50626  58278.39934    50.29158       43.24609   78.28762   81.08361   63.0    0.10441  -20.01061  0.99809 
  -19.61507  0.00117   6.18471     13.54941  1.62766  1.27241   4.47245  0.27298     0.01324  4869.15724    4361.5802  4.83233         4549.19155     21.05498  0.63053  58198.63133  0.63253  0.00525  46047431.40153  43.23457  18.52871   58278.2879    50.19945       43.13564   78.28762   86.67558   62.5     0.1154  -19.64786  0.99839 
  -17.81242   0.0051   6.31312     13.74122  1.50042  1.55946   5.17571   0.3066     0.01194  4691.77898   5309.62926  4.83804         4502.88328     21.25094  0.99008  58200.43398  0.67963  0.02642   18284035.1855   43.5825  18.51925   58279.1954    50.39047       43.34129   72.69565   83.87959   63.0    0.10686  -19.99913  0.99225 
  -19.45009  0.00895   8.23234     13.95993  1.95471  0.72579   5.73738  0.26256     0.01302  5120.18239   4171.99627  4.22869           4607.484     20.92336  0.46568  58198.79631  0.89725  0.05135  14793778.86684   43.5588  18.53129   58279.1954    50.14334       43.05308      80.56   92.79115   58.5    0.10859  -19.51601  0.98071 
  -19.45175  0.01373   8.33868     13.78096  1.55666  1.13106   9.01374  0.22393     0.01002  5585.88687   4208.36555  4.45331         4611.14074     17.69948  0.00028  58198.79465  1.67771  0.12377  27559790.37685  43.17857  18.51989   58279.1954    50.15233        43.0716   78.59143   89.16775   64.5    0.11347   -19.1078  0.93735 
  -20.03011   0.0028   7.56079     13.69466  1.45112  1.46183   6.48015  0.32306      0.0157  5733.96637    4067.2717  4.72583         4500.16473     20.24717  0.09815  58198.21629  1.27093  0.01813  31429518.03146  43.17608  18.54023  58278.39934    50.26887       43.18804   77.79505    91.1686   60.0    0.10723  -19.19158  0.99129 
   -19.9931  0.02324   5.22489     13.45745  1.47477  0.71519   6.30025  0.24803     0.01176  5563.90542   3828.91544  4.25561         4557.95291     20.49032  0.17181   58198.2533  1.16344  0.14642  45476579.64882  43.34363  18.53174   58279.2882    50.23348       43.14795   76.66708   91.09211   59.5    0.11211  -19.25381  0.95436 
   -19.8758  0.00614   7.72675     13.91881  1.91475    0.686   7.63445  0.22184     0.01098  5564.22963   4090.91063  3.76751         4568.02355     20.88658  0.42787   58198.3706  1.40999  0.04688  15427454.85578  43.58667  18.53739  58278.39934    50.18108       43.03928   79.66917  107.66192   58.5    0.11353   -19.4805  0.98348 
  -17.70441   0.0062   6.38924     13.74768  1.86426  1.08526   4.56762  0.22807     0.01231  4478.79968   4845.27006  4.77995         4472.58241     21.34255  1.22259  58200.54199  0.54656  0.02834  22587465.44517  43.57459  18.53813  58276.91185    50.48955       43.47795   69.26322   76.12807   66.0    0.10618  -20.17349  0.99328 
  -19.37424  0.00865   8.53658     13.83086  1.94088  0.80669    7.1484  0.20132     0.01381  5468.22533   3645.46215  3.81913         4705.82315     16.10264    1e-05  58198.87216  1.27505  0.06186  28620065.11951  43.23761  18.52071   58279.2882    50.16008       43.05955   81.52126   94.62589   60.0    0.10919   -19.1072  0.97148 
  -19.61934   0.0015   8.55545     13.75037  1.71582  1.56721   8.82064  0.20112     0.01142  5701.31074   4040.51484   3.1213         4753.19913     17.65431  0.00025  58198.62706  1.71032  0.01323  36815059.62976  43.07281  18.53584   58278.2053    50.41097       43.39608   71.10466   77.08262   60.5    0.11243  -19.11217  0.99335 
  -20.86543  0.00353   6.37702      13.6212  1.52448  0.75528   5.14968  0.32539     0.01558     5467.84   3909.78973  4.92263         4573.88884     19.14718   0.0078  58197.38097  0.91842  0.01818  32944008.12665  43.32495  18.52995   58278.2053    50.45344       43.44545   70.28549   75.10581   60.5    0.11106   -19.1253  0.99284 
  -21.67365  0.00219   5.16857     13.55803  1.54101  0.49981   7.87657  0.19585     0.01032  5571.16547   3563.47795  4.65829          4553.1885     17.82043  0.00037  58196.57275  1.45833  0.01722  29262381.32782   43.5636  18.53449   58278.3444    50.33316       43.29402   72.69565   82.19474   61.0    0.11413  -19.08976  0.99435 
   -19.4027  0.00678   7.69021     13.67362  1.84264  1.19273   5.32095  0.23175     0.01285  4850.65635   4096.12851  3.43801         4772.78427     20.63235  0.23827   58198.8437  0.74682  0.03607  45488510.64518  43.10451  18.54087   58277.2272    50.29838       43.21565   75.78252   91.97667   62.5    0.10695  -19.31503   0.9855 
  -19.97681   0.0011   6.60212     13.57831  1.41273  1.02443    9.6695  0.19091     0.01013   6004.5306   4031.77072  4.65767         4492.05196     19.25599  0.01002  58198.26959  2.07965  0.01063  39867245.72742  43.17892  18.53622    58277.326    50.47745       43.46239   69.89966   75.49163   61.5    0.11771  -19.11539  0.99539 
  -18.69369  0.00459   6.79685     13.84143  1.65955  0.81868   4.80041  0.24567     0.01311   4467.4789   4455.72432   4.2361         4619.35905     21.21103  0.90314  58199.55271  0.57152  0.02203  14776164.80989  43.65466  18.52847   58277.1968    50.36934       43.33943   70.28549   80.69778   62.5    0.10315  -19.89391  0.99309 
  -20.56119  0.01943   8.07445     13.71253  2.00103  1.10749   4.86079  0.33324     0.01452  5184.49925   3903.77102  4.57695         4603.36517      20.1241  0.07393  58197.68521  0.77938  0.09443  45524332.07776  43.09763  18.53622    58277.326    50.33593       43.26808    74.9095   87.25771   60.5    0.10824  -19.16845  0.96251 
  -19.81411  0.00689   7.22253     13.64671  1.50983  0.96324   4.84346  0.31701     0.01981  5454.23788   3754.16995  4.11533         4642.98671     16.07494    1e-05  58198.43229  0.85951  0.03336  37213888.72779  43.15969  18.52545    58277.326    50.29904       43.25719   72.69565   82.19474   60.0    0.10705   -19.1039  0.98432 
  -17.48444  0.00256   6.58714     13.89967  1.75581  0.98328    5.5035   0.2338     0.01043  4241.84711   4956.27494  4.76253         4521.22088     21.36474  1.28666  58200.76196  0.59071  0.01409  11229102.46059  43.82558  18.53016  58278.39934    50.33791       43.29233   75.87177   82.73812   62.5    0.09828  -20.23279  0.99644 
  -17.66642  0.00861   6.78922     13.68543  1.49469  1.45075   6.34688  0.18079     0.01027   4542.8731   4534.01849  4.29517         4642.81364      21.1487  0.78239  58200.57998  0.78136  0.05462  27236488.66101   43.3446  18.52851  58278.39934    50.21835       43.18358   75.76518   80.04872   61.5     0.1054  -19.79472  0.98043 
  -20.01427  0.00334   8.50453     14.06457  1.94038  0.45976   8.05291  0.20679     0.01134  5421.57062   3853.54102  4.80484         4593.44463     17.18584    9e-05  58198.23213  1.41198  0.02693   9679748.90993  43.71157  18.53174   58277.1968    50.48415       43.46252   69.31577   78.87151   59.0     0.1045  -19.11092  0.98789 
  -20.47904  0.00125   6.15147     13.62903  1.64753  0.63312   7.75453   0.1971     0.01222  5805.98276   3609.63878  4.21097         4594.48143     17.54827   0.0002  58197.76736  1.55932  0.00967  31955026.81869  43.40318   18.5385  58278.39934     50.3646       43.30307   73.15046   86.22076   61.0     0.1164  -19.11165  0.99644 
  -18.40386  0.01805   6.88022     13.66703  1.67481  1.09304   3.92058  0.30579     0.01684  4906.14899   4560.32549  4.45682          4583.9452     21.03081  0.59639  58199.84254  0.56294  0.07077  34114096.16685  43.28467  18.53576   58278.2053    50.16119       43.07337   78.28762   92.26755   63.5    0.11372  -19.61809  0.97571 
  -19.06485  0.00427   6.46015     13.70961  1.56911  1.46309   5.54194  0.29136      0.0111  4828.61375   4781.21305  4.72207         4487.58933     21.20253  0.88563  58199.18155  0.77079  0.02369  23160011.08841  43.47928  18.52898   58279.1954      50.165       43.05543   81.38742   97.55571   61.0    0.11164  -19.88562  0.99294 
  -18.24201  0.02878   6.48706     13.50545  1.65483  1.01161   5.24985  0.29273     0.01558  5701.48457   3682.28159  4.88284         4597.10125     19.14985  0.00784  58200.00439  1.01801  0.15107   63060781.4586  43.06374  18.54015   58278.2053    50.25921        43.1818   76.80422   90.95496   57.5    0.12116   -19.1261  0.94287 
   -20.0686  0.00101    7.1639     13.61496  1.59546  1.45094   5.97224   0.2661     0.01485  5418.73113   3990.35257  4.38719         4619.66917     20.56821  0.20556   58198.1778  1.04607  0.00604  44780276.47992  43.11035   18.5263    58277.326    50.21117       43.14471   76.69541   88.26779   60.5    0.10789  -19.31578  0.99752 
  -18.35019  0.00266   7.13694     13.80159  1.84158  1.40168   5.12227  0.25334     0.01147  4469.03795   4716.55151  4.51608         4573.39693      21.2573  1.00467  58199.89621  0.61026  0.01363  21719153.43878  43.49017  18.52914   58278.3444    50.17804       43.13958   75.87166   80.70358   62.5    0.10571  -19.99812  0.99606 
  -18.26254  0.02709    7.5985     13.73058  1.75917  1.07109   4.63633    0.287     0.01797  5207.17705   4116.63382  4.95616          4548.7431     20.91844  0.46043  58199.98386  0.74991  0.12559  32615758.79564  43.23927  18.52256   58279.2882    50.15611       43.06601   81.52126    91.8299   60.5    0.11029  -19.50642  0.95228 
   -18.4393  0.00152   6.13959     13.74003  1.68057  1.45078   5.35016  0.26205     0.01079  4618.02758    4893.0598   3.9053         4505.50505     21.34399  1.22663   58199.8071  0.68062  0.00812  19475672.92693  43.62853  18.52262    58277.326    50.34531       43.29798   71.28544   83.60495   61.0    0.10858  -20.18464  0.99805 
  -19.02873  0.00203   7.44977     13.87931  1.84388  0.83974   4.14765  0.30745     0.01445  4598.28147   4682.93588  4.62699         4573.40441     21.12459  0.74015  58199.21767  0.52314  0.00844  16566218.34582  43.57107  18.52995   58278.2053    50.31432       43.24543   75.94645   89.01675   63.0    0.10346  -19.75471  0.99721 
  -20.36358  0.00691   7.03988     13.59868  2.09833  0.97082   6.37934  0.24225     0.01381   5809.9335   3783.09523  3.54747         4655.71073     16.42998    1e-05  58197.88282  1.28453  0.04409  61299650.93069  43.10813  18.52165  58278.39934    50.17394       43.06074   81.08361   97.85952   59.5    0.11616  -19.12005  0.98474 
   -18.4398  0.00608   9.52919     14.25924  1.94904  0.44924  11.75606  0.21441     0.01033  6472.98981   4003.86707  4.81319         4457.47664     19.21802  0.00918   58199.8066  2.93832  0.07142   4980405.68431  43.90329  18.53168   58279.1954    50.39274       43.34733   72.69565   83.11826   62.0    0.11756  -19.13984  0.96611 
  -19.35162   0.0044   6.88467     13.68308  1.78667  1.30167   6.19847  0.21391     0.01011  4794.66194   4345.70744  4.70177         4540.31373     21.12381  0.73883  58198.89478  0.85002  0.02726  33842527.21382  43.31566  18.53715    58277.326    50.31624       43.24557   72.69565   89.47157   63.0    0.10869  -19.75338  0.99164 
  -18.91666  0.00358   6.53891      13.8695  1.65918  0.71665   4.68844  0.28596     0.01395   4722.4297   4538.91836  4.46401         4532.70668     21.22999  0.94344  58199.32974  0.62372  0.01679  12014755.20825  43.77801  18.52124   58279.1954    50.16301       43.05751   81.08361   95.06354   62.5    0.10207  -19.92695  0.99511 
  -19.00406  0.00107   8.15321     13.89155  1.93982  0.94909   4.09698   0.3054     0.01368  4498.02701   4726.28241  4.94324         4598.01524     21.03871  0.60735  58199.24234  0.49446  0.00439  19730051.75894  43.43882  18.52258   58279.1954    50.19229        43.0636   81.40195  103.13315   63.5    0.11098  -19.63087  0.99838 
  -19.55852  0.00352   7.99613     13.91177  2.09846  0.74294    6.6464  0.21587     0.01002  5107.32875   4378.50736  4.65222         4548.67612       20.941  0.48498  58198.68788  1.03419  0.02339  18704205.11231  43.51305  18.51809   58279.1954    50.27319       43.21272   79.46307   85.50013   61.5     0.1112  -19.51956  0.99202 
  -19.00331  0.01362   7.16389     13.77518  1.72138  0.95023   3.98316  0.33333     0.01465  4753.22946   4233.39745  4.56362         4582.76727     21.04891  0.62178  58199.24309  0.53683  0.05424  23100857.16067   43.4308  18.52825   58279.1954    50.13489       43.06393   80.52572   87.23347   60.0    0.11108  -19.64907  0.98141 
  -19.80358  0.00273   6.61051     13.65071  1.74376  1.20735   4.82802  0.29583       0.012  4851.10342   4544.67372  4.65866         4589.27674     21.07746  0.66403  58198.44282  0.67776  0.01319  35347770.91722   43.3215   18.5135  58278.39934    50.12629        43.0902   77.72973   80.99867   61.0    0.10817  -19.69162  0.99603 
  -19.00998  0.01238   8.11837     13.84478  1.80291  0.76922   5.78134   0.3159     0.01465  5699.82767   4176.97596  4.24128         4611.69111     17.69776  0.00028  58199.23642  1.12042   0.0716  22550592.90161  43.35272  18.51668  58279.91306    50.14865       43.06481   81.52126    91.8299   64.5     0.1163  -19.12613  0.96868 
  -19.50571  0.00466   7.83912      13.8806  1.69193  0.60786   7.47575  0.20154     0.01212  5322.38841   3821.69703  4.93071         4581.42127      19.7529  0.03145  58198.74069  1.26327  0.03486  16731239.85809  43.48516  18.52555  58278.39934    50.24382       43.17374   78.56116   87.50941   59.5    0.10692  -19.13605  0.98383 
  -19.59149  0.00514   6.40285     13.74621   1.5865   0.7824   5.27814  0.27013     0.01129  4797.10539   4444.75784  4.86562         4558.52182      21.0698  0.65242  58198.65491  0.72455  0.02715  19435115.02157  43.56795  18.52522   58277.1968    50.34506        43.2932   71.28544    85.2898   60.5    0.10858  -19.67594  0.99138 
  -19.36395  0.00874   7.21836     13.72581  1.82804  1.13437   6.66113  0.19824     0.01082  5002.45402   4232.31241  4.21269         4571.46836     21.07227  0.65614  58198.88245  0.99435  0.05823  31264729.54217   43.3189   18.5288   58278.2053    50.33822       43.28183   72.69565   86.03276   61.0    0.10893  -19.67855    0.981 
  -20.01112  0.01524   7.15558      13.6202  1.43582  1.36155   7.72033  0.28795     0.01175  5771.83309   3934.63223  4.42074          4541.3524     19.69764  0.02769  58198.23528  1.53423  0.11762  39246791.99546  43.12285  18.52185   58279.1954    50.15888       43.08412   79.66917   89.29448   57.5    0.11515  -19.13945  0.94818 
  -18.26005   0.0101   7.95459     13.71747  1.67595  1.36695   5.34981  0.24341     0.01671   5009.5053   4188.54746  4.71706         4631.41804     20.79147  0.34372  58199.98635  0.80086  0.05401  36171465.24833  43.13351   18.5398  58278.39934    50.37596       43.33838   72.69565   81.08361   61.5    0.10302  -19.40364  0.97603 
  -18.10171  0.01126   7.20477     13.99575  1.80402  0.69039   5.50689  0.26209     0.01265  4930.54107   4802.07845   4.2056         4531.20609     21.23663  0.95799  58200.14469  0.79859  0.06203   8867293.86213  43.86206  18.52615   58278.2053    50.39299       43.36958   72.02706   77.40704   61.0    0.10781   -19.9527  0.98154 
