 texplosion  fnickel    Pspin  log(Bfield)      Mns  thetaPB   mejecta    kappa  kappagamma      vejecta  temperature    alpha  cutoff_wavelength  log(nhhost)      A_V         MJD0   kenergy  mnickel           TSD   log(L0)  Peak_mag     Peak_MJD  log(E_rad)  log(Peak_lum)  Rise_Time     E_fold  tau_1  delta_m15     r_peak     frac 
 -115.69674   0.0026  0.81702     14.17943  1.91621  0.72703  60.67136  0.08234     0.01522    4925.4466   9696.74034  0.95625         4555.84186     17.36143  0.00013  57570.83026   8.78015  0.15794   51983.88141  48.01096  18.95532  57670.85136    51.44987       44.37707   46.73144  105.14574  112.0    0.03197  -20.16525  0.99955 
  -30.63539  0.05449  1.58188      14.5256   1.5972  0.40374  24.10711   0.0999     0.10154   5126.70437   9971.43043  4.80101         3587.95317     20.05532   0.0631  57655.89161   3.77963  1.31352   32986.03766  47.55553  19.41085  57708.98714    51.24606       44.23009    37.9693   87.62145   69.0    0.06671  -21.32367  0.98123 
   -88.6855  0.00271  1.13776      14.0343  1.93131  1.32924  40.86077  0.12593     0.03491   5538.38003     9421.926  1.58468         2027.53439     18.05768  0.00063   57597.8415   7.47651  0.11077  198234.00845  47.14542  19.20486  57693.73282     51.4067       44.38093   46.73144   88.59076  101.0    0.03522  -20.53818  0.99937 
  -41.97923  0.04202  0.80013     14.38115  1.63578  0.64771  61.44582  0.06934     0.32454   8857.44527   9756.51018  0.54697         5546.31444     18.37888  0.00133  57644.54777  28.75653  2.58193   16809.79979  48.45069  19.17994  57708.98714    51.25726       44.25224   35.04858   87.62145   52.5    0.07142  -21.62717  0.99313 
  -71.47487  0.02855   1.3224     14.38732  1.85968  0.53884  31.82986  0.17221     0.05597   6178.16519   8719.21923  2.35204         3641.48973     17.90819  0.00045  57615.05213   7.24738  0.90859   50739.15042  47.59021  19.29893   57697.5464    51.54503       44.44058   67.17645  105.14574   92.0     0.0409  -20.90529   0.9927 
  -77.94781  0.00104  1.05627     14.18061  1.79652  0.77122  78.83869   0.0537     0.03124   6228.56407   8096.40798  0.63021         2360.25913     16.66268    3e-05  57608.57919  18.24494  0.08172   81016.39962  47.56716  19.28452  57705.17356    51.41282       44.39978   40.89001   88.59076   70.5    0.06233  -20.91354  0.99956 
  -66.22026  0.02365  1.04028     14.19332   1.8543  0.98348  36.04981  0.16503     0.27583   8135.85672   8911.76395  1.52896         3740.78226       16.737    3e-05  57620.30674  14.23432  0.85255   76500.34817  47.61906  19.39086  57708.98714    51.11588       44.09347   35.04858   90.54217   78.0     0.0523  -21.21057  0.99592 
  -43.05371  0.02657  2.16574     14.26118  1.93365  0.92568  23.81597  0.15363     0.12316    6467.5418   9140.36227  3.83466          3597.7601     18.32953  0.00119  57643.47329   5.94256  0.63284  252952.22251  46.48097  19.24877  57708.98714     51.2104       44.23474   40.89001   75.93859   70.0    0.06686  -21.32842  0.98695 
  -61.96113  0.00927  1.22438      14.1109  1.81497   1.0843  31.68025  0.12718     0.07693   5647.97602   9313.49251  2.04327         2383.94883       18.187  0.00085  57624.56587   6.02839  0.29374  151602.56618  47.17118  19.26835  57712.80071    51.33191       44.34555   46.73144   78.85931   64.5    0.04979  -21.18629  0.99789 
  -93.16539  0.00151  1.22393     13.87965  1.67848  1.12754  49.25753    0.063     0.01052   4429.38007    9545.1529  0.33514         2828.75805     20.33065  0.11895  57593.36161   5.76482  0.07415  406393.27256   46.7093  19.22306  57716.61429    51.24197       44.27648    37.9693   75.93859   77.0    0.06291  -20.94644  0.99939 
  -57.54157  0.01321  0.93909     14.20828  1.73801  0.86186  93.82765  0.04411     0.03488   6436.39007    8748.2867  3.30622         2404.34315     19.16704  0.00816  57628.98543   23.1869  1.23977   54539.94963  47.82677  19.40864  57701.35998    51.32624       44.27204   46.73144    96.3836   65.0    0.04872  -21.39463  0.99482 
  -83.40376  0.02072  0.73909     14.34185  1.73148  0.49526  46.13516  0.05704     0.01775   3976.06287   9517.94543  0.97052         4605.51703     19.41765  0.01453  57603.12324   4.35077  0.95581   18194.27778  48.50993  19.34188  57705.17356    51.21044       44.16285   40.89001    96.3836   75.5    0.05199   -20.7573  0.99758 
  -93.92725  0.00359  0.96006     14.09385  1.60399  0.69306  54.72768  0.13172     0.04199   7785.15272   8509.51469  0.13264         3640.13282     16.83026    4e-05  57592.59975  19.78648  0.19631   89107.72297  47.55954  19.19357  57705.17356    51.23031       44.29477   29.20715   73.01788  102.5    0.03575  -20.55679  0.99895 
  -69.29329  0.00302   1.4853     14.01829  1.66884  1.05584  27.40704  0.20313     0.10646   7239.79833   9097.36476  4.08761         2559.41065     17.45091  0.00016  57617.23371   8.56924  0.08282  314249.19585  46.65036  19.37971  57708.98714    51.17015       44.16083   35.04858   87.62145   80.5    0.04816  -21.15215  0.99899 
  -47.76412  0.09952  1.20033     14.13161  1.46537    0.812  18.86939  0.18418      0.2062   7346.85566   8487.81528  1.76435         2415.56429     17.68008  0.00027  57638.76288   6.07558  1.87793  106942.18943  47.24704  19.35656  57708.98714    51.12211       44.15831   29.20715   78.85931   60.5    0.07175  -21.38588  0.98248 
  -63.23033  0.02393  1.73963     14.09192  1.60033  0.78564    9.5309  0.31586     0.10652   4729.87622   9264.51068  1.68881         3173.34838     19.09082  0.00685  57623.29667   1.27192   0.2281  294509.63757  46.52304  19.27832  57712.80071    51.20552       44.24083   29.20715   78.85931   70.0    0.05241  -21.09772  0.99592 
  -52.49916  0.00523  1.87799      14.1183  1.80882  0.84475  38.20478  0.05817      0.0256   5141.47049   9605.68329  0.86515         3847.32177     20.22506  0.09328  57634.02784   6.02448  0.19988  343556.67879  46.44285  19.20219   57697.5464    51.27157       44.24456   52.57287   87.62145   62.0    0.06949  -21.38517  0.99653 
  -62.71403  0.01694  1.34768     13.82918  1.36135  1.48476  19.61834   0.1222     0.04491   5006.13231   9477.98144  0.72411         4128.79069     17.43662  0.00015  57623.81297   2.93288  0.33237  504186.04873  46.44105  19.24483  57720.42787    51.22095       44.24992   32.12787   78.85931   62.5    0.06771  -21.30351  0.99547 
  -54.49836  0.00628  1.04151       13.898  1.70782   1.5217  53.30532  0.05865      0.0434   5421.31083   9521.26448  0.72623         2681.74302     20.84761  0.39114  57632.02864   9.34558  0.33471  275152.48697  47.02639  19.25126  57712.80071    51.14951       44.20202   43.81073   67.17645   63.5    0.05222  -21.60359  0.99807 
  -70.78286  0.00215  1.21481      13.9612  1.55031  0.85207  21.21457  0.12403      0.0307   4806.46257   8840.44164  1.97786         2196.26412     20.33849  0.12112  57615.74414   2.92356  0.04565  254007.02074   46.8854  19.38515  57716.61429    51.16301       44.14143    37.9693   90.54217   70.0    0.05285  -21.19735  0.99958 
  -59.70348  0.01588   1.0581      14.0753  1.61614   0.9497  36.74113  0.13045     0.07035   7096.19204   9031.98241  0.05322         5460.52162     19.00894  0.00567  57626.82352  11.03648  0.58363  118778.86702  47.35353  19.09484  57686.10567    51.25472       44.22331   43.81073   90.54217   58.5    0.06111  -21.44573  0.99631 
  -71.26339  0.00435  1.20861      14.0521  1.71877  1.01975  57.33755  0.06889      0.0351   6061.82075   8773.68335  0.12014         3263.06725     18.06314  0.00064  57615.26361  12.56818  0.24925  183400.84484  47.07609   19.1613   57697.5464    51.29459       44.23891   43.81073   99.30431   65.0    0.06223  -21.08104  0.99809 
  -47.83466   0.0013  1.57559     13.88592  1.32013  1.28952  11.04232  0.29855     0.09785   5193.20552   9592.83951   4.3866         3444.63101     16.29327    1e-05  57638.69234   1.77647   0.0143  514604.88948   46.2831  19.22584  57705.17356    51.10823       44.12612   35.04858   78.85931   73.0    0.05803  -21.28427  0.99972 
  -76.73881  0.11609  0.86436     14.27161  1.87385  0.72314    12.776  0.29563     0.12481   5450.16812   9627.25719   1.5336         2559.70922     16.90021    4e-05  57609.78819   2.26382  1.48313   37214.31658  48.09748  19.08895   57697.5464    51.27184       44.24296   43.81073   90.54217   84.5    0.06977  -20.77523  0.99537 
  -38.66901  0.03859  1.35209     14.41962  1.59182  0.44302  45.43128  0.06227     0.09635   5801.43636   8897.88667   2.6263         3413.14752     20.54707  0.19579  57647.85799   9.12123  1.75335   39127.03668  47.61625  19.25006  57705.17356    51.39898       44.31702   49.65216  105.14574   69.0    0.06696  -21.41439   0.9816 
  -43.08834  0.04648  0.99544     14.32624  1.97648  1.08489  55.45739  0.07945     0.20833   8823.84424   8695.56062  0.67356         3300.26393     17.52342  0.00019  57643.43866  25.75741  2.57778   40482.30294  47.96144  19.31727  57705.17356    51.21768         44.199    37.9693   90.54217   57.5    0.07754  -21.47027  0.99133 
  -58.60537  0.02041  0.98532     14.24298  2.14793  1.43687  81.06941  0.03969     0.03394   5719.31269   8418.35416  4.87183         2499.12089     19.51218  0.01807  57627.92163  15.81874   1.6546   63245.16764  47.81268  19.25371  57708.98714    51.13074       44.16366   32.12787   78.85931   70.5    0.04793  -21.43162  0.99478 
  -56.43674   0.0353  0.77558     14.06822  1.59933  1.42305  56.68824  0.09825     0.14977   8153.23863   9749.81848  0.73791         2646.43183     17.06846    7e-05  57630.09026  22.47918  2.00106   65248.00687  47.87896  19.39906  57716.61429     51.3447       44.27884   43.81073  102.22503   63.0    0.07079  -21.48071   0.9941 
 -115.36488  0.03903  0.95473     14.19265  1.94239  0.72451   39.8022   0.1216      0.0206   4822.01936   9630.89235  0.76201         3935.40485     17.53631  0.00019  57571.16212   5.52067  1.55342   67703.17767  47.76681  19.33401  57705.17356    51.38062       44.31772   49.65216   99.30431  113.5    0.03036  -20.20565  0.99397 
  -87.08124  0.00568  0.82717     14.24664  1.71743  0.59476  29.84852   0.1672     0.04773    4537.4253   8253.81575  2.17757         2724.03147     17.19109    9e-05  57599.44576    3.6658  0.16965   35042.66505  48.12394  19.28635  57708.98714    51.26016       44.30239    37.9693   75.93859  103.0     0.0285  -20.43282  0.99942 
  -48.90652   0.0631  0.76636     14.23416  1.51111  0.70285  38.47674   0.1193     0.33478   9615.14737    8934.6921  0.01396         5852.19729     19.48298  0.01689  57637.62048  21.21961  2.42774   28032.69972  48.23161  19.24737  57693.73282    51.23281       44.17594   46.73144    96.3836   51.0    0.08905   -21.6497  0.99245 
  -55.06114  0.00848  1.56021     13.99226  1.62726  1.15285  16.76455  0.23403     0.17649   8701.43893   9046.72846  0.71836         2010.25947     16.53715    2e-05  57631.46586   7.57184  0.14224   381163.0766  46.51283  19.22782  57705.17356    51.17513       44.19844   35.04858   78.85931   50.0    0.08445   -21.5939  0.99801 
  -51.78235  0.03258  1.27474     13.96183  1.40208  1.34085  18.26698  0.15963     0.12181   5384.48351   9820.86763  1.96207         3437.61222     17.83479  0.00038  57634.74465   3.15924  0.59515  252221.86224  46.80299  19.33296  57720.42787    51.29793       44.27832   46.73144   84.70074   63.5    0.06304  -21.26911  0.99316 
  -68.07553  0.02323  1.16262     14.06876  1.46944   0.7524  26.17528  0.10672     0.03378   4646.85577   9358.95353   2.6847         2874.67444     17.62487  0.00023  57618.45147   3.37161  0.60817  134377.62912  47.17679  19.39151  57724.24145    51.20813       44.26612   35.04858   70.09716   69.5     0.0537  -21.05213  0.99456 
  -40.75113  0.08128   1.3079     14.21948   1.5362  0.88207  23.19707  0.13698     0.29759   7022.21452   9030.31314  2.55875         3464.86478     18.95509  0.00501  57645.77587   6.82352  1.88542   88806.79433   47.2737  19.16618  57701.35998    51.20874       44.21897   38.29198   81.45734   63.5    0.07581  -21.35169  0.98096 
  -39.14415  0.04105  1.01768     14.32242   1.6538   0.7755  38.07859  0.07672     0.14226   5089.77067   9730.14199  3.21159         3669.34249     18.37734  0.00132  57647.38285   5.88443  1.56312   36031.59189  47.91543  19.35666  57708.98714    51.33574        44.2925   43.81073   93.46288   72.0     0.0508  -21.28748  0.99223 
  -64.71845  0.00543  1.29633     14.25587  1.93554  0.60471  25.49532  0.14332     0.05467   5491.27555   9566.44566  2.63498         2734.03695      20.6768  0.26395  57621.80855     4.586  0.13846   92963.71202   47.3619  19.26998  57701.35998    51.43578       44.43178   40.89001   84.70074   69.0    0.04904  -21.41138  0.99897 
  -71.43914  0.02539  0.90357     14.17091  1.90007  1.13365   57.4957  0.07296     0.05077   5923.76355   8239.68236  0.41739         4711.90529     18.31556  0.00115  57615.08786  12.03533  1.45966   65567.36154    47.819  19.37206  57708.98714     51.4156       44.39903   43.81073   87.62145   75.0    0.05798  -20.93583  0.99517 
  -68.33999   0.0078  1.44558      14.1761   2.0093   1.1456  25.51316  0.16895     0.07342   4728.81491   9661.37752  2.95879         3232.49619     18.65744  0.00252  57618.18701   3.40327  0.19908   173278.7798  47.01306  19.18869   57697.5464    51.39887         44.364   43.81073   93.46288   79.0     0.0452  -20.85537  0.99828 
  -49.42182  0.02753  1.05699     14.66425  1.79162   0.3217    62.619  0.08055     0.06541   6725.86926   9137.83503  1.68754         3853.43051     16.55093    2e-05  57637.10518   16.8978  1.72396    8723.62702  48.53325  19.34647  57712.80071    51.26446       44.28493   32.12787   81.78002   73.0    0.05733  -21.35378  0.99142 
    -36.262  0.02038  0.78734     14.33096  1.67627  0.86139  97.39747  0.03911     0.07956   6733.22036   9583.90214  2.76698         3772.85939     19.68415  0.02685    57650.265  26.34029  1.98495   21017.26135  48.37829  19.27693    57686.527    51.32421       44.20627   55.49359  113.90789   66.5    0.07667  -21.38167  0.99557 
   -57.6192  0.00792   1.6673     13.91046  1.54343  1.35125  14.47557  0.22172     0.12073   6372.46811   8642.47159  4.31069         2517.96771     19.89081  0.04321   57628.9078   3.50653  0.11465  601747.20003  46.23389  19.32715  57705.17356    51.32371       44.31273    37.9693   87.62145   65.0    0.05958  -21.43722  0.99801 
  -65.10144  0.01605  1.31767     14.62723  2.03083   0.3764  93.56261  0.03151     0.01327   4497.61036   9338.85516  1.90574         3611.75762      18.6921  0.00273  57621.42556  11.28998  1.50167   18223.66892  48.07627  19.27652  57705.17356    51.29089       44.29481   40.89001   81.78002   75.0    0.05198  -20.99499  0.98975 
  -52.99631  0.02569  1.62161     14.17658  1.72527  0.86104  20.00699  0.23176     0.13647   7138.13109   8425.47477   2.4793         3437.76805      16.1087    1e-05  57633.53069   6.08104  0.51388  186814.24253   46.8144  19.39825  57720.42787    51.23695       44.25274   35.04858   81.78002   71.0    0.06135  -21.39803  0.99294 
  -83.31297  0.00572  0.78821     14.06409   1.7648  1.20078  61.85471  0.08984     0.02739   5315.70932   8637.77713  1.16662         2257.20554     18.52337  0.00185  57603.21403  10.42611  0.35392   75789.89809  47.84265  19.23746  57708.98714    51.32038       44.34156   35.04858   81.78002  106.0    0.03195  -20.41465  0.99899 
  -58.96488  0.01746  1.01333     14.06548  1.61919  1.22893  65.30064  0.08188     0.04089    6620.1118   9094.68007  0.73461         3317.63643     17.80249  0.00035  57627.56212  17.07164  1.14018   114194.4734    47.409  19.36954  57716.61429    51.14213       44.15166   35.04858   81.78002   68.5    0.05286  -21.29461  0.99361 
  -49.07765  0.02879  1.80705     14.20896   2.0881  1.56689  35.80596  0.06894     0.03744   4656.97724   8655.41064  2.17565         3677.31535     18.85063  0.00394  57637.44935   4.63224    1.031  241875.19207  46.69107  19.09311  57678.47851    51.46374       44.38521   55.49359  102.22503   71.0    0.05918  -21.27304  0.98694 
     -87.71  0.00123  0.94568     14.26899  1.75823   0.5697  73.56818  0.07582      0.0293   6189.36668   9018.12666  2.94992         2826.02605     18.04378  0.00061    57598.817  16.81162  0.09086   42306.49256  47.93602   19.2158  57701.35998    51.18388       44.18268   43.81073   81.78002   98.5    0.03558  -20.53025   0.9996 
  -57.51939  0.00331  1.35071     14.13414  1.73465  0.97882  22.21036  0.22727     0.10444   7065.72198   8923.83011  4.74961         3334.03184     19.50175  0.01764  57629.00761   6.61448  0.07362  158444.87678  47.04706  19.15888  57701.35998    51.35255       44.37177   49.65216   75.93859   73.5    0.05535  -21.52871  0.99931 
  -84.24004  0.01281  0.85358     14.39374  1.57107  0.33748  30.63759   0.1481     0.04125   5790.32773     8911.488  0.03128         4007.79723     18.44351  0.00154  57602.28696   6.12757  0.39249   17338.89854  48.36353  19.36389  57716.61429    51.28422       44.25979   46.73144   87.62145   94.0    0.04049  -20.74598  0.99833 
  -43.39638  0.00198  1.91726     13.94434  1.46761  1.06477  14.32343  0.16679     0.13632   6435.55602   7892.35629  3.88352         2168.37557     17.63272  0.00024  57643.13062   3.53872  0.02843  647298.52778  46.05899  19.26194  57693.73282    51.49716        44.4058   55.49359  105.14574   61.5     0.0778  -21.30675  0.99929 
   -90.6137  0.01049  1.03328     14.28333  1.92086  0.61973  51.61176  0.09103     0.02745   5784.75043   9049.38614  2.25268         2791.38638     16.98847    5e-05   57595.9133  10.30256  0.54162   51651.29224  47.81083  19.34557  57724.24145    51.28077       44.29764   32.12787   81.78002   98.0    0.03915   -20.5869  0.99749 
  -59.71681  0.02904  1.41308     14.28421  1.60783  0.48416  13.47032  0.27363     0.15092   6685.40364   8494.67737  0.43473         2108.51332     17.66918  0.00026  57626.81019   3.59137  0.39118   80532.63773  47.26878  19.31668  57712.80071     51.3749       44.38782   40.89001   81.78002   60.0    0.06878  -21.38713  0.99544 
  -65.40059  0.01974  1.11296     14.02986  1.63374  1.17784  60.69702  0.06958     0.03812   6293.85613   9474.89494  0.17951          5031.5245     16.36713    1e-05  57621.12641  14.34261    1.198  163769.32878  47.17483   19.3819  57712.80071    51.27838       44.24725   46.73144   90.54217   64.5    0.06566   -21.1803  0.99176 
  -83.98334   0.0034  0.85054     14.10953  1.58825  0.67419  55.81395  0.04171     0.01472    3686.6859   9013.18854  2.84338          2008.0803     19.14004  0.00767  57602.54366   4.52525  0.18969   64424.90405  47.80132  19.20767    57686.527    51.29385       44.24791   49.65216   93.46288   72.5    0.04868  -20.66125  0.99921 
  -81.19523  0.01088  0.79981     14.18618   1.6871  0.67551  54.59757  0.07135     0.02832   5320.35144   7845.63603  0.12608         2727.18508      19.2058  0.00892  57605.33177   9.21894  0.59394   42518.32937  48.06144  19.34259  57705.17356    51.30955       44.28168   52.57287   84.70074   78.0      0.055   -20.7843  0.99808 
  -51.03024  0.01059  1.97265     13.96568  1.52764  1.08935  16.37572   0.1398     0.04559    5314.6265   9986.60247  1.93793         3759.00303     18.03374   0.0006  57635.49676   2.75914  0.17349  646497.84883   46.0522  19.16973  57705.17356    51.26399       44.27891   43.81073   79.07476   62.0    0.06879  -21.39789  0.99571 
  -76.76395  0.00351  0.97103     14.23428  2.01059  0.86876  71.69617   0.0851     0.03643   6380.13018    8289.1258  4.07281         2349.43865     17.76867  0.00033  57609.76305  17.40934  0.25136   59846.07008  47.82067  19.29574   57697.5464    51.21978       44.16103   52.57287   93.46288   96.5    0.03033  -20.73916  0.99907 
  -65.24142  0.08745  0.85395     14.11557   1.7754  1.30824   16.8702  0.30254     0.45178   6923.30588   8635.61697  0.25064         3546.99312     16.25177    1e-05  57621.28558   4.82363  1.47538   70604.26484  47.80645  19.15614  57708.98714    51.26399       44.24887   43.81073   87.62145   70.5    0.06091  -21.07419  0.99527 
   -44.4136  0.06175  1.26905     14.12315   1.7431  1.33847  22.38778  0.15797     0.20244   6960.02491   8153.27936  3.13281         2174.71381     16.27249    1e-05   57642.1134   6.46934  1.38251  147838.71309  47.13342  19.18325  57708.98714    51.29036        44.3389   35.04858   73.01788   62.0    0.06048  -21.33061  0.98894 
  -79.71707  0.00255  1.44189     13.91049  1.46455  0.80926  19.17993  0.19476     0.03706   6119.58205   9046.21717   0.0192         2787.35203     16.49941    2e-05  57606.80993   4.28467  0.04899  426979.30387  46.48628    19.346  57708.98714    51.30673       44.25379   46.73144    96.3836   67.5    0.06347  -21.21456  0.99931 
  -74.99207  0.00117  1.57803     13.97219  1.61563  1.14373  12.66816    0.274     0.06727   4681.08647   8838.90295  2.84809         3628.58187      17.0493    6e-05  57611.53493    1.6559  0.01488  424631.59278  46.45294  19.34612  57705.17356    51.16873       44.14051   46.73144   87.62145   82.0    0.05291  -21.00232  0.99978 
  -66.19929  0.00139  1.13431     14.02752  1.62532  1.04785  52.65288  0.09389     0.04808   6446.07272   9083.42521  4.55022         2044.78382     19.00867  0.00567  57620.32771  13.05088  0.07313  171072.39753  47.13714  19.21618  57701.35998    51.37635       44.39624   35.04858   81.78002   67.0    0.05333  -21.13976  0.99946 
  -53.27037  0.03374   1.3602     14.17041  1.64419  0.90954  43.78252  0.08156     0.06633   5786.00588   9167.05798  1.60497         3806.98026     18.95408    0.005  57633.25663   8.74351  1.47729  128871.72072  47.10743  19.25487  57716.61429    51.26582       44.28948   43.81073   75.93859   69.0    0.06075  -21.30572  0.98501 
  -59.28544  0.00777  1.92894     13.98296  1.69637   1.2532  37.31357  0.06626     0.02132   4927.74274   8722.33674  1.12017         3311.64108     17.52634  0.00019  57627.24156   5.40493  0.28989  633955.00142  46.12567  19.35587  57708.98714    51.36427       44.34978   49.65216   84.70074   68.5    0.06069  -21.22917  0.99415 
   -36.2418  0.06951  2.05255     14.15882   1.8486  1.16818  11.34226  0.24291     0.32055   8186.07625   9222.22024  1.20359         4240.06032     17.92682  0.00047   57650.2852   4.53397  0.78835  348024.25227  46.36949  19.19234  57693.73282    51.42882       44.38517   52.57287   90.54217   52.5    0.10546  -21.60053  0.98442 
   -57.6962  0.02556  1.87627     14.20258   1.9093  0.80887  18.75731  0.23105     0.08537   6518.86086   9411.11524   2.5199          2692.8173      18.8301  0.00376   57628.8308    4.7549  0.47944   245540.9477    46.613  19.30312  57701.35998    51.24271       44.20722   52.57287   84.70074   65.0    0.05326  -21.32968  0.99238 
  -56.80408  0.01366  1.24021     14.26552  1.79346  0.75338  85.59404  0.04149     0.03242   5340.14101   9379.76856  4.04843         2257.09234     17.75161  0.00031  57629.72292  14.56049  1.16923   75415.43772  47.45809  19.37605  57712.80071    51.16912       44.16426   40.89001   84.70074   65.5    0.05103  -21.16838  0.99139 
  -46.95822  0.02384  0.86487     14.23486  2.01643  1.29519  75.26191   0.0526     0.05613   5831.39523   8357.57239  3.54444         2708.07377     20.26363  0.10194  57639.56878  15.26678  1.79424   47487.91618  48.02294  19.19927  57701.35998    51.20836       44.24778   35.04858   75.93859   74.0    0.05313  -21.38408  0.99556 
   -49.1679  0.02376  1.13434     14.38055  1.77925  0.55617  28.19668  0.22929     0.42357    8907.4863    9280.6906  0.89802            3438.27     18.89718  0.00438   57637.3591  13.34552  0.66991   36850.28593  47.84316  19.34823  57724.24145    51.18942       44.22657   35.04858   75.93859   66.5    0.06807  -21.47602  0.99587 
   -43.2124  0.04428  1.26215     14.12734  1.71887  1.25594  23.79877  0.22802     0.25074   9362.84185   8961.67858  2.26456          3247.2361     16.97309    5e-05   57643.3146  12.44506  1.05378   141447.7463  47.15127  19.22923  57705.17356    51.21179       44.22772   40.89001   78.85931   61.5    0.07931  -21.54358  0.99146 
  -44.04045  0.06453  1.25763     14.05843  1.45642  1.08792  18.67205  0.29445     0.46457   9006.28018   8995.39961  4.81869         3011.11627     18.08445  0.00067  57642.48655   9.03462  1.20489  163440.20981  47.01967  19.36654  57716.61429    51.14009       44.16358   43.81073   75.93859   65.0    0.06889  -21.45135  0.98747 
  -41.68205  0.07106  0.78725     14.37053  1.55769  0.60156  25.36876  0.17978     0.36291   6902.27506   8488.25822  3.94837          3098.0194     16.92002    5e-05  57644.84495    7.2096  1.80267   16273.04715  48.45763  19.34877  57720.42787    51.20727         44.246   43.81073   70.09716   73.0    0.06223  -21.31868  0.99484 
  -59.21407  0.03387  1.30526     14.32943  1.85461  0.62597  29.35792  0.18309     0.18219   8533.54801   8912.83285  0.11707         3872.27214     17.52002  0.00018  57627.31293  12.75298  0.99435   64357.54589  47.49711  19.28849  57712.80071    51.27809        44.3151    37.9693   73.01788   58.5    0.07135  -21.50638   0.9922 
  -49.04498   0.0333  0.82091     14.27172  1.93371  1.34947  76.18267  0.03869     0.11177   5516.32298    9008.7148  0.93522         3610.24736      16.0056    1e-05  57637.48202  13.82874  2.53693   34623.28985  48.18728  19.39201  57716.61429    51.24539       44.26891   32.12787   79.07476   65.0    0.06668  -21.25311  0.99485 
  -45.86194  0.06776  1.49649     14.46796  1.78586  0.41052  19.66868  0.16858     0.20801   7024.47895   9111.41745  3.82224         2677.55464     20.40496  0.14115  57640.66506   5.78936   1.3327   43041.72977  47.53665  19.25604  57712.80071    51.26515       44.26049   40.89001   84.70074   61.0    0.06148  -21.52645  0.98537 
  -82.09693  0.00531  1.28431     13.98947  1.62428  1.05077  15.24428  0.23289     0.05077     4479.332    9026.6412  3.95258         3132.99999     19.77564  0.03314  57604.43007   1.82457  0.08094   261141.1002  46.84529   19.2928  57720.42787     51.3002       44.29335   40.89001   87.62145   82.5    0.05031  -20.82248  0.99923 
  -39.34339  0.07287  0.92759     14.26119   1.8947  1.32874  25.91602  0.28588     0.44044  10812.45424   8728.34382  4.20824          2464.7854     18.49472  0.00174  57647.18361  18.07357  1.88852   45466.72833  47.95398  19.29789  57712.80071    51.33562       44.33129   43.81073   84.70074   67.5    0.06147   -21.4592   0.9943 
  -72.17522  0.00303  1.17079      14.2686  1.81696  0.68667   49.0679  0.10672     0.07602   6731.27712   8654.41599   4.4759         3233.07048     16.14843    1e-05  57614.35178  13.26232   0.1486   67131.78415   47.5643  19.33429  57708.98714    51.11761       44.10338   46.73144   84.70074   80.5    0.05478  -21.00041  0.99903 
  -74.60969   0.0398     0.81     14.11686   1.4969   0.7519   25.0951  0.30506     0.21653   8771.71704   9229.73005  0.94031         3811.20893     19.49379  0.01732  57611.91731  11.51822  0.99891   53242.82089  47.90081  19.24328  57701.35998     51.3684       44.35972   40.89001   87.62145   97.5    0.03628  -20.75533  0.99604 
  -37.38612  0.08023  1.28536     14.22253  1.66499  1.18343  25.15292  0.09011     0.13429   4551.49336   8798.71908  4.36938         3714.18907     16.42765    1e-05  57649.14088    3.1083  2.01807   91669.39493  47.30998  19.42514  57716.61429     51.2176       44.24323   40.89001   75.93859   75.0     0.0608  -21.31314  0.98309 
  -66.15331  0.02517  1.13237     14.00808  1.60245  1.21662  29.06457  0.21937     0.14707   8732.36781   8921.44216  2.15002         3384.05161     16.44553    2e-05  57620.37369  13.22072  0.73146  183831.72457  47.10123  19.27059  57716.61429    51.22981       44.25948   35.04858   75.93859   78.5     0.0496  -21.33031   0.9946 
  -88.76801  0.01064  0.91622     14.13542  2.03702  1.04136  68.00411  0.10303     0.03205   6841.58444   9555.54259  0.10623         2254.16171      19.9829  0.05341  57597.75899  18.98785  0.72366   85109.56651  47.72386  19.18415  57701.35998    51.32072       44.34968   35.04858   78.85931  107.0    0.03213  -20.42937  0.99764 
  -55.40165  0.01881  0.99766     14.17218  1.80777  1.28711  79.10659  0.05935     0.05065   6773.60472   8933.94493  1.92062         3277.91384     18.04069  0.00061  57631.12535  21.65108  1.48809   75607.11071  47.64946  19.27903  57716.61429    51.27865       44.26124    37.9693   87.62145   68.5    0.05553  -21.38345  0.99355 
  -33.55372  0.05953  0.89631     14.33801  1.69917  0.89787   31.1387   0.0867     0.45258   5291.63116    9949.9028  3.04571         3753.52928     17.30544  0.00011  57652.97328   5.20124  1.85376   26726.79874  48.16721  19.13245  57678.47851    51.43167       44.34396   49.65216  108.06646   66.5    0.05911  -21.32456  0.99424 
   -77.5741  0.00857  0.77124      14.0447  1.79999  1.41992  28.93084  0.19198      0.0716   5618.28682   8931.43185  0.62419         2042.60187     19.27289  0.01041   57608.9529   5.44748  0.24783   80919.87635  47.84168  19.41202  57701.35998    51.32464       44.23305   46.73144  108.06646  101.5    0.03282  -20.61372  0.99935 
  -96.69681  0.00889  1.09242     14.28196   1.7737  0.49333  46.81322  0.08549     0.01497   4488.25667   9174.39809  0.28742         5267.17026     17.03051    6e-05  57589.83019   5.62537  0.41622    53647.9159  47.71139  19.13344  57716.61429    51.31457       44.36343   32.12787   75.93859  101.0     0.0364  -20.54324  0.99752 
    -54.268  0.03516  1.61373     14.44121    2.044  0.57553  39.16758  0.06535     0.04545   5465.02197    9153.5778  2.15094         2862.63332     17.12577    7e-05    57632.259   6.97811   1.3773   64795.72396  47.35212  19.13982  57712.80071    51.28813       44.34125    41.2127   69.77448   64.5    0.06178  -21.31353   0.9857 
  -75.93547  0.00131  1.17415      14.2267  1.59774  0.58359  22.70048  0.23696      0.0892   6164.91419    9511.4221  1.66702         3924.65925     17.23851   0.0001  57610.59153   5.14655  0.02978   72007.35344  47.47552  19.34222  57708.98714    51.18418       44.20801   40.89001   75.93859   94.5    0.03803  -20.78443  0.99976 
  -45.71258  0.05735  1.12991     14.09734  1.54796  1.34682  29.25237  0.09784     0.13372   5493.68054   8598.65394  3.85811         3323.63514     17.13263    8e-05  57640.81442   5.26641  1.67772  117213.93979  47.28354  19.25363  57701.35998    51.30056       44.30732   40.89001   81.78002   71.0     0.0546   -21.3475  0.98765 
  -64.27519  0.00359  1.37453     14.26279  1.64634  0.49526  40.98366  0.10139     0.03602   6129.30179   9124.10835  0.34248          3149.0344     18.39624  0.00138  57622.25181   9.18459  0.14718   86111.55693    47.274  19.29513  57708.98714    51.13834        44.1763   35.04858   75.93859   64.0    0.05707  -21.26342  0.99843 
  -36.88165  0.11324  1.44083     14.26558   1.8554  1.02627  18.87692  0.17132      0.2929    7874.0765   8930.48386  0.44912         2306.35136     16.84325    4e-05  57649.64535   6.98164  2.13769  105272.26423  47.19774  19.32553  57708.98714    51.42936       44.45127   43.81073   78.85931   51.5    0.09194  -21.33065  0.98018 
  -45.21623  0.01098  2.48693     14.06794  1.84513  1.37578  18.92283   0.1267     0.08195   6195.97314   9399.09086  2.53157         3390.03663     16.15186    1e-05  57641.31077   4.33343  0.20777   774977.7055  45.85426  19.28792  57708.98714    51.13744        44.1487    37.9693   81.78002   59.5     0.0799  -21.37659  0.99385 
  -37.06439  0.03016  0.79102     14.63995   1.5874  0.32189  79.33129  0.05063     0.44126   7850.18511   9818.08931  0.69498         4396.67688     18.64636  0.00246  57649.46261  29.16295  2.39224    4841.41986  48.98819   19.4833   57731.8686    51.50493       44.52046   43.81073   78.85931   53.5    0.06877  -21.46733   0.9934 
  -73.51588  0.00447  1.67185     13.83062  1.43056  1.15002  12.68325  0.28034     0.07016   5778.62994   9482.36214  1.82585         3940.09211     20.27671  0.10506  57613.01112   2.52643  0.05671  809989.87725  46.06948  19.32824  57716.61429    51.29425        44.3411   43.81073   70.09716   72.0     0.0582  -21.32716  0.99888 
  -53.39625  0.02688  1.57514     14.01938  1.53817  1.08267   22.5296  0.13889     0.10974   6206.33143   9367.48479  2.25349         3221.52788     17.13965    8e-05  57633.13075   5.17667  0.60557  324113.60657  46.55051  19.31087  57712.80071    51.09054       44.12406   35.04858   75.93859   63.0    0.06494  -21.39225  0.99067 
  -53.53253  0.03195  0.82434     14.07119  1.43376  1.02572  67.59078   0.0539     0.03676   5574.39808   9036.61583  3.88653         2814.55845     20.15389  0.07918  57632.99447  12.52883  2.15958   65181.43306  47.77898  19.31726  57705.17356    51.36555       44.29708   49.65216   99.30431   73.5    0.05239  -21.31639  0.99103 
  -95.61647  0.00166  1.26109     13.97458  1.88172  1.50452  20.02152  0.14868     0.02382   4077.41873   8961.61913  1.09917         3379.08233     17.61534  0.00023  57590.91053   1.98561  0.03323  312392.73119  46.84721   19.1788  57712.80071    51.23356        44.2735   29.52984   78.53662   78.0    0.05023  -20.72058  0.99976 
  -54.51035  0.03227  0.70579     14.20189  1.80339  1.35933  76.04847  0.08394     0.07443   9907.41783     9079.689  0.34025         4666.21673     16.64593    2e-05  57632.01665  44.52856  2.45381    32921.7777  48.31009  19.31338  57693.73282    51.20657       44.13659   49.65216   99.30431   60.5    0.08672  -21.61849   0.9961 
  -130.4038  0.01516  1.15613     13.70739  1.52509  1.09275  20.89119   0.2086     0.01294   4263.37202   9548.66831  0.00442         5100.59731     20.39483   0.1379   57556.1232   2.26515  0.31668  728352.31341  46.46379  19.24526  57701.35998    51.35294       44.35113   40.89001   84.70074  102.0    0.03576  -20.62198  0.99729 
  -84.61039  0.03705  0.82152     14.06186  1.69845  0.97104  18.52141  0.20006     0.07583   5087.57002   8663.02621  0.10003         3787.04784     16.10347    1e-05  57601.91661   2.85971  0.68627   80054.32431  47.76628  19.10507  57693.73282    51.27072        44.2477   40.89001   90.54217   78.0    0.05509  -20.73952  0.99765 
  -38.52123  0.01692  0.74375     14.53211   1.7126  0.51717  97.95952  0.03876     0.26797   5367.62827   9184.15433  4.26489         3454.01087      18.2731  0.00104  57648.00577  16.83599  1.65711    7587.68636  48.87954  19.33695  57708.98714    51.09063       44.08642   46.73144   81.78002   75.0    0.06033  -21.24286  0.99706 
  -69.08196  0.01495  1.43782     14.02253  1.71227  1.03355  16.84723  0.20133      0.0715   6009.29089   8508.15353   0.1068         4901.44451     18.63508   0.0024  57617.44504   3.62913  0.25186  296301.61879  46.71528  19.39528  57716.61429    51.27686        44.2577   43.81073   87.62145   63.5    0.06603  -21.21633  0.99723 
  -38.43334  0.03358  0.86614     14.54845  1.78668  0.51821  82.50003   0.0425     0.11447   7350.91028   9546.73607  1.92746         3207.06327     17.85357   0.0004  57648.09366  26.59277  2.77023    9957.10977  48.64759  19.35547  57708.98714    51.47659       44.44746   49.65216   87.62145   60.0    0.06527  -21.41895  0.99272 
  -46.39995  0.11069  1.25056     14.23721  1.72879  0.84238  15.76134  0.28821     0.48324    9241.8095   9661.30689  2.04637          2301.5569     18.55153  0.00198  57640.12705   8.03035  1.74468   84205.31101  47.38704  19.28832  57708.98714    51.28514        44.2878    37.9693   84.70074   53.0    0.08732  -21.52413  0.98635 
  -86.54568  0.01155  1.04027     13.98084  1.53807  0.97842  29.97695  0.13108     0.03073   4620.58488   8542.55225  2.10032         2425.69665     16.83761    4e-05  57599.98132   3.81776   0.3463  168816.62317  47.19411  19.07731  57693.73282    51.41922       44.42908   35.04858   84.70074   86.0    0.04684  -20.63293  0.99769 
   -59.6651  0.02543  1.02306     14.22388  1.75375  0.92057  71.18285  0.06524     0.03077   5986.76013   9222.49805  1.86933          3662.0784     18.99774  0.00553   57626.8619    15.219  1.81041   60790.22651  47.70918  19.12516  57693.73282    51.37624       44.31049   49.65216   99.30431   74.0    0.04821  -21.32773  0.99115 
  -43.99782  0.03575  0.97459     14.30511    1.738  0.91523  73.71749  0.03658     0.11436   6577.85245   8582.54234  3.14442         2946.66261     16.67647    3e-05  57642.52918  19.02681  2.63537   37608.96202  47.95596  19.29879  57705.17356    51.24758       44.19871   52.57287   90.54217   63.5    0.06959  -21.41743  0.98943 
  -44.99535  0.02045  0.89405     14.32197  1.79586  0.89983  93.04509   0.0361     0.03104   5218.12664   9174.19566   3.9456         3186.06262        19.37  0.01302  57641.53165  15.11297  1.90257   30260.39854  48.13952  19.30688  57716.61429    51.24428        44.2799    37.9693   75.93859   76.0    0.04019  -21.25266  0.99423 
  -31.30965  0.03699  0.71581     14.32604   1.7452  1.29912  69.70148  0.05051     0.27695   7470.97167   8587.92036  4.65287         3012.14378     16.00999    1e-05  57655.21735  23.20723  2.57821   18500.23881  48.53391  19.48384  57712.80071    51.20347       44.17932   49.65216   84.70074   66.5    0.06196  -21.22497  0.99695 
  -50.79349  0.07123  1.15477     14.18387  1.63005  0.88801  17.14765  0.16344     0.12885   4807.68042   9432.31201  4.37124         3310.88849     17.15304    8e-05  57635.73351    2.3643  1.22141   86550.61389  47.41879  19.23755  57708.98714    51.29841       44.33755   43.81073   73.01788   75.5    0.04689  -21.37773  0.99112 
  -79.12135  0.00946  1.10238     14.13301  2.08785  1.36435  16.19477  0.29689     0.16222   5715.32678   9295.07177  0.08021         4795.62048     16.48534    2e-05  57607.40565   3.15562  0.15314   127690.9321  47.39772  19.35409  57712.80071    51.24503       44.24552    37.9693   84.70074   95.0    0.03989  -20.68021  0.99929 
  -90.62379  0.00711  0.84676      14.2094  1.44667  0.44311  99.35715  0.03342     0.01033   4960.53287   8228.94887  0.10681          2396.1841     16.81757    4e-05  57595.90321  14.58421  0.70622   36720.62528  48.00878  19.36524  57708.98714    51.40019       44.38928   43.81073   84.70074   75.5    0.05582  -20.76574  0.99661 
  -84.25553  0.00348   1.1587     13.89948  1.64476  1.31792  20.30081  0.15086     0.03636   4484.76782   9022.92108  0.46947          3537.0143     20.25857  0.10076  57602.27147   2.43568  0.07062  325759.89509  46.84411  19.45241  57705.17356    51.19754       44.12689   49.65216    96.3836   73.5    0.05079  -20.91127  0.99946 
  -72.45128  0.00387  1.67793      14.0548  1.82351  1.15693  37.46854  0.13228     0.03559   6130.12672   8869.67711  3.24161          3233.3497     19.14436  0.00775  57614.07572    8.3991  0.14519  370400.51421  46.51153  19.32634  57716.61429    51.29515       44.26935    37.9693   90.54217   80.0    0.05315  -21.05801  0.99802 
  -59.37641  0.00194  1.16731      13.9854  1.60536  1.35402  23.09308  0.27861     0.21471   9093.37245    9418.9504  0.54901         4052.14126     16.88837    4e-05  57627.15059  11.39092  0.04474  217247.03825  47.00309  19.35959  57720.42787    51.23253       44.26545    37.9693   75.93859   64.0    0.07101  -21.60437  0.99965 
  -52.90065  0.04258  0.94498     14.01373  1.44669  1.20045  38.08699  0.09139     0.14137   7240.79056   8751.74993  0.73471         3481.12736      19.2086  0.00898  57633.62635  11.91176  1.62189  112611.00399   47.4268  19.20469  57708.98714    51.37076       44.35751   49.65216   84.70074   58.5    0.07428  -21.50244  0.99071 
  -74.59515   0.0049  1.20582     14.05144  1.88842    1.423  57.36968  0.08417     0.02294   5640.21243   9384.83086  1.19524         2819.37238     18.48811  0.00171  57611.93185  10.88681  0.28098  201185.88186  47.07878  19.20976  57693.73282    51.22947       44.18534   49.65216   90.54217   87.0    0.05654  -20.86619  0.99815 
  -56.42219   0.0017  1.64779     14.05955  1.70411   1.1604  20.65718  0.17464      0.0697   5152.05942   8391.61016   4.4312         3167.06729     17.09214    7e-05  57630.10481   3.27084   0.0351  326605.12962  46.55251  19.34183  57712.80071    51.28635       44.25451   46.73144   90.54217   78.5    0.04912  -21.27821  0.99949 
  -63.31985  0.03009  0.80574     14.12399  1.48545  0.74235  69.81701  0.05066     0.04888   6301.14378   8096.84492  1.76975         2931.00369      20.3809  0.13355  57623.20715  16.53588  2.10104   50591.85044  47.92423  19.35136  57708.98714    51.18546       44.17083   40.89001   84.70074   70.5    0.05783  -21.35131  0.99175 
  -55.24042  0.00896  1.59026     13.99595  1.65222  1.19429  22.40827  0.16974     0.10405   7309.57635   9323.94465  1.20913         2469.85588     16.42649    1e-05  57631.28658     7.142  0.20074  395291.55112  46.48706  19.39512  57716.61429    51.23602       44.25087   46.73144   75.93859   54.5    0.06683  -21.45641  0.99714 
  -72.97407  0.00149  1.19975     14.04358  1.35705  0.55421    49.305  0.06146     0.01729   4744.08909   9792.57175  0.78677         4268.73552     20.50282  0.17683  57613.55293   6.61948  0.07346  148399.70071  47.07183  19.05478  57712.80071    51.18686       44.28166   35.04858   64.25573   68.0    0.05438  -21.19778   0.9992 
 -102.34333  0.00367  1.33408     14.01874  1.64784  0.70067  52.14113  0.07358      0.0114   5179.30578   8606.66016  0.90804         2152.56526     17.70853  0.00028  57584.18367   8.34355  0.19161  249806.04495   46.8378  19.39275  57716.61429    51.21323       44.18355   49.65216   87.62145   93.0    0.04422  -20.85326  0.99807 
  -71.94086  0.00308  1.80796     13.96743  1.67672  1.14971  18.15438  0.22649       0.079   6199.33247   8647.51246  3.87958         2687.59423     18.75933  0.00319  57614.58614   4.16197  0.05591  591270.62005  46.20714   19.4866  57716.61429    51.23451       44.21771    41.2127   87.29877   71.5    0.05543  -21.15537  0.99899 
  -39.41146  0.03612  1.31574      14.5195  1.74195  0.43049  43.84413  0.08518      0.1246   6303.71009   9611.37492  4.14859         3325.89234     20.29022  0.10838  57647.11554  10.39276  1.58346   25596.43116  47.86336  19.39331  57716.61429    51.28129       44.27114    37.9693   87.62145   70.0    0.06082  -21.39135  0.98646 
  -47.59917  0.02285  1.34138     14.40283  2.19213  0.95932   86.0996  0.03076     0.02942   5483.93554   8922.19593  3.09259         3314.18344     16.40255    1e-05  57638.92783  15.44589   1.9678   57295.35168  47.59649   19.2933  57716.61429    51.21866       44.19544   40.89001   90.54217   69.5      0.072  -21.37366  0.98821 
  -37.06201  0.09763   1.4481     14.26391  1.88246  1.07719  21.11914  0.20625     0.40389   9505.18272   8785.45064  0.83503         2031.95638     17.04217    6e-05  57649.46499  11.38215  2.06185  108720.68209  47.18566  19.19405  57712.80071    51.19628        44.2093   40.89001   78.85931   53.0    0.08949  -21.41923  0.98111 
  -52.60004  0.08238  1.70128     14.10471   1.8079  1.28381  13.47996   0.2847     0.21483   7380.08602   9264.58901  2.88819         2970.53411     18.24777  0.00098  57633.92696   4.37964  1.11055  299999.89251  46.58735  19.29076  57708.98714    51.15568       44.14717   40.89001   84.70074   62.0     0.0661  -21.45662  0.98447 
  -41.12898  0.01846  1.84666     13.86933  1.34486   1.4854   19.7429  0.14377     0.09695   6134.49258   8950.04709  4.66441         3026.05053     19.89808  0.04394  57645.39802   4.43196  0.36443  777339.64172  45.97414   19.3429  57708.98714    51.16755       44.15465   35.04858   87.62145   66.0    0.07238  -21.32667  0.99049 
  -61.53742  0.02045   1.2932     13.98408  1.45206  0.98819  24.31535  0.14898     0.08541   6465.09864   9524.42126  0.74446         4522.05736     16.02311    1e-05  57624.98958   6.06259  0.49735  242643.12201  46.82253  19.29408  57701.35998    51.31092       44.24726   46.73144   99.30431   60.5    0.06487  -21.44973  0.99437 
  -45.05273  0.01474  1.91383     13.95068   1.5385  1.18992  14.31281  0.22657     0.15793   7463.07327   7997.06178  1.63046         2412.63824     19.49981  0.01756  57641.47427    4.7554    0.211  656679.99773  46.07478  19.25339  57705.17356    51.32269       44.30645    37.9693   90.54217   60.0    0.07943  -21.38817  0.99514 
  -57.93184  0.00289  1.47308     14.11182  1.49837  0.55593  34.79434  0.07404       0.015   3914.26559   9922.42564  4.63513         3432.38954     20.76387  0.32255  57628.59516   3.18007  0.10071  180401.18791  46.85178  19.20062  57708.98714    51.18996       44.23169   43.81073   73.01788   82.5    0.04579   -21.5777  0.99857 
  -66.59165  0.00759  1.30794     14.42622  1.75237    0.396  53.98944  0.08296     0.03424   6097.04228   8869.22542  2.01131         2231.32483     18.59231  0.00217  57619.93535  11.97221  0.40963   39100.25043  47.68712  19.35495  57701.35998    51.45215       44.46625    37.9693   81.78002   67.5    0.05338  -21.11219  0.99643 
  -87.11377  0.02313  0.98665     14.08152  1.72987  0.86366  28.66402  0.17739     0.05833   6498.79336   8659.55089  0.79229         2604.92603     19.92299  0.04653  57599.41323   7.22154  0.66311  107426.69891  47.48743  19.35747  57712.80071     51.1772       44.13495   40.89001   93.46288   95.0    0.04069  -20.78868  0.99669 
  -48.99467  0.03102  0.82279     14.58448  1.87295  0.43971  74.44537  0.04853     0.09035   6489.89535   8213.34562    3.023         2332.53818     18.55975  0.00202  57637.53233  18.70425  2.30942    7979.19329  48.80883  19.24702  57708.98714    51.15268       44.16775   32.12787   84.70074   65.5     0.0594  -21.33846  0.99464 
  -97.75123  0.00387   1.1293     14.25844  1.71268  0.48876  51.46469  0.13852      0.0258   6076.44324    7288.6297  4.63902         2605.86757     17.71495  0.00029  57588.77577  11.33536  0.19919   61692.61483  47.60667  19.26746  57708.98714    51.25934        44.2796   43.81073   75.93859  114.5    0.02893   -20.5208  0.99866 
   -69.4719  0.03991  0.73961     14.16891  1.85391  1.22828  46.80395  0.07156     0.05004   4817.86902    8718.0954  0.81884         3950.88338     19.59893  0.02206   57617.0551   6.48067  1.86807   43260.15005  48.16284  19.32945  57701.35998    51.23548       44.22047   40.89001   84.70074   76.5    0.05094  -20.82531  0.99629 
  -61.06378  0.07267  1.16017     14.04363  1.57538  1.02353  15.18972  0.23221     0.10018   5842.88186   8714.95876  2.63375         2748.36929     19.82791  0.03738  57625.46322   3.09337  1.10385  161060.36963   47.1302  19.30792  57705.17356    51.16616       44.14931   43.81073   86.82475   68.0    0.05408   -21.3454  0.99124 
  -44.64074  0.02532  1.02011     14.16396  1.75329  1.30918  74.51988  0.04827     0.17472   6480.95229   8386.86971  1.06057         2865.61605     17.49071  0.00017  57641.88626   18.6714  1.88714   79625.68366  47.59435  19.45003  57708.98714     51.3192       44.24026   43.81073  105.14574   64.0    0.06441  -21.28567  0.99102 
  -62.67319  0.10812  0.75402     14.15602   1.6747  1.07542  22.44326  0.13138     0.11231   5263.52457   9924.70495  0.65101         4566.33361     18.77389   0.0033  57623.85381   3.70908  2.42653   43098.84232  48.10356  19.44918  57720.42787    51.22193       44.17465   44.13341   96.06091   63.5    0.05951  -21.14842    0.994 
  -33.70191  0.02024  1.16223     14.49766  2.12804  0.74409  70.77383  0.05625     0.08482   6672.33732   8689.84715  3.19097          3221.7105     18.58307  0.00213  57652.82509  18.79559  1.43259   26980.76537  48.03519  19.30666  57712.80071    51.18563        44.2035   40.89001   78.85931   69.0    0.07277  -21.28294  0.99379 
 -119.15403  0.00547  1.27953     14.17517  1.95982  0.60351  50.10663   0.1042     0.01326   5580.33926   9060.23633  2.32681         2028.93369     16.03525    1e-05  57567.37297   9.30773  0.27393  132984.86994  47.22316  19.14633  57686.10567    51.34268       44.28817   43.81073   99.30431  104.0    0.03382  -20.44607  0.99804 
  -53.11206  0.02131  1.63919     14.24365  1.86139  0.81467  14.97046   0.2758      0.1935   6711.21781   8716.02403  3.46889         3323.79038     16.05306    1e-05  57633.41494   4.02221  0.31904  151220.29603  46.92981  19.16008   57697.5464     51.1997       44.18234   43.81073   87.62145   70.0    0.06319  -21.44435    0.996 
  -74.79464  0.00188  1.60407     13.84251  1.44614  0.99826   12.4923  0.20266      0.0437   5231.94374   9414.59893  1.98006         2629.65561     16.91154    5e-05  57611.73236   2.03984   0.0235  713592.84819  46.16516  19.25315  57705.17356    51.39202       44.36445   40.89001   93.46288   65.5     0.0604  -21.24509  0.99958 
  -67.91329  0.00272  1.32095     13.94193   1.5726  1.24347  47.36171   0.0938     0.03541   6352.33743   8907.22041  0.34511         2637.57439     16.95088    5e-05  57618.61371  11.40044  0.12904  332931.51721  46.70134  19.34546  57720.42787    51.21155       44.27687   43.81073   64.47118   64.5    0.05609  -21.15192  0.99864 
   -124.921  0.03419  1.11065     14.14711  1.96869  0.65379  21.09804  0.18601     0.01383   3804.83456   9131.56313  0.17994         5060.59598     18.71921  0.00291    57561.606   1.82197  0.72141  114533.71482  47.41294  19.12218  57686.10567    51.37642       44.33767   43.81073   93.46288  106.5    0.03285  -20.37904  0.99617 
  -49.94336  0.11106  0.75268       14.436   1.8228  0.60869  22.68867  0.17376     0.36882   6948.29906   9324.25289  0.12793         5527.14906     16.42052    1e-05  57636.58364   6.53421  2.51982   12875.53639   48.6666  19.31947  57716.61429    51.28605       44.30299   43.81073   76.15404   57.0    0.06853  -21.41008  0.99518 
  -71.27972  0.00746  0.96468     13.95077  1.44191  0.95633  18.05993  0.18432     0.09022   5413.37355   8961.66545  0.10247         3331.23335     19.48814  0.01709  57615.24728   3.15703  0.13473  156306.20443  47.26504   19.3192  57716.61429    51.29929       44.28282   43.81073   87.62145   64.0    0.06005  -21.04427  0.99915 
  -53.99477   0.0234  0.87556     14.08816  1.60352  1.35897  71.56325  0.06273     0.13349   7192.15611   9041.07634  1.36875         2641.49546     17.54296  0.00019  57632.53223  22.08185  1.67443   76056.87972  47.70821  19.29597  57708.98714    51.40382       44.39201   40.89001   87.62145   60.5    0.06695  -21.37075  0.99343 
  -65.06886  0.01703  0.95895     14.12127  1.74161  0.99389  59.90533  0.10733     0.05286    7255.8809   9608.87559  0.96234         2707.52089     18.56638  0.00205  57621.45814  18.81364   1.0201   85078.78967  47.61638  19.32403  57716.61429    51.28704       44.22649   43.81073   99.30431   89.0    0.06291  -21.07239  0.99541 
