 texplosion  fnickel    Pspin  log(Bfield)      Mns  thetaPB   mejecta    kappa  kappagamma      vejecta  temperature    alpha  cutoff_wavelength  log(nhhost)      A_V         MJD0   kenergy  mnickel           TSD   log(L0)  Peak_mag     Peak_MJD  log(E_rad)  log(Peak_lum)  Rise_Time    E_fold  tau_1  delta_m15     r_peak     frac 
    -6.4116  0.08457   0.7047     14.58631  1.78017  0.72694  32.18174  0.02899     0.19918  12012.29668   7218.48383   0.3484         4983.52118     21.25868  1.00787   55899.6704  27.70058  2.72152    5516.59762  49.08162  18.95046     55935.73    51.29343       44.71482   10.81733  30.28854   34.0    0.32393  -21.62993  0.99792 
   -6.57914  0.08699   0.7565     14.64646  1.97494  0.84809  32.55693  0.03032     0.16506  13883.62609   6888.72763  0.13835         4331.14724     21.19978  0.88006  55899.50286  37.43488  2.83228    5346.47032  49.07871  18.94787  55934.92416    51.27768       44.70657   10.81733   29.2759   33.0    0.37627  -21.51227  0.99825 
    -6.3917  0.20308  0.93513     14.47681  1.73192  0.97675  11.02519  0.07639     0.28806  12106.00239   6115.97637  0.22181         4862.98518     21.21115  0.90339   55899.6903   9.63862  2.23902   15648.11377  48.37117  18.86345  55934.92416    51.21597       44.64352   10.81733  29.59147   33.0    0.37098   -21.5287  0.99497 
   -5.70943  0.14273   1.0081     14.34986   1.6711  1.43833  17.37234  0.05042      0.2669  13786.93277   7257.32561  0.13781         4147.88004     21.23612  0.95687  55900.37257  19.69794  2.47955    31485.7074  47.98672  18.92157  55934.92416    51.10705       44.50635   12.33158  28.77429   30.0    0.37975  -21.69809  0.99157 
   -6.22031  0.09066  0.78019     14.36661  1.68774  1.19705  31.82496  0.02441     0.13364  12177.44107   7141.29385  0.28178         4852.76487     21.27451  1.04529  55899.86169  28.15186  2.88525   17631.99749  48.46545  18.93654  55934.92416    51.28167       44.72523   10.81733   28.9027   32.5    0.39419  -21.74416  0.99573 
   -7.11961  0.23112  1.69314     14.22431  1.75868  1.29048   7.78198  0.08756     0.42582  12294.49578    7816.8151  0.27946         4668.20565     21.29525  1.09643  55898.96239    7.0168  1.79858  166635.01142  46.83488  18.96119  55934.92416    51.01708       44.37288    12.9808    32.452   33.0     0.3773  -21.81716  0.97484 
   -7.05093  0.15534  1.12959     14.60915  1.74789  0.98705  16.50975  0.06317     0.08769   13086.2267   6202.25802   0.2403         4789.00299     21.02848  0.59321  55899.03107   16.8654  2.56462    12527.9551  48.30764  18.89584     55932.72    51.24067       44.68271   12.33158  26.61083   38.0    0.34306  -21.17888  0.99306 
    -4.6218  0.17559  0.89939     14.36395  1.60683  1.33964  14.82809  0.05863     0.23053  12982.17593   6944.49283  0.35385         4767.50454      21.2271  0.93719   55901.4602  14.90759  2.60369   22583.23388  48.21313  18.90436  55934.92416    51.21313       44.63536   12.33158  28.77429   31.0     0.4056  -21.73724  0.99392 
   -5.39676  0.07186  0.73751     14.29388  1.50369  1.35257  31.07811  0.02704     0.21841  10956.59212   8270.53048  0.49012         5075.23943      21.2574  1.00492  55900.68524  22.25526  2.23331   19622.24869  48.41772  18.93167  55934.92416    51.30493       44.75465   10.81733  28.12507   32.0    0.34596  -21.66836  0.99661 
   -9.69108  0.06361  0.77334     14.35413  2.02705  1.30708   46.9851  0.01686     0.18622  12186.33195   8349.41398  0.15246          5028.5396     21.34623  1.23299  55896.39092    41.623  2.98851   22036.79675  48.45582  18.92101  55934.92416    51.21985       44.62931   12.33158  29.88762   35.5    0.32832  -21.67722  0.99606 
   -4.57074  0.06676  0.99282      14.5255  1.81174   0.9975  35.20053  0.02217     0.13523  10596.85348   7645.23039  0.64133         5756.78874      21.2006   0.8817  55901.51126  23.57926  2.34992   14745.16804  48.36455  18.92811  55934.92416    51.30096       44.74697   12.84147  27.21234   32.0    0.34472  -21.76596   0.9947 
   -4.36669  0.06767  0.78009     14.60609  1.82785  1.00913  34.68996  0.02156     0.29231   10433.1984   7318.91084  0.62038         5480.79014     21.14629  0.77807  55901.71531  22.52505  2.34757    6336.83159  48.94462  18.86821  55934.92416    51.25326       44.68477   10.16811  28.77429   32.5    0.35828   -21.4609  0.99844 
   -4.69811  0.31217  0.91775     14.45227  1.55254   1.0963   9.53994  0.09185     0.17177  12863.42047   5877.08496  0.34856         5156.91927     21.17141  0.82439  55901.38389   9.41642  2.97807   15127.21107  48.35468  18.95673  55934.92416    51.25752       44.70111   12.33158  26.61083   33.5    0.37014  -21.57505  0.99364 
   -4.89472  0.10576  1.24165     14.58394  1.88649  0.94995  17.94335  0.04208     0.34835  11183.55247   6936.19153  0.54154         4918.88595     21.14937  0.78361  55901.18728  13.38722  1.89771   18348.10169  48.09291  18.95266  55934.92416    51.38102       44.83618   12.33158  27.38846   31.0    0.36965  -21.50071  0.99225 
   -6.20001  0.20506  0.93481     14.35495  1.61963  1.22519  11.86309  0.07911     0.42679  13259.27977   6960.69638  0.20249         4062.19319     21.23297  0.94994  55899.88199  12.44127  2.43265   25631.35913  48.12805  18.91759  55934.92416    51.16462       44.56428   10.81733  30.38482   31.5    0.36349  -21.66567  0.99306 
   -5.15783  0.14249  0.83733     14.55208  1.74538  1.53501  15.17002  0.07325       0.366  12843.14277   6553.36438  0.36171         5303.09885     21.05087  0.62459  55900.92417  14.92643  2.16161    8940.14228   48.7136  18.93264  55934.92416    51.35519       44.80972    12.9808  27.54913   32.0      0.369  -21.39943  0.99824 
   -6.12055  0.04787  0.88197     14.75155  1.85034  0.56014  45.35823  0.01781     0.37341  10621.64905    7276.8513  0.55828         5431.82572     21.18281  0.84632  55899.96145  30.52581  2.17144    4196.31604  49.02232  18.89266  55934.92416    51.37676       44.84616   10.81733  26.71132   32.0    0.35405  -21.63889  0.99711 
   -5.58521  0.13265   0.9435     14.41611  1.44157  0.99173  15.47771  0.05608     0.12197  11707.55514   6801.68608  0.44975         5172.48091     21.13929  0.76562  55900.49679  12.65512  2.05306   17535.48316  48.23428  18.93034  55934.92416    51.45638       44.94287   10.81733  25.03823   31.5    0.36463  -21.55578  0.99381 
   -4.85642  0.13678  0.87982     14.68263  1.78113  0.59269  21.72575  0.03254     0.32023  10820.52274   8169.29289  0.56503         5047.73716     21.22651  0.93591  55901.22558  15.17394  2.97159    5521.11995  48.88873  18.91664  55934.92416    51.26853       44.69322   14.49504  28.77429   32.5    0.35733  -21.65267  0.99528 
   -6.50434  0.14635  0.84018     14.47659  1.59972  0.79063  15.10151  0.06096     0.19692  12906.54427   6842.51211  0.25763         5130.54119      21.2355   0.9555  55899.57766  15.00608  2.21014   11679.84825   48.5567  18.94711  55934.92416    51.34473        44.8065   10.81733  28.12507   32.0      0.369  -21.63223  0.99556 
   -5.09407  0.11935  1.10502     14.82823  2.08456  0.50973  22.44993  0.03488     0.19346  11797.76621   6852.44289  0.45293         5205.40888     21.22955  0.94248  55900.98793  18.63982  2.67936    5213.42814  48.78399  18.86863     55932.72    51.21237       44.64031   12.33158  28.77429   32.5    0.37641  -21.75458   0.9934 
   -5.15653  0.07279  0.71527     14.64038  1.56803  0.51573  27.74994  0.02799     0.08138  11264.65301   7680.41877  0.52502         4660.51024     21.23324  0.95053  55900.92547   21.0051  2.01983    3902.55365  49.16391  18.93963  55934.92416    51.21574       44.63456   12.33158  28.77429   30.5    0.40082  -21.71259  0.99774 
   -4.97999  0.09683  0.83233      14.5758  1.68889  0.72287  31.57924  0.02661     0.13594  11748.89595   7405.51427  0.42109         5555.12327     21.23558  0.95566  55901.10201  26.00297  3.05792    7663.17891  48.77144  18.93534  55934.92416    51.15023       44.55316   10.81733  31.40186   31.0    0.37679  -21.84738  0.99543 
   -5.78799  0.04127  0.75454      14.4173  1.93521  1.37706  57.22965  0.01307     0.12724  11326.12159   7893.96099  0.45297         4358.54845     21.28546  1.07199  55900.29401  43.79361  2.36184    14973.0163   48.6249  18.97533  55934.92416    51.08529       44.45951   14.49504  31.07095   31.0    0.37915   -21.7768  0.99772 
   -6.36237  0.09075   0.7847     14.46446  1.81639  0.84059  33.50788  0.02091     0.27548  11654.71155   7668.53044  0.36584         5406.30325     21.32421  1.17202  55899.71963  27.15046  3.04071   12232.42747  48.65113  18.94611  55934.92416     51.1611       44.58185   12.33158  29.88762   33.0    0.36551  -21.86509  0.99555 
   -4.54791  0.14984  1.02476     14.62557  1.71521  0.51158  17.50028  0.03531     0.44364  10694.73812   7073.50124  0.58221         5053.76865     21.28866  1.07992  55901.53409  11.94023  2.62219     9380.8054  48.50968  18.95405     55935.73     51.2552       44.70682   12.33158  27.76166   32.5    0.39237  -21.87687  0.99006 
   -6.80067   0.0942  1.08251     14.52414  1.83574  0.73051   19.4974  0.04533     0.18059  11779.57457   7592.21517  0.37624         4899.96228     21.27812  1.05401  55899.28133  16.13849  1.83672   17873.36142  48.21158  18.90452  55934.92416    51.09338        44.4923   10.81733  31.26037   32.0    0.34461  -21.69299  0.99275 
   -7.18488  0.07888  0.70125     14.81659  1.76866  0.37651  35.50784  0.02851     0.16003  13755.19979   6850.91566  0.01121         5864.44937     21.26493  1.02249  55898.89712  40.07608   2.8007    1879.45297  49.55072  18.99794     55936.21    51.25519       44.66513    12.9808  30.28854   34.5     0.3626  -21.54309  0.99766 
   -7.48348  0.13793  0.73272     14.39828  1.51908  0.85537  17.14945  0.06072      0.2615  13571.04402   6427.72695  0.11322         4264.47488     21.23997  0.96537  55898.59852  18.84099  2.36544   12097.87877  48.63784  18.93949  55934.92416    51.21424       44.63509   10.81733   28.9027   34.5     0.3544  -21.52623  0.99641 
   -6.01797  0.28772  0.88858     14.51132  1.87313  1.05454   9.39845  0.09412       0.199  11782.45731   6363.59095  0.34514         5348.56521     21.22363  0.92974  55900.06403   7.78315  2.70416   13035.77603  48.52888  18.94294  55934.92416    51.24863       44.67192   10.81733  30.28854   32.5    0.34532  -21.75459  0.99593 
   -5.86471  0.12451    0.848     14.23844  1.32512  0.95369  16.92004  0.04689     0.47118  12820.72536   7401.81594  0.27136          4421.3915     21.25746  1.00505  55900.21729  16.59028  2.10675   29509.98044  48.06434  18.91709  55934.92416    51.22631       44.64593   12.33158  28.77429   30.5    0.38454  -21.75655  0.99194 
   -5.43553  0.08427   0.9239     14.53212  1.86027  1.17459  25.67737  0.03217     0.07385  10720.63669   6828.47221  0.56877         4923.44438       21.183   0.8467  55900.64647   17.6043  2.16373   12717.33549  48.50277  18.96166  55934.92416    51.34278       44.80006   12.33158  27.38846   31.0    0.32012  -21.80495  0.99685 
   -6.98963  0.08323  0.97129     14.53699  1.94266  1.42361  27.46941  0.03476     0.19644  12657.90978    6736.9707   0.2297         4118.98322     21.14622  0.77794  55899.09237   26.2543  2.28635   14352.26522  48.42562  18.89872  55934.92416    51.42503       44.89744   10.81733  26.67358   34.5    0.35908  -21.30207  0.99654 
   -5.85605  0.13931  1.23732     14.45681  1.66112  0.90457  16.05014  0.05284     0.19891  11787.89586   6550.18881  0.44655         5073.72976     21.20298  0.88655  55900.22595  13.30389    2.236   28811.31597  47.84472  18.91493  55934.92416    51.40874       44.86966    12.9808  26.71132   34.0    0.36721  -21.63341  0.98609 
   -5.00119   0.1178  0.78463     14.29881  1.49032  1.44082  19.76993  0.04365     0.24827  12109.63728   7631.77815  0.41852         4503.51641     21.23835  0.96178  55901.08081  17.29397   2.3288   21517.78782     48.32  18.96861  55934.92416    51.40977       44.87863   10.81733   25.9616   29.5    0.38306  -21.77485  0.99576 
   -7.61847  0.10222  0.79076     14.50542  1.83808  0.79911  25.51802  0.03889     0.13862  14572.22724   6458.76698  0.00834         5470.50561      21.2908  1.08524  55898.46353  32.32407  2.60857   10409.58531  48.71968  18.95612     55935.73    51.09139       44.47545   10.81733  31.51112   33.5    0.37519  -21.66262   0.9964 
   -6.46638  0.34842  1.19422     14.48217  1.66724  0.96433   7.55599  0.10884     0.18809  11908.84467   6464.35671  0.34619         4981.03469     21.14391  0.77382  55899.61562   6.39231  2.63269    23968.5885  47.95703  18.96966  55934.92416    51.14126         44.547   12.36848  30.20379   35.0    0.37047  -21.48396  0.98671 
   -4.35857  0.11767  0.81591     14.68686  1.85605  0.85409  17.33576  0.05437     0.20417  11570.57886    6445.1146  0.52447         4958.38914      21.0947  0.69091  55901.72343  13.84459   2.0399    4852.46693  49.02819  18.91452     55932.72    51.14084       44.54869   12.36848  28.73739   33.5    0.38144  -21.35914  0.99859 
   -6.34182  0.11003  0.84402     14.49134  1.55387  0.83677  21.36568  0.04821     0.21443   14138.1902   6752.07272  0.08955         5845.26483     21.17788  0.83677  55899.74018  25.47601  2.35097   10696.83549   48.5783  18.95282  55934.92416     51.2725       44.70958   10.81733   29.2759   31.0     0.3828  -21.54905   0.9957 
   -5.70063  0.08858   0.9155     14.68558  1.87824  0.76549  28.03275  0.02796     0.31638  11465.83203   7336.23342   0.5443         4795.72062     21.16625  0.81465  55900.38137  21.98386  2.48321    6219.02021  48.82556  18.92966  55934.92416    51.36585       44.81971   10.81733  27.54913   31.5    0.37091  -21.55222  0.99689 
   -6.20396  0.11508  0.98271     14.35879  1.78858  1.32215  22.24449  0.03437      0.1268  12323.59696    7428.2316  0.30176         4034.73891     21.27878  1.05561  55899.87804   20.1523  2.55994   30731.84489  48.04892  18.92934  55934.92416    51.42633       44.89091   10.81733  27.54913   31.5    0.39825   -21.7457  0.99228 
   -4.89514  0.15876  1.15546     14.57057  1.74291  0.70714  14.37576  0.05168     0.30228  11886.27724   7256.59878  0.39682           4732.993        21.23  0.94347  55901.18686  12.11573  2.28235   15612.24829  48.19115   18.9186  55934.92416    51.10338       44.47704   12.36848  32.12345   31.0    0.39136  -21.62556  0.98953 
   -5.19136  0.08582  0.92346     14.55685  1.80053  0.92318  32.74539  0.02481     0.39962  11873.64459    6626.8454  0.38841         4979.46917     21.19277  0.86597  55900.89064  27.53883  2.81034    10973.8827  48.55305  18.92258  55934.92416    51.19881       44.61264   12.33158  29.88762   33.5    0.35504  -21.61495  0.99523 
   -4.46202  0.07236  0.77151      14.3503  1.53015   1.3374  34.47985  0.02207     0.14786  11127.83254   8071.49103  0.56848         5216.33203     21.22833  0.93985  55901.61998  25.46911  2.49489   16851.61523  48.45225  18.93836  55934.92416    51.14175       44.54727   12.84147  29.37773   28.5    0.40381  -21.87812  0.99638 
   -6.52173  0.09389  0.74107      14.3941  1.55587    1.176  27.23406  0.03412     0.13985   12396.6352   7344.01072   0.3415          5162.9774     21.20429  0.88923  55899.56027   24.9659  2.55699   12921.54085  48.60979  18.93454  55934.92416    51.15462       44.54752   12.84147  30.56105   33.0    0.36109   -21.5325  0.99706 
   -7.34256   0.0541  0.74261     14.52174  1.69839  0.89528  42.73234  0.02247     0.24865  12088.37448   7174.79053  0.27543         5469.46229     21.19361  0.86763  55898.73944  37.24943  2.31179    7868.51895  48.86147  18.94347  55934.92416    51.24428        44.6721   10.81733   29.2759   34.5    0.32495  -21.37389  0.99788 
   -7.32764   0.1516  0.72761     14.40729  1.54284  0.91032  16.49639  0.05483     0.20529  12212.91489   6359.48064  0.21971         4979.16132     21.22436   0.9313  55898.75436  14.67759  2.50082   11623.68996  48.66803  18.92092  55934.92416     50.9163       44.25967    12.9808  35.42843   36.0    0.33435  -21.47091  0.99668 
   -4.32152  0.11412  0.71608     14.42372  1.79009  1.48265  24.06281  0.02981     0.05707   9855.42758   8068.43143  0.70185         5313.65876     21.25843   1.0073  55901.76048  13.94198  2.74615   12110.71363  48.72862   18.9243  55934.92416    51.21568       44.62996   10.81733  30.28854   33.5    0.35829  -21.72276  0.99789 
   -4.21203   0.1443   0.7159     14.51187  1.90744  1.18674    17.914  0.04175     0.17663  11269.89032     7391.058   0.4746         5222.40858      21.2461   0.9791  55901.86997  13.57248  2.58502    8594.84052  48.90535  18.91863  55934.92416    51.21181       44.63422   12.33158  27.76166   31.0    0.36576  -21.70869  0.99845 
   -5.52036  0.15044  1.29242     14.50231  1.58883  0.66252  14.82289  0.04974      0.1311  11240.48193   6574.62056  0.41358         5947.13123     21.22374  0.92998  55900.56164  11.17197   2.2299   24381.97859  47.86005  18.95892  55934.92416    51.23643       44.65569   14.49504  28.77429   33.5     0.3924  -21.71049  0.98198 
   -6.24112   0.2812   1.2306     14.36976  1.86274  1.43479   9.19576  0.08657     0.48597  12656.85672    7871.6704  0.27084         4700.41158     21.26882  1.03168  55899.84088   8.78752  2.58581    47717.4205  47.68009  18.94559  55934.92416      51.426       44.90063   10.81733  27.54913   31.0    0.38886  -21.75611  0.98604 
   -7.47654  0.16125   0.8745     14.57756  1.72825   0.7003  19.12456  0.05306     0.15003  14828.11935   7158.22613  0.04345         4968.74446     21.24123  0.96819  55898.60546  25.08365  3.08376    8586.82452   48.6891  18.95152  55934.92416    51.13633       44.53496   12.36848  30.20379   33.5    0.38312  -21.55431  0.99435 
     -6.924   0.2488  0.73245     14.34314   1.5899  1.17038  12.47528  0.06994      0.2914  12886.22096   6688.00388  0.14756         4657.19806     21.25767  1.00554    55899.158  12.35744  3.10387   16310.50882   48.5282  18.91964     55935.73    51.25724       44.67881   12.33158  29.88762   36.0    0.34507  -21.58582  0.99586 
   -6.96995  0.11271  0.79691     14.42678  1.86836  1.38282  28.24062   0.0335     0.43733  13939.45554   6311.08001  0.08456         4456.65255     21.26179  1.01513  55899.11205  32.73355  3.18309    15435.9014  48.54896  18.91525  55934.92416    51.06584       44.46938   10.81733  30.42172   35.5    0.36601  -21.61219  0.99637 
   -4.94159   0.1169  0.75429     14.88297  1.57434  0.37949  19.04232   0.0501     0.46814  11861.46056   6323.81046  0.46766         4857.08203     21.10651  0.70996  55901.14041  15.98171  2.22602    1425.78358  49.55681  18.87484     55932.72    51.20261       44.64584   10.81733   28.9027   30.0    0.32829  -21.85651  0.99813 
   -5.32312  0.12474  1.01359      14.8181   1.8394  0.53008  17.62723  0.05897     0.28272  13595.07092    6298.6326  0.15935         5537.39963     21.11677  0.72694  55900.75888  19.43454  2.19879    4055.32494  48.91377    18.895  55934.92416    51.36113        44.8409    12.9808  25.38566   31.0    0.39831  -21.44485   0.9959 
   -6.15515  0.06056  0.83296     14.50959  1.77528  0.78577  37.18803  0.01908     0.08563  10823.07593   7363.04164  0.42362         5184.12926     21.25325  0.99536  55899.92685  25.98554  2.25208   10943.37652  48.63771  18.94945     55935.73    51.15283       44.55833   12.33158  29.88762   32.0    0.37013  -21.75857  0.99621 
   -6.15615  0.11469   1.2828     14.82111  2.11478  0.59834  16.47548  0.04985     0.11557  10616.27096   6863.06496  0.57939         5301.08235     21.14038  0.76756  55899.92585  11.07667  1.88961    7365.28052   48.5106  18.92391  55934.92416    51.20535       44.62551    12.9808  30.28854   32.5    0.35585  -21.52976  0.99358 
   -8.80884  0.27712  0.98782     14.49378  1.79366  1.06991   7.97222  0.13075     0.21769   12433.4487   6559.99132  0.14078         4053.43213     21.14586   0.7773  55897.27316   7.35174  2.20924   16724.17178  48.30988  18.90545  55934.92416    51.10037       44.49683   10.81733  29.55373   38.0    0.31445  -21.20921  0.99486 
   -7.13387  0.06914   1.1027     14.52052  1.99494  1.52604  29.15056  0.03095     0.35999  11596.70882   7241.26004  0.37828         5093.43933     21.15843  0.80013  55898.94813  23.38534  2.01542   20493.35399  48.17225   18.9329  55934.92416    51.19509       44.60717    12.9808  30.28854   33.5    0.34982  -21.36491  0.99503 
   -5.03947  0.07467  0.76908     14.56367   1.5531  0.61092   31.8422  0.02618     0.13162  11508.49197   7583.95362  0.51312         4143.86683     21.24612  0.97915  55901.04253  25.15748  2.37755    6362.22347  48.88449  18.92845     55935.73    51.18045       44.58558    12.9808  30.42172   32.0    0.39198   -21.7317  0.99639 
   -5.38095  0.08378  0.77813     14.57216  1.77552  0.80592  32.29564  0.02413      0.1529  11080.35171   7629.56276  0.63133         4445.04432     21.22312  0.92864  55900.70105  23.65256  2.70572    7160.32177  48.88114  18.92861  55934.92416    51.38942       44.83735    12.9808  27.54913   33.0    0.34295  -21.62975  0.99726 
   -6.65638  0.13186  1.17504     14.57939  1.70366  0.63772  15.71788  0.05203     0.22946  10985.10967   7827.45769  0.41691         5210.76585     21.21335  0.90798  55899.42562  11.31436  2.07249   15153.49516  48.17961  18.87374  55934.92416     51.3064       44.73532   10.81733   29.2759   32.5    0.33528  -21.54734  0.98913 
   -7.10928  0.14962  1.23614     14.37644  1.73663  1.32482  13.25108   0.0654     0.30064  13001.48679   6523.94253  0.14325         3663.60829      21.1945  0.86942  55898.97272  13.36179  1.98264    43528.1549  47.68564  18.93947     55935.73    51.38841       44.83289   12.33158  27.38846   33.0    0.39455  -21.48218  0.98838 
   -5.61123  0.12561  1.08782     14.51805  1.75541  1.49364  15.51706  0.07157     0.29617  12764.02326    6599.4958  0.31763         5264.72887     21.06117  0.63959  55900.47077  15.08037  1.94908   17750.27932  48.19091  18.93641  55934.92416    51.39895       44.87378   10.81733  26.70881   31.5    0.36162  -21.42475  0.99515 
    -5.6022  0.11905  0.79182     14.48893  1.89608  1.06624  22.51918  0.03388     0.12302  10977.27913   6855.64255  0.47533         5196.64183     21.26296  1.01785   55900.4798   16.1871  2.68099   11616.15117  48.68439  18.88347  55934.92416    51.33864       44.78678   12.33158  27.38846   33.0    0.34495  -21.81249  0.99715 
   -6.43546  0.13138  1.29782     14.41774  1.77398  1.36997  16.76253  0.04844     0.36184  11623.09224   7219.66147  0.37324         5040.01066     21.16444  0.81128  55899.64654  13.50859   2.2022   40523.48599  47.68366  18.88675  55934.92416    51.29777       44.78124   10.16811  26.61083   32.5    0.36448  -21.52538  0.98673 
   -5.66094  0.14731  0.78771     14.37958  1.79023  1.54434   20.4858  0.03197     0.24238  10970.53027   7344.97391  0.49399         5194.97024     21.28226  1.06411  55900.42106  14.70738  3.01786   17959.81153  48.47472  18.91072  55934.92416    51.17198       44.58083    12.9808  31.40186   32.5     0.3785  -21.83903  0.99612 
   -5.70804  0.07914   0.7085     14.50826  1.73047  1.22544  38.91818  0.02353     0.20489  12623.65511   7125.51624   0.3312         5650.77739     21.17579  0.83275  55900.37396  36.99559  3.08011    7765.02346  48.91619  18.96282  55934.92416    51.36163        44.8342   12.33158  26.03489   33.5    0.35722  -21.59577  0.99823 
   -5.82667  0.14938  1.27506     14.59098  1.91608  0.88972  15.62435  0.05185     0.33512  11499.49908     6071.798  0.38412         5207.00335     21.17142  0.82442  55900.25533    12.325  2.33404   19025.37913  48.06086  18.90632  55934.92416    51.44652       44.92098   12.33158  26.03489   33.5     0.3739  -21.53562  0.98937 
   -5.83318  0.15757  1.02405       14.483  1.54069  0.64457  14.71748  0.05353     0.36852  12365.66359    6535.5034  0.40948          4373.5818     21.24972  0.98729  55900.24882  13.42442  2.31901   16224.53992  48.22574  18.93835    55936.107    51.20229       44.60575    12.9808  30.42172   33.0    0.41268  -21.74436  0.98926 
   -4.91603  0.11362  0.71618     14.53944  1.91124  1.37653   18.6484  0.05314     0.33677  12232.70974   6486.85212  0.30393         5339.66082      21.1732   0.8278  55901.16597  16.64616  2.11877    7590.66695  48.95984  18.89069  55934.92416    51.36291       44.82183   12.36848  27.35156   33.0    0.33041  -21.45939  0.99898 
   -4.28988  0.33273  0.74994     14.46887  1.84789  1.52432   8.18463  0.09811     0.46927  12003.41805   7998.88255  0.39742          5740.5376     21.22957  0.94254  55901.79212   7.03455  2.72325   11138.17396  48.73865  18.90465  55934.92416     51.3026       44.75368   10.81733  28.12507   30.5    0.41343  -21.69113  0.99795 
   -5.51714  0.11186  0.74401      14.4866   1.7515  1.34158  20.73885  0.04412     0.34441  11802.91869   6213.38817  0.50994         5065.65735     21.17208  0.82567  55900.56486  17.23418  2.31988    9575.93402  48.78792   18.9338  55934.92416    51.40491       44.87032   10.81733  27.54913   32.0    0.40677  -21.75879  0.99834 
   -7.51654  0.15606  0.84009     14.63148  1.86691  0.91684  16.59757  0.07077     0.31781  13964.89348   5928.25998  0.14269         4316.44992      21.1216  0.73506  55898.56546  19.30843  2.59014    6677.62358   48.8667  18.91545  55934.92416     51.1393       44.52263    12.9808  31.75493   37.5    0.33841  -21.25037  0.99769 
   -5.81763  0.06896  0.70133      14.5585  1.76188  0.64885  41.68852  0.02085     0.13085   13277.4934   7344.36861  0.26559         4482.52689     21.31981  1.16022  55900.26437  43.84053  2.87471    6146.59259  49.03434  18.88053  55934.92416    51.17377       44.58656   12.33158  29.88762   31.0    0.37611  -21.86729  0.99717 
   -5.88821  0.06122  0.79916     14.55885  1.68467  0.81054  34.13456  0.02351     0.11518  11377.88232   7875.81495   0.4557         5257.21776     21.17467   0.8306  55900.19379  26.35994  2.08964    7619.02683  48.80819  18.89009  55934.92416    51.25488       44.69431   12.33158  27.76166   30.5    0.35584  -21.55592  0.99752 
    -6.7701  0.04067   0.7405     14.47402  1.77688  0.87347  52.42805  0.01497      0.0461  11040.24901   7327.42772  0.35246         5055.87634     21.27099  1.03685   55899.3119  38.11963  2.13238   10197.49404  48.77096  18.89839  55934.92416    51.26108       44.72275   12.33158  27.38846   33.5    0.33709  -21.60486  0.99762 
   -5.87376  0.06863  0.92095     14.54206  1.82036   0.9603  32.97025  0.02512     0.34882  11475.21529   7042.30003  0.51051         5391.28419      21.1962  0.87283  55900.20824  25.89829  2.26285   11812.16634   48.5282  18.93453     55935.73    51.25491        44.6731   12.36848  29.85072   32.0    0.34668  -21.63352  0.99617 
   -5.73066  0.17233  0.93261     14.69922  1.90376  0.66176  14.62988  0.05836     0.34418  11580.75002   7325.41773  0.44044         4879.33732     21.20681  0.89441  55900.35134  11.70419  2.52117    6143.02918  48.82068  18.91269  55934.92416    51.38204       44.85261   10.81733  27.54913   32.5    0.32463  -21.60515  0.99608 
   -6.68459  0.07369   0.7633      14.6501  1.70848   0.7195  33.90637   0.0291     0.08465    12352.932   6904.70982  0.30879         4850.31411     21.14337  0.77285  55899.39741  30.86374  2.49866    4630.50368  49.07043   18.9268  55934.92416    51.43682       44.91407   10.81733   25.9616   35.0    0.33962  -21.33979  0.99797 
    -8.1794  0.22225  1.21787     14.50498  1.67727  1.03841  10.25324  0.10209     0.31859  12627.35299    6268.8449  0.18407          5733.5332     21.09316  0.68848   55897.9026   9.75243  2.27879   22576.63396  47.96859  18.88024  55934.92416    51.35244       44.82649     10.678  25.52499   37.5    0.33146  -21.18862  0.98912 
    -5.9537  0.26856  1.04663     14.72518  2.07765  0.74973   7.50983    0.113     0.29836   10946.5776   6804.62283  0.44989          5218.4321     21.16561  0.81346   55900.1283   5.36802  2.01687    7492.26355  48.67221  18.93879     55935.73    51.30519       44.74247   12.33158  28.77429   32.0    0.37589  -21.70264  0.99644 
   -4.73831  0.21609  0.78087     14.43832  1.66014   1.0736  12.22469  0.06741     0.17411  12194.31755   7708.86623  0.32331         5023.43235     21.23662  0.95796  55901.34369  10.84377  2.64166   12487.54159  48.60736  18.98201      55936.4    51.32942       44.76883   10.81733   28.9027   30.5    0.37593  -21.65801  0.99668 
   -4.10825  0.08248  1.01348     14.67603  2.18473   1.2539  25.21616  0.03641     0.35864  11430.78045   7448.37962  0.55848         5405.17657     21.11988  0.73216  55901.97375  19.65432  2.07983    9263.49076  48.62984  18.92223     55935.73    51.29489       44.72709    12.9808   29.2759   31.0    0.35083  -21.55647  0.99778 
   -8.09596    0.337  1.05892     14.41793  1.86757  1.51495   8.20367  0.12977     0.26786  13666.62977   6604.60567  0.01095         4101.01473     21.23144   0.9466  55897.98604   9.14026  2.76464   28376.79814  48.03743  18.93358     55935.73    51.25129        44.6745   12.33158  28.77429   37.0    0.34516  -21.44398  0.99155 
   -7.26398  0.49001  0.84825     14.61833  2.18809  1.54392   7.11607  0.13823     0.21476  13807.05875    6555.2347  0.04894          5363.3135     21.17258  0.82662  55898.81802   8.09225  3.48696    8477.48166  48.82359  18.89468  55934.92416    51.32653       44.79498   12.33158  26.03489   40.0    0.35822  -21.35737  0.99781 
     -7.004  0.04697  0.78679     14.81499  1.81557  0.43156  49.99073  0.01742     0.44063  11217.64157   6869.24097  0.38231         5362.18984     21.21746  0.91662    55899.078  37.52492  2.34791    2446.59408  49.34757   18.9541  55934.92416    51.15978       44.57903   12.33158  29.88762   35.5    0.33536  -21.45621  0.99759 
   -4.80493  0.14071   0.7517     14.42253  1.65199  1.43831  22.13537  0.03988     0.21743  12605.67222   6435.11418  0.37168         4932.46868     21.21017  0.90135  55901.27707  20.98196  3.11466   12383.74978  48.64191  18.97109  55934.92416    51.15759       44.57366   10.81733  30.28854   34.0    0.38046  -21.60918  0.99705 
   -6.45902  0.12058  1.10788     14.25396  1.61019  1.31284  19.12084  0.03881     0.11142  11657.05084   6779.68894  0.34566         4341.85783     21.28139  1.06199  55899.62298  15.49928  2.30552   56986.17937  47.63097  18.90763  55934.92416    51.19615       44.61304    12.9808  29.55373   35.0    0.35319  -21.72736  0.98673 
   -5.78921   0.1005  0.73241     14.39338   1.8469  1.20121  31.69021  0.02337      0.0892  11843.65918   7491.39814  0.40158         4657.40898     21.31214  1.13989  55900.29279  26.51698  3.18497   15031.48743  48.62878  18.94065     55935.73    51.25227       44.69083   12.36848  28.73739   33.0    0.38588  -21.86882  0.99669 
   -7.59655  0.15836  1.08463     14.58088  1.82223   0.5508  18.29541  0.03899     0.12531  11429.89892    7839.9205  0.38231         4715.72737     21.30694  1.12634  55898.48545  14.25785  2.89724   13715.69179  48.32167  18.91576  55934.92416    51.25992       44.70393   10.81733   28.9027   36.0     0.3398  -21.73315  0.98733 
    -7.8011  0.11735   1.2535      14.5163  1.89182  0.84215  19.83937  0.04368     0.11731  11831.22886   7167.61089  0.35272         4566.58252     21.23116  0.94599   55898.2809  16.56589  2.32809    25606.2273  47.94113  18.91642  55934.92416    51.38149       44.84346    12.9808  26.71132   35.5    0.33711  -21.53241  0.98748 
    -6.9306   0.2193  1.02733     14.75269   2.0261   0.4252   13.3799  0.04858     0.40572  11507.54714   7387.18472  0.27864         5889.52806     21.31341  1.14323   55899.1514  10.56928  2.93421    6201.81174  48.75956  18.88887  55934.92416    51.26563       44.70431   12.33158  27.72224   35.5    0.37149  -21.80638  0.99123 
    -6.8238  0.14715  0.73696     14.55527  1.97516  0.82764  15.60011  0.05909     0.32729  13438.00644   7659.95837    0.255         3717.81999     21.28429  1.06909   55899.2582  16.80446  2.29549    7722.78972  48.94179  18.89673  55934.92416    51.19642       44.61627   12.33158  28.77429   31.0    0.36664  -21.69139  0.99808 
   -5.79703  0.07993  0.85323     14.60003  1.72808  0.74177   30.6875  0.02909     0.29732   12273.6636   7016.12084  0.38825         4389.25177     21.18144  0.84367  55900.28497  27.57637  2.45275    7369.65438  48.77683  18.90543  55934.92416     51.2507       44.68327   10.81733  28.12507   32.0    0.36106  -21.56848  0.99648 
   -6.63945   0.0517  0.78321     14.53787  2.02723  1.15221  46.12342  0.01969     0.36291  11767.11712   7157.46269  0.37014         4332.18174     21.23165  0.94706  55899.44255  38.09683  2.38463     9698.8619  48.80128    18.981  55934.92416    51.23832       44.68101   10.81733   28.9027   34.0    0.33156  -21.51297  0.99816 
   -4.48577  0.06653  0.84839     14.30112  1.47702  1.35683   29.5081  0.02615     0.37208  10189.07385   8533.73736  0.71696         5505.25183     21.22077  0.92362  55901.59623  18.27418  1.96329   24669.47289  48.18888  18.94303  55934.92416    51.27454       44.72726   12.33158  26.61083   30.0     0.3777  -21.84179  0.99524 
   -5.87767  0.14721  1.00601     14.60227  1.86546  1.13835  18.05159  0.05446      0.2562  13809.22584   6509.54125  0.12701         4873.41117      21.0825  0.67177  55900.20433  20.53436  2.65732   10946.31769  48.49516  18.93932  55934.92416    51.35338       44.81404   10.81733  26.71132   33.5    0.37518  -21.37725  0.99586 
   -6.62248   0.0723  0.89659     14.80889    1.841  0.41848  37.20979  0.02022     0.03414  10730.83998   7435.96047  0.41578         5216.68178     21.23211  0.94806  55899.45952  25.55947  2.69044    3313.41686  49.10843  18.91135  55934.92416    51.36234       44.82314    12.9808   25.9616   35.0    0.34804  -21.56303  0.99528 
   -7.23302  0.29199  1.69508     14.52577  1.76622  1.28021   8.29627   0.1135     0.45633  12239.85611   5910.57695  0.29976         5177.16345     21.02025  0.58207  55898.84898   7.41417  2.42246   41850.12094  47.43581  18.92295  55934.92416    51.03491       44.41247   12.33158  31.87269   37.5    0.33828  -21.18446  0.97441 
   -5.11196  0.13066  1.05443     14.56535  1.94659  1.02784  22.28447  0.03214     0.22999  11530.69267   7103.13112  0.45197          5383.9588     21.20669  0.89416  55900.97004  17.67422  2.91178   14873.90917  48.33966  18.89396  55934.92416     51.2425       44.68545     10.678   28.2644   33.0    0.39005  -21.69947  0.99332 
   -5.88525  0.05186  0.75781      14.5476  2.03648  1.15544  55.25262  0.01395     0.05462  11381.34957   8004.82295  0.37337         5234.68393     21.24311  0.97239  55900.19675  42.69407  2.86536     8721.7436  48.87801  18.94954     55935.73    51.27553       44.70351   12.36848  29.85072   32.5    0.35176    -21.635  0.99813 
   -8.24846  0.27444   0.8453     14.52844  1.87839  0.79373   9.32503  0.09345     0.16128  12389.43273   7699.03534  0.19794         5984.67259     21.27444  1.04512  55897.83354   8.53847   2.5592   10933.33056  48.64985  18.94526  55934.92416    51.53048       45.00532   10.81733  26.40917   34.0    0.35432  -21.56512  0.99589 
   -5.79645  0.07213  0.92869     14.59675  1.99608  0.96949  33.85139  0.02309     0.26938  10006.37448   7124.59018  0.67723         5047.46512     21.21555   0.9126  55900.28555  20.21889  2.44154   10238.22601  48.62306  18.88228  55934.92416    51.19837       44.61954   10.81733  29.59147   34.5    0.32716  -21.60636  0.99665 
   -6.31599  0.17639  1.34578       14.668  1.85936  0.50821  13.79567  0.05528     0.18173  11964.90471   7037.87916   0.3005         4915.21641     21.25298  0.99473  55899.76601  11.78117  2.43336   14425.45267  48.12113  18.90913  55934.92416     51.1432       44.56741   10.16811  28.77429   34.0    0.36282  -21.71483  0.98303 
    -4.2348  0.06556  0.71423     14.87455  1.95593  0.46655   46.2339  0.01959     0.18901  13043.20592   6505.79146   0.4837         4362.96023     21.22545  0.93363   55901.8472  46.91983   3.0311    1651.00751  49.63477  18.93035  55934.92416    51.15217       44.57132   12.84147  29.37773   32.5    0.38223    -21.694  0.99854 
   -5.86779  0.37839  0.98272     14.40149  1.60059  1.05291   8.00993  0.09905     0.22274  12586.83258   6548.57869   0.2128         5060.13397     21.22098  0.92409  55900.21421   7.56988  3.03089   22592.76225  48.13429  18.89637  55934.92416    51.13927       44.57771   12.84147   28.2644   34.5    0.41055  -21.61455  0.99013 
   -5.82836  0.10624  0.96202     14.66714  1.64501  0.39657   22.7499  0.03185     0.33344  11103.42177   7486.81937  0.44389           4925.809     21.31383  1.14434  55900.25364  16.73094  2.41705    6547.53055  48.70257  18.95294     55935.73    51.26374       44.69617   12.33158  27.76166   34.0    0.36415  -21.83733  0.99099 
   -4.11233  0.08546  0.79579     14.52687  1.72073   1.1216  34.20706  0.02302     0.08756  10587.12168   7315.52913  0.65459         5628.72326     21.17723  0.83551  55901.96967  22.87171  2.92338    8940.99452  48.75157  18.92355  55934.92416    51.03441       44.40454   12.84147  32.59133   33.5    0.35213  -21.65967  0.99737 
   -6.15119  0.26565  0.88418     14.56317  1.74036  0.60721  13.10296  0.05081     0.33581  11525.37047   8024.43601  0.25738         5396.43157     21.29211  1.08851  55899.93081  10.38261  3.48086    9444.85678  48.64121  18.92077  55934.92416    51.11563       44.53487   12.36848  29.85072   33.0    0.38291  -21.78817  0.99184 
    -4.0252  0.07057  0.74042     14.85011   1.5846  0.43032  35.74189  0.02771     0.16816  12461.05737    6495.3687  0.51873         4269.23059     21.11891  0.73054   55902.0568  33.10659  2.52221    1608.69514  49.52333  18.91392     55932.72    51.22203       44.66314   10.81733   28.9027   33.0    0.42002  -21.58756  0.99818 
    -5.5243  0.16627  0.94425     14.60996  1.71434  0.78278  14.22353  0.05779     0.20007  10812.48227    6730.7757  0.46004         4922.09892     21.14296  0.77213   55900.5577    9.9194  2.36497    8553.98645   48.6206  18.89731  55934.92416    51.16531       44.58457   12.33158  28.77429   32.0    0.37805  -21.54411  0.99559 
   -5.59482  0.16999  1.16856     14.50951  1.71502  1.06428  14.90454  0.05527     0.48857  12008.01573   6829.06851  0.45858         5251.63622     21.15504  0.79391  55900.48718  12.82001  2.53355   20814.24525  48.04945  18.92721  55934.92416    51.19179       44.61633   10.81733  30.28854   32.5    0.37502  -21.58685  0.98989 
   -8.19638  0.22587  1.09776     14.31136  1.58029  1.48209   9.05654  0.11469     0.26485  13605.57956   6689.55855  0.07268         3383.90293     21.17564  0.83248  55897.88562  10.00055  2.04564   42155.73581  47.76171  18.96121  55934.92416    51.17575       44.57935    12.9808  31.40186   34.0    0.35723  -21.40188  0.98973 
   -4.39833  0.18442  1.27502     14.59001  1.72943  0.92879  15.03606  0.04879     0.33922  11168.82992   7272.39589  0.59715         4977.93187       21.109  0.71404  55901.68367  11.18862  2.77293    17247.5776  48.05898  18.92407  55934.92416    51.16488       44.57909   10.81733  30.28854   34.5    0.37754  -21.42341  0.98709 
   -7.40938   0.2689  0.93865      14.6974  1.94725  0.71442   9.45785  0.09782     0.49528  12102.35812   6036.27789  0.24113         5335.39563     21.16044  0.80384  55898.67262   8.26341  2.54321    6418.72732  48.80581  18.97716     55935.73    51.25946       44.69597   12.33158  28.77429   37.0    0.34861  -21.33114  0.99636 
   -5.46881  0.08353  1.08593     14.50604  1.81341  1.03713  25.86585  0.03359     0.19113  11003.19464   7563.71993  0.53285         5100.93006     21.19376  0.86794  55900.61319  18.68063  2.16066   19311.84032  48.16992  18.87886     55932.72    51.26364       44.69734   12.33158  27.76166   31.5    0.34174  -21.69285   0.9932 
   -7.42702  0.08116  0.75239      14.5419  2.00654  0.90025  38.23102   0.0241     0.35406  13260.43193   7588.74329  0.19034         4398.22066     21.29472  1.09508  55898.65498  40.10129  3.10285    8696.41528  48.87907  18.95687  55934.92416    51.21779       44.63731   12.36848  29.85072   34.0    0.34991  -21.63263  0.99735 
   -6.94418  0.11321  0.71929     14.56144  1.82541  0.79708     23.69  0.03639     0.36891  11315.65435   7573.85627  0.48928         5049.18929     21.25177  0.99198  55899.13782  18.09471  2.68186    6608.60342  48.99629  18.95738  55934.92416    51.22558       44.67081   12.33158  27.38846   35.0    0.32632   -21.5835  0.99786 
   -6.62665  0.10484  0.98227     14.84816  2.00396  0.35464  23.84653  0.03287       0.419   11125.4478   7714.30108  0.38547         4971.98126     21.30192  1.11339  55899.45535  17.60708  2.49996    3612.91421  49.02841  18.94446     55935.73    51.03327       44.40598    12.9808    32.452   33.5    0.32908  -21.75345  0.99376 
   -5.97206  0.09611  0.83298     14.45262  1.77935  0.85381  27.19119   0.0284     0.16344  12444.81219    7799.2303  0.24383         5411.67845      21.3047  1.12054  55900.10994  25.12072  2.61341   14259.86787  48.52372  18.90652  55934.92416    51.32159       44.76928   10.81733   28.9027   30.0    0.39817   -21.9388  0.99517 
   -5.57608   0.0536  0.86404     14.41399  1.88259  1.39985  49.80137  0.01369     0.21098  10107.76869   7670.72219  0.62224          5126.5623     21.27301   1.0417  55900.50592  30.35142  2.66944   19393.61014  48.38288  18.90412  55934.92416    51.18541       44.60514   12.36848  28.73739   33.0    0.34503  -21.85512  0.99577 
   -4.35865  0.04232  0.80509     14.46174  1.90993  1.27647  44.80332  0.01625     0.06331  11290.14398   7692.71487  0.55397          4563.5432     21.25687  1.00368  55901.72335  34.06719    1.896   13710.32437  48.60113  18.89305     55932.72    51.36746       44.83963   10.81733   25.9616   30.0    0.37329  -21.70617  0.99795 
   -7.37531   0.0779   0.7279     14.45032  1.49577  0.89685  27.07121  0.03598     0.13155  11647.90942   7638.92862  0.38415         5642.72715     21.16341  0.80936  55898.70669  21.90941  2.10895    9250.85562  48.75339  18.91585  55934.92416    51.19863        44.6023   10.81733  30.28854   34.0     0.3285  -21.35094  0.99756 
   -7.17106  0.36403  1.26672     14.38002  1.57042  0.69054   6.16395  0.09886     0.18746  10584.27418   6899.11402  0.39128         4286.56647     21.27214  1.03961  55898.91094   4.11916  2.24384   40658.89765  47.65034  18.94053  55934.92416     51.1771       44.59364   12.84147   28.2644   38.0     0.3633  -21.65538  0.98041 
   -5.83538  0.24593  0.92515     14.53801  1.90649  0.67688  12.02424  0.06081     0.19058  11935.91759   8562.52603  0.39847          4711.3976     21.33568  1.20339  55900.24662  10.21872   2.9571   12718.71743  48.51221  18.88998  55934.92416    51.29484       44.74738   12.33158  27.38846   31.0    0.37112  -21.93866  0.99273 
   -5.05651  0.07293  0.98735     14.48855  1.92449  1.50126  32.89098   0.0259     0.27992  10717.86068   8438.94842  0.53584         5175.86217     21.20248  0.88554  55901.02549  22.53825  2.39874   18364.01366  48.30025  18.95071      55936.4    51.17232       44.58957   12.33158  30.24069   32.0    0.36952  -21.67303  0.99544 
    -4.8344  0.14837  0.91054     14.80733  1.69963  0.32458  18.81825  0.03661     0.43202  10897.15145    7946.7807  0.50839         5586.26561     21.29118   1.0862   55901.2476  13.33007  2.79204    3177.68842  49.07849  18.90598  55934.92416     51.2619       44.71206   10.16811  27.72224   32.5    0.39887  -21.86386  0.99252 
   -6.91273  0.13601  1.31141      14.7031  1.99257  0.70292  16.19079  0.05812     0.38886  12466.44275    6397.8897  0.15706         4693.92174     21.12529  0.74133  55899.16927  15.00999  2.20211   12488.49186  48.23627  18.90568  55934.92416    51.12123        44.5361   12.36848  30.16605   34.5    0.34286  -21.35314  0.99018 
   -6.23335  0.06366  0.89177      14.8801  1.90943  0.36867  40.63824  0.01847     0.06906  11146.59185   7156.73716  0.43313         5146.00734     21.24479  0.97615  55899.84865  30.11939  2.58714    2449.25906  49.26021  18.90479  55934.92416    51.07692        44.4799   10.81733  31.22347   33.0    0.37311  -21.69955  0.99588 
   -5.09139  0.12176  1.21528     14.22885  1.62939  1.52499  16.95506  0.03691     0.25601  11142.36638   7040.52846  0.50482          4590.9467     21.29111  1.08602  55900.99061  12.55687  2.06443   77891.94814  47.42003  18.88753  55934.92416    51.34048        44.8079   10.81733  27.54913   33.5    0.40083  -21.84281  0.98495 
   -4.41548  0.09686  0.85827      14.5615  1.54117  0.86115  22.60253  0.03774     0.09768  11122.25776   6937.98993  0.59651         5390.25227     21.10128  0.70146  55901.66652    16.679  2.18938    7941.68464  48.68953  18.92778  55934.92416    51.09246       44.48592   12.36848  31.03405   33.0    0.34884   -21.3881  0.99685 
   -6.99954  0.46729  0.86314     14.48465  1.77105  0.93416   5.14832  0.16536     0.41343  11501.60543   6006.46307  0.37309          4566.7553     21.23638  0.95743  55899.08246   4.06265  2.40578   13149.26735  48.52601  18.90389     55932.72    51.16992       44.59562   10.81733   28.9027   36.0    0.33869  -21.50369  0.99587 
   -5.72221  0.17757  0.72528     14.35036  1.71793  1.56524  17.54176  0.04311     0.21807  11527.91662    7965.2181  0.42239         4675.47742     21.28616  1.07372  55900.35979  13.90599  3.11496   16715.41186  48.55972  18.96233  55934.92416    51.34898       44.81594   10.81733  27.54913   32.0    0.35108  -21.78974  0.99665 
   -6.08081  0.06811  0.72691     14.52448  2.15168  1.05508  42.31824  0.02106     0.13052  13167.16314   6977.74505  0.29751         4293.75551      21.3298  1.18722  55900.00119  43.76623  2.88231     9431.8525  48.90407  18.95102  55934.92416     51.2377       44.69173   12.84147  26.87856   31.5    0.37901  -21.96892  0.99809 
   -6.62874  0.23419  0.97032     14.54373  1.75116  1.09426  11.49111  0.09645     0.16248  13041.23538    7228.0497  0.28642         5662.58848     21.11437  0.72293  55899.45326  11.65807  2.69109   12517.66551  48.44081  18.91445  55934.92416    51.22411        44.6471   12.33158  28.77429   35.0    0.32643  -21.38553  0.99515 
   -5.51219  0.09417  0.81399     14.51846  1.65605  0.87925   25.4437  0.03579     0.17266  11831.43108   7560.62693  0.49841         4874.51513     21.20936  0.89968  55900.56981  21.24623  2.39609    9358.70271  48.69546  18.89592  55934.92416      51.236       44.67746   10.20501  28.73739   30.0     0.3807  -21.75389  0.99678 
   -6.05481   0.1558  1.43444     14.73356  2.14591   0.7743  15.14916  0.05901     0.35662  12435.88935    6789.1126  0.27587         5308.67335     21.14061  0.76796  55900.02719  13.97556  2.36016   13985.26609  48.14142  18.91516  55934.92416    51.21923       44.64015   10.81733  30.28854   32.0    0.37424  -21.53922  0.98879 
   -5.98427  0.13506  1.25008     14.86806  2.08827   0.5068  17.08389  0.05656     0.46411  12179.57005   6951.13492  0.39999         4808.11563     21.16736  0.81674  55900.09773  15.11742   2.3074    5563.67914   48.6494  18.94231  55934.92416    51.21641       44.63407    12.9808  30.28854   32.0    0.34067  -21.62816  0.99236 
   -7.13436   0.0489  0.71668      14.4145  1.70916  1.37008  50.17921  0.01673     0.05832  10872.20746   7359.75619  0.55665         4019.80721     21.20398  0.88859  55898.94764  35.38233  2.45396   12085.39646  48.70871  18.93135  55934.92416    51.28149       44.71836    12.9808   28.9027   36.0    0.31983  -21.36966  0.99797 
   -6.33762  0.11859  1.11693     14.65492  1.46419  0.67777  14.40545  0.07835     0.19877  11864.50046    6202.0244  0.43986         5202.21391     20.88405  0.42538  55899.74438  12.09631  1.70836    8310.35213  48.41877  18.89419  55934.92416    51.28214       44.72286   10.20501  28.73739   34.5    0.33005  -21.12203  0.99376 
   -6.45175  0.09156   0.9135     14.46087  1.69728  1.10661  29.84913  0.02863     0.18542  11855.35173   7258.04675  0.33324         4889.12478     21.17969  0.84027  55899.63025  25.02579  2.73285   15748.37769  48.37995  18.91397  55934.92416    51.28247       44.74345   10.16811  27.38846   34.5    0.34425   -21.4965  0.99463 
   -7.22675  0.18964  1.28049     14.48348  1.88947  1.12621  12.48305  0.06516      0.3234   11554.4284   7122.19331  0.31708          5305.1993     21.17817  0.83733  55898.85525   9.94134  2.36733   31041.82703  47.83848  18.94679  55934.92416     51.2276        44.6648    12.9808  28.12507   35.0    0.34391  -21.45957  0.98778 
   -7.87313  0.27155  1.34181     14.48397   1.8284   0.9163   8.80819  0.10513     0.37985  12976.28037   7133.50395  0.20504         3667.82363     21.21173   0.9046  55898.20887   8.84737  2.39185   32909.61293  47.75821  18.93396  55934.92416    51.31799       44.76697   12.33158  26.61083   34.5    0.35408  -21.47721  0.98386 
   -5.47308   0.0992   0.7131     14.23737  1.57361  1.55484  26.25012  0.02515     0.21338  10483.01685   8086.66313  0.48835         4708.42448     21.31641  1.15116  55900.60892  17.20803  2.60414   24904.49696  48.36317  18.92002  55934.92416    51.28028       44.71724    12.9808  28.12507   31.0    0.36945  -21.93609  0.99595 
    -5.5609  0.11541  0.88476     14.48012  1.51766  0.94144  21.85956   0.0411     0.20511  11970.64203    6872.0087  0.41276         4695.35527     21.14462  0.77508   55900.5211  18.68545  2.52285   12088.99901  48.47398  18.95048     55935.73    51.33629        44.7821   10.81733  27.54913   33.0    0.36086  -21.54919  0.99499 
   -5.43024  0.07391  0.90639     14.92068  1.92297  0.35738  33.95321   0.0261     0.26053   11819.5366   7205.88789  0.40424         5293.39862     21.23435  0.95296  55900.65176  28.29495   2.5095    2113.73628  49.31314  18.93261  55934.92416    51.33924       44.78012   10.81733  27.54913   31.5     0.3949  -21.91808  0.99618 
   -6.18986  0.28131  1.05599     14.55131  1.87215  0.94341   8.45648   0.0859     0.35109  10887.52945   6631.96828  0.46333         5135.48981     21.19212  0.86467  55899.89214   5.97964  2.37888    15305.7886  48.30901  18.94203     55935.73    51.10973       44.51466   12.36848  30.20379   33.0    0.35516  -21.59207  0.99366 
   -6.87282  0.16299  1.45818      14.6782  1.98659   0.6126  13.07461  0.06758     0.15213  12515.44984   6537.75257  0.25991         4719.58628      21.2028  0.88618  55899.20918  12.21656  2.13105   17264.60906  48.00217  18.91524  55934.92416    51.22075       44.65035   12.84147   28.2644   34.0    0.35985  -21.56608  0.98478 
