 log(Bfield)      Mns    Pspin  cutoff_power  cutoff_wavelength  fnickel    kappa  kappagamma   mejecta  log(nhhost)  temperature  texplosion  thetaPB      vejecta      A_V        MJD_0   log(KE)      M_Ni  Peak_mag     Peak_MJD 
    14.31137  1.51936   1.0879        0.0628         4146.58557   0.1917  0.03467     0.16409  18.72694     21.35459   5742.17572    -3.55154  0.80385  13808.04434  1.25696  55902.53046  52.93541   14.5256   18.9016  55933.51914 
    14.31402  1.92871  3.49123       0.21294         4863.22428  0.18321   0.0449     0.20698  11.48993     21.19315   5310.20919    -4.49301   1.4449  12347.10158  0.86672  55901.58899  52.79577  12.58821  18.89062  55933.51914 
    14.39965  1.68625  1.82374       0.00985         5418.82205  0.21806  0.04231     0.36565  12.24148     21.32174   3846.19876    -4.67154  0.63335  13407.04655  1.16538  55901.41046  52.87306  15.18252  18.88628     55932.72 
    14.19272  1.84628   1.2224       0.00167         2059.91923  0.36135  0.06654     0.20106   7.70469     21.36816   9814.77443    -6.58143  1.54768    12168.911  1.29685  55899.50057  52.74498  22.73916  18.89595  55933.51914 
    14.35483  1.72707  0.79639       0.03784         3603.24359  0.35093  0.04787     0.22727  11.64542     21.40022   8812.90835    -3.89849  0.75157  13000.79717   1.3962  55902.18351  52.84181  24.18031  18.92919  55933.51914 
    14.23148  1.70358  1.27649       0.10296         3853.49516  0.33932  0.07223       0.328   7.44103     21.37172   5523.71344    -4.63348  0.98991  12540.49747  1.30752  55901.44852  52.76762  21.18231  18.91421     55931.35 
    14.68766  1.86179  0.77355       0.55594         2024.64114  0.31332   0.0484     0.17032  14.77447     21.13744   7334.61764     -3.8123  1.09861  13226.07159  0.76237   55902.2697   52.8779  22.66725  18.90173  55933.51914 
    14.27549  1.72387  1.11822        0.0754          5900.2728  0.19541    0.044     0.14587  11.61967     21.38413   6654.84201    -4.28714  0.84981  12179.03656  1.34541  55901.79486  52.78489  13.45827  18.92253     55932.72 
    14.38939   1.9968  1.22808       0.19847         3764.66601  0.13097  0.02112     0.48462  23.95943     21.39219   6922.70877    -3.20694  0.82556  12577.63651  1.37063  55902.87506   52.8743  10.39061  18.89558     55932.72 
    14.35944  2.16068  1.27324       0.02288         3561.46169  0.05847  0.01854     0.24156  31.83288     21.37121   9824.91635    -4.62905  1.15084  13005.12181  1.30597  55901.45295  52.92526   4.87868   18.8824     55932.72 
    14.15187  1.38155  1.55669       0.00325         4588.82413  0.13098  0.03127     0.30157  17.63608     21.30925   8619.79047    -5.09756  0.90945  12805.88633  1.13234  55900.98444  52.86496   9.81073  18.87412  55933.51914 
    14.34778  1.80628  1.56431        0.0086         4995.56816  0.07835  0.01665     0.12475  37.07482     21.35419   3188.93276    -5.49014  0.80968  13434.88824  1.25579  55900.59186  52.96482   6.71105  18.91621     55932.72 
    14.28138  1.71781  1.52083       0.22908          2016.1334  0.35942  0.07549     0.27257   8.60498     21.31513   4625.51334    -4.68728  1.23563  13712.72894  1.14778  55901.39472  52.85962  23.19216  18.86985     55932.72 
    14.16936  1.60256  1.33507       0.02633         3246.26511  0.18488  0.03265     0.47436  16.41009     21.34504    6972.9426    -4.47131  1.13601  12750.71284  1.22962  55901.61069  52.85512  13.65617  18.88815     55932.72 
    14.19978  1.92926  1.36495       0.01016         3955.93884  0.27256  0.05514     0.46217  10.26669     21.38656     5381.748    -5.14622   1.4629  12799.35834  1.35298  55900.93578   52.8166  18.28354  18.90362     55932.72 
    14.23257  1.67686  1.26795       0.15335         2193.76596  0.35867  0.06537     0.19462   8.86561     21.38087   9186.77489    -4.73158  0.89489    13001.172  1.33535  55901.35042  52.81623  23.29863  18.91988     55932.72 
    14.13416  1.35306  2.30701       0.04751         4813.76267  0.14736  0.02586     0.06762  21.69031     21.17774   6396.96463    -6.68325  1.37379  12532.66889   0.8365  55899.39875  52.86324  11.47878  18.85481     55931.35 
    14.09454  1.49376  1.85548       0.05452         5657.53244   0.0464  0.01386      0.0843   38.8716       21.326   6645.72675     -6.5205  1.07688  12703.04048  1.17686   55899.5615  52.91963   4.00556  18.87513     55932.72 
    14.37371  1.59497  0.83552       0.13836         3889.88419  0.12778   0.0323     0.35086  15.16422     21.42414   9429.90416    -4.04105  0.48409  12331.52065  1.47526  55902.04095  52.81932   9.29243  18.87007     55932.72 
    14.25897  1.81714  2.12772       0.18606         3984.77236  0.08194  0.01766     0.07759  32.83558     21.30317   3378.44034    -3.25124  1.37873  13239.81068   1.1166  55902.83076  52.94312   6.87419  18.92909    55932.136 
    14.31771  1.67414  1.24584       0.00524         2202.32905  0.09616   0.0173     0.19913  38.28204     21.33182   5150.29621    -3.08784   1.0219  13945.05859  1.19275  55902.99416  52.99954   8.28093   18.8772     55932.72 
     14.3861  1.59386  1.26978       0.03488         4335.13245  0.24656  0.03884     0.38232  13.77073     21.34011   5030.36452    -4.19282  0.64417  12711.99446  1.21572  55901.88918  52.83731  17.58674   18.9478     55932.72 
    14.14552  1.44292  3.15811        0.1185         4867.29915  0.13373  0.03162     0.07128  17.76453     21.13168   5600.53888    -5.83928  1.53014  12585.17109  0.75233  55900.24272  52.85047  10.03079  18.91392     55932.72 
     14.2224  1.68026  3.37375       0.11594         4194.28308  0.06892  0.01541     0.39685  31.99557     21.16375   3691.87243    -4.79207  1.35135  12455.89625  0.80999  55901.28993  52.88816   5.75645    18.914  55933.51914 
    14.14927  1.71884  2.27921       0.11005         4299.57174  0.06977   0.0251     0.20075  20.04945     21.32121   4662.01918    -6.47579  1.10982  12010.18278  1.16396  55899.60621  52.81986    5.3558  18.92013     55931.85 
    14.25524  1.77045  1.85087       0.04873         3805.50601  0.17415  0.03965     0.27521  14.30943     21.30676   7738.71416    -4.31481  1.22401  12929.89169  1.12588  55901.76719  52.85544  12.51804  18.89924     55932.72 
    14.24467  1.81998   2.4998       0.03917         5429.61784  0.10982  0.03111     0.16588  20.54682     21.28052   9956.32145    -4.56168  1.42577  13590.40835  1.05986  55901.52032  52.92923   8.46872  18.95338  55933.51914 
    14.21144   1.6207  1.81945       0.09187         5113.90412  0.07427  0.02279     0.17091  22.61467     21.32051   5638.89243    -4.72353  0.92303  12542.81647  1.16209  55901.35847  52.86729   5.82997  18.94397  55933.51914 
    14.15641  1.60657  2.12629       0.24203         2595.62987  0.22807  0.04312     0.15294  12.50532     21.28129   8035.31896     -4.4399  1.46876  12617.49571  1.06175   55901.6421  52.82226   15.9495  18.88777  55933.51914 
    14.22246  1.82629  1.19246       0.00567         5159.47776  0.09511  0.01997     0.15798  29.11041      21.3706   6057.64029     -6.1905  1.23082  12822.35824  1.30415   55899.8915  52.90619   7.81385  18.87091     55932.72 
    14.12373  1.49416  2.10789       0.14798         3006.39817  0.13599  0.03425     0.34584  15.84279     21.27479   8849.29703    -4.19942  1.31925  12862.62623  1.04597  55901.88258  52.85971   9.97511  18.92242    55932.136 
    14.24721   1.7205  2.16355       0.02254         4909.91891  0.13219  0.04194     0.28574  13.93751     21.29047   3606.32995    -6.19903  0.95354  12942.09114  1.08443  55899.88297  52.85395   9.45143  18.91079     55932.72 
    13.99743  1.41532  1.96288       0.07187         4405.88569  0.07085  0.02151     0.23899  19.42477     21.31232   8720.40835    -5.10217  1.13908  11897.52784  1.14036  55900.97983  52.80908   5.40577  18.89433     55932.72 
    14.21452  1.88507  1.29781        0.0289         4096.62294  0.24717  0.07213     0.29951   8.24117     21.37666    6145.5677    -4.91045   1.3613  13051.47226  1.32248  55901.17155  52.81246  15.79487  18.91651  55933.51914 
    14.26263  1.47882  1.22612       0.04267         3467.31594  0.09693  0.01716     0.32224  33.17581     21.36929   7271.79431    -4.32095  0.72611   12798.9564  1.30023  55901.76105  52.91448   8.14663  18.91168     55932.72 
    14.23328  1.65591   0.8067       0.19748         4100.91079  0.13615   0.0229     0.10212  19.10868     21.43113   9350.83866    -3.24289  0.77846  11420.66746  1.49918  55902.83911  52.77219  10.35589  18.93066  55933.51914 
    14.39056  1.58243  1.27683       0.51546         2261.96279  0.21797  0.02833      0.2501  22.14896     21.24501   4872.29613    -3.30254  1.03637  12332.29067  0.97665  55902.77946  52.85092  17.04524  18.91253  55933.51914 
    14.17024  1.46312    0.736       0.03997         4592.49333  0.27743   0.0341     0.06269  15.20446     21.37829   5276.20496    -4.00692  0.99771   12521.5808  1.32745  55902.07508  52.83284  20.18601  18.85422     55931.85 
    14.30017  1.62034  2.24243       0.10854         5289.92171  0.06922  0.03081     0.23652  14.33267     21.30479    3412.1153    -6.52835  0.59333  11463.68198  1.12077  55899.55365  52.75104   4.97762  18.89052     55932.72 
    14.32737  1.73073  0.74099       0.00101         3993.01319  0.08634  0.01342     0.18931  44.93378     21.38636   7001.54269    -3.47176  0.91899  14027.77778  1.35234  55902.61024  53.01621   7.63514  18.95624     55932.72 
    14.43595  2.10188  2.43948       0.03904         4035.66856   0.0966  0.03139     0.14754   16.6177     21.32117    5116.6326    -5.21296  0.72118  12470.88005  1.16384  55900.86904  52.83692   7.15253  18.90762     55932.72 
    14.31831  1.83439  1.79715        0.0097         5763.70919  0.13594  0.02666     0.18858  21.42267     21.31914   5798.34208    -5.48441  0.94216  12710.46461  1.15841  55900.59759  52.87447  10.56474  18.91949     55932.72 
    13.92343  1.10392  1.23224       0.00105         4226.44955   0.0589  0.01276     0.27754  46.81953     21.31266    7188.2222    -5.63998  1.35923  13047.56013  1.14126  55900.44202   52.9562   5.24363  18.90214     55932.72 
    14.26862  1.97164  3.00341       0.15319         3561.42628   0.0858   0.0247     0.09195  21.00656      21.2347   7209.49949     -5.3586   1.4552  12698.54999  0.95373   55900.7234  52.87207   6.64389  18.96027  55933.51914 
    14.29593  1.65952  1.38554       0.00534         5778.21749  0.06055  0.01529     0.05869  41.10201     21.30535   7965.89802    -3.88834  1.03173  13503.27541  1.12221  55902.19366  52.97673   5.27677  18.86283     55932.72 
    14.31124  1.86366  1.34955       0.00475         5039.15575  0.20708  0.02793     0.10906  21.73501      21.3484   8710.99282    -5.01752  1.19636  13163.42714  1.23917  55901.06448  52.90606   16.1369  18.92724     55932.72 
    14.09668  1.86729  1.19421       0.25735         3842.94106  0.09074  0.05883     0.29861   7.72248     21.43646   7625.28097     -3.5271   1.4489  11585.46751   1.5177   55902.5549  52.70253   5.71301  18.90197    55932.136 
    14.19853  1.72375  1.14464       0.03031         5647.48601  0.04886   0.0105     0.09878  56.08011     21.37047   7594.55784    -6.98725  1.13545   12792.1483  1.30376  55899.09475  52.95158   4.47685  18.92013     55932.72 
    14.30197  1.89339  2.58069       0.15309         3868.04299   0.4069  0.08332     0.21633   6.45715     21.27342   4317.65015    -5.07309  1.17332  12486.86686  1.04268  55901.00891  52.74939  24.56614  18.91747  55933.51914 
     14.3088  1.74042  2.20283       0.10442         5211.82454  0.14739   0.0444     0.43284  11.80391     21.27761   3966.71583    -3.37264  0.90871  12846.52793  1.05278  55902.70936  52.83267  10.18423  18.89563     55932.72 
    14.38184  1.89855  1.43712       0.05653         2839.04608  0.19493  0.02791     0.05943  19.22062      21.3705   6730.01419    -6.06817  0.74529  12328.11123  1.30385  55900.01383  52.83909  14.84355  18.90434  55933.51914 
     14.3063  1.59831  1.94201       0.18408         4218.60866  0.25851  0.06381     0.39844   8.38945     21.29092   4285.88584    -4.27124  0.78191  12521.54023  1.08556  55901.81076  52.77821   16.5859  18.90619  55933.51914 
    14.29882  1.85885  1.05711       0.00924          5843.6001  0.36422  0.06959     0.47752      8.55     21.38933   4958.68925    -4.41124  0.96967  13184.05935  1.36162  55901.67076  52.82484  23.46849  18.90984  55933.51914 
    14.01504  1.56733  1.65115        0.2613         2463.72218  0.09983  0.05443     0.37376    9.7995     21.36715    4283.7198    -6.07997  1.34955  12369.85082  1.29382  55900.00203  52.78257   6.62953   18.9013     55932.72 
    14.30213  1.48669  1.33319        0.0751         2382.32864  0.14835  0.03196     0.12934  16.31375     21.37142   6669.62225    -5.95241  0.53999  12720.09826  1.30661  55900.12959  52.85254  10.94509  18.90149  55933.51914 
    14.20026   1.4185  1.75514       0.02012         2903.24869  0.05016  0.02592     0.21203  21.27663      21.3233   9119.65468    -5.11905  0.69152  13383.70016  1.16956  55900.96295  52.91875   3.89312  18.87863  55933.51914 
    14.38112   2.0576  1.60177       0.07023         5640.29126  0.37519  0.04831     0.18632  11.10986     21.34577   8969.22871    -4.78286  1.06107   12442.5566  1.23167  55901.29914  52.79937  25.59598   18.8925  55933.51914 
    14.29882  1.61706  1.57154       0.01108         4495.07789  0.31368  0.04699     0.16066  12.23366     21.32876   3088.10073    -6.11733  0.78494  12728.52409  1.18437  55899.96467  52.82789  21.83705    18.892     55932.72 
    14.17102  1.37595  1.95921       0.05439         5162.07348  0.07574  0.01926     0.08158  26.21427     21.27497    5015.0595    -6.44292  0.76129  12046.72171  1.04641  55899.63908   52.8439   6.10773  18.94991  55933.51914 
     14.1747  1.53826  1.75794       0.08413         3204.34712  0.05426   0.0173     0.03906   33.8105     21.32898   8209.46262    -5.19609   0.9199  12987.76948  1.18497  55900.88591  52.92861   4.57523  18.90332  55933.51914 
    14.22867  1.75584  1.07654       0.27525         2113.18356  0.15339  0.02642     0.25815  20.92932     21.38208   7848.18247    -4.38641  1.09393  12677.19627  1.33909  55901.69559  52.87031  11.86925  18.91058     55932.72 
    14.25111  1.57938  2.96278       0.02372         5806.13321   0.0694  0.02066     0.06963  28.76019     21.19999   4472.03373    -4.89212    0.944  13607.22576  0.88048  55901.18988  52.95686   5.68921   18.8891  55930.39821 
    14.42132  1.55177   1.6816       0.33981         4444.41192  0.18651  0.03747     0.09057   9.75524     21.33758   5085.19103    -4.35878  0.43786  10362.97717  1.20868  55901.72322  52.62838  12.37359  18.99499     55932.72 
    14.14662  1.49661  2.38742       0.12244         2463.13507  0.21394  0.09011     0.37993   5.71926     21.27435   8142.36749    -8.02355  0.85931  12449.92773  1.04491  55898.05845    52.734  12.54117  18.88251  55933.51914 
    14.16636  1.28481  1.25097       0.05658         4694.79273  0.14882  0.02529     0.32354  24.65697     21.27695   5042.96546    -4.33357  1.11448  13690.99355  1.05117  55901.74843  52.95024  11.86841  18.87783  55933.51914 
    14.29287  1.76005  0.79649       0.02781         4990.79557  0.37495  0.06103     0.31775   8.97279     21.40636    3080.2105    -3.76941  0.87414  12814.14436  1.41606  55902.31259   52.8048  24.42147  18.91331    55932.136 
    14.07401  1.41244  2.55453       0.09563         5631.03334  0.06274  0.01625      0.0398  30.51781     21.21203   3375.18294    -5.04162   1.4427  12260.59305  0.90523  55901.04038  52.87087   5.19735  18.95067  55933.51914 
    14.16279  1.53808  1.42729       0.05606         2632.91433  0.14052  0.03336     0.16519   17.4451     21.35114   3025.20522     -5.8836  0.93902  12844.89768  1.24701   55900.1984  52.86669  10.50347  18.87327     55932.72 
    14.36944  2.01422  1.56364       0.13591         4824.42163  0.11546   0.0281     0.09012  16.84517     21.35804   7761.85279    -5.89914  0.82324  11655.22945  1.26696  55900.18286  52.77932   8.57196    18.904  55933.51914 
    14.62202  1.30998   1.1202       0.37023         2075.61454  0.18308  0.03489     0.22828  17.42774     21.32504   6815.01185    -3.02946  0.29083  13332.82523  1.17428  55903.05254  52.89899  13.68225  18.89786  55933.51914 
    14.35802  1.47532  3.05065       0.23178         5104.31716  0.14188  0.04831     0.17304  10.06142     21.17879   3297.36518    -5.48326  0.57463  12121.78353  0.83852  55900.59874  52.76746   9.47589   18.9342  55933.51914 
     14.2111  1.53753  1.96623       0.16788         4036.72884  0.36063  0.06255     0.43285   8.24576     21.31508   5897.14344    -5.12281  0.88114  12112.44215  1.14766  55900.95919  52.74766  23.04812  18.95979     55932.72 
    14.17404   1.5183  1.86154       0.05856         3852.19987  0.09352  0.01681     0.44197  33.37292     21.26995   6693.03205    -4.79807  1.45762  12707.01462  1.03437  55901.28393  52.90866   7.86738   18.8951     55931.34 
    14.16303  1.59081  1.25999       0.03749         3894.46004  0.26018  0.06256     0.41304   9.10657     21.37202   5091.92116    -4.62011  1.00837  13359.20239  1.30842  55901.46189  52.84241  17.00202  18.89432     55932.72 
    14.28405  1.91485  2.45291        0.0206         4071.35432   0.1049  0.03031     0.11564  20.40162     21.26225    4309.0353    -5.08304  1.55245  13262.55807  1.01619  55900.99896  52.90744   8.07865  18.89715  55933.51914 
    14.27627  1.43464  2.05332       0.00764         3506.92453  0.13376  0.04077     0.10252  14.23082     21.25958    9157.6572    -5.82458  0.66982  13045.30461  1.00997  55900.25742  52.86268   9.60463   18.8679  55933.51914 
    14.16286  1.51856   1.8169       0.10608         2566.27543  0.11786    0.025       0.202  24.77053     21.29143   4202.66898     -4.9846  1.23787  13279.55098  1.08681   55901.0974   52.9241   9.40737  18.90354  55933.51914 
    14.31799  2.09395  2.99777       0.05869         4267.64016  0.14451  0.03836     0.25006  13.98307     21.26117   3059.54958    -6.38228  1.32204  12649.53143  1.01367  55899.69972  52.83438  10.33972  18.92421  55933.51914 
    14.31795   1.6422  2.78344       0.21199         5724.22851  0.05922   0.0227     0.10732  22.50561     21.22902   4572.64085    -5.15274  0.76002   12131.7404  0.94133  55900.92926  52.83796   4.64472   18.9088     55932.72 
    13.96284  1.26988  1.59184        0.0217         3341.86199  0.25491  0.06415     0.22439   7.82689     21.31551   6908.22175    -6.00463  1.20777  12079.71413  1.14879  55900.07737  52.74016   16.0995  18.92353  55933.51914 
    13.98292  1.18159   1.2737       0.11095         3016.28024  0.25614  0.07946      0.3113   6.54314     21.35158   7877.53472    -5.06736  0.90371  12531.96514  1.24827  55901.01464  52.75389  15.51358  18.95007     55932.72 
    14.48541  1.90538  0.78712       0.20728         5425.57837   0.2031  0.02164     0.14089  26.49825     21.29787   8757.76388    -3.46472  1.20607  11253.39586  1.10305  55902.61728  52.78557  16.40913  18.91613  55933.51914 
    14.33484   1.7249  3.58789       0.12848         3186.03945  0.17124  0.09354       0.235   5.48207     21.14428   7845.17651    -8.37746  0.71081  11999.59953  0.77447  55897.70454  52.69744   9.93316  18.91874  55933.51914 
    14.41021  1.78365  2.15042       0.05445         4969.94831  0.19456  0.03599      0.1481  16.20516      21.2219   4205.70861    -3.89413  1.02323  13035.49644  0.92603  55902.18787  52.87324  14.33572  18.88574     55932.72 
    14.16114  1.55522  1.84857         0.255         2246.34308  0.10442  0.02505     0.36825  22.87601     21.33793   4724.23108    -5.05063  1.01534  12972.38863  1.20964  55901.03137  52.89746   8.21425  18.91103  55933.51914 
    14.30906  1.70083  1.88054       0.00352           4911.806  0.07033  0.02841     0.12224  19.13244     21.35689   7746.50069    -6.53666  0.62127  12700.56097  1.26363  55899.54534  52.86456   5.35079  18.88625    55932.136 
    14.16085  1.61246  1.60046       0.19091         2826.97381   0.1366  0.02541     0.12564  23.55312     21.34847   5510.83555    -4.82594  1.17859  13226.65284  1.23936  55901.25606  52.91664  10.80334  18.92384  55933.51914 
    14.03723   1.2677  2.43773       0.21505         4336.34359  0.08742  0.02849     0.40926  19.85457     21.19201   7936.43612    -4.81598  1.53985  12888.59703  0.86444  55901.26602  52.88037   6.69829  18.88706     55932.72 
     14.5141  1.95528  1.01921       0.42392         2142.56434  0.07037  0.01061     0.16111   63.2257      21.2477   7616.37212    -5.06628  1.21116  12005.94507  0.98272  55901.01572  52.90463   6.57035  18.93583  55933.51914 
    14.17725  1.57916  1.63808       0.04224         2872.97714   0.2103  0.04218     0.13898  12.83766     21.28853    9247.7156    -4.91826   1.3653  12542.28618  1.07959  55901.16374  52.81941  14.78654  18.88241  55933.51914 
    14.42024  1.80907  1.29496       0.16869         3478.46444  0.17109  0.02988      0.4937  18.44661     21.36412   6288.88796    -4.40607   0.6908  12603.19531  1.28484  55901.67593  52.85485  12.92697  18.96622  55933.51914 
    14.04387  1.47798  1.20811       0.03894          3186.9739  0.15216  0.03471     0.32707   15.2849       21.364   8895.48952     -4.8204     1.47  12455.85378  1.28448   55901.2616  52.82872  11.08274  18.87809  55933.51914 
    14.11431   1.6445  2.78131       0.32089           4481.921  0.05072  0.01632     0.07624  27.21458     21.25672   3397.64481    -4.75637  1.51419  11798.32712  1.00333  55901.32563  52.82871   4.11705  18.91911     55931.85 
    14.47994  1.93744  1.91068       0.10673         4860.30574  0.08474  0.02774     0.42673  18.20553     21.32598   6753.28366    -5.26898  0.58144  12095.08645   1.1768  55900.81302  52.81801   6.38673  18.86048     55932.72 
    14.29018  1.63282  2.09829       0.08397         4755.48924  0.15451  0.04911      0.3118  10.77969     21.30257   7219.95501    -6.27885  0.71154  13081.01947  1.11505  55899.80315  52.84005  10.47356  18.89585     55931.35 
    13.93857  1.36154  2.33832       0.09724         5382.79517  0.07292  0.04444     0.19514  11.60597     21.26884   9861.99219    -7.21545  1.56182  12012.45897  1.03173  55898.86655  52.77282    5.0211  18.89968     55932.72 
      14.254   1.9934  1.09349       0.00312         4877.37834  0.18147  0.03785     0.22688  15.30162     21.39532   8459.79861    -4.21796  1.43815  13276.65501  1.38055  55901.86404  52.88424  13.22021  18.91459     55932.72 
     14.0831  1.57299  2.07341       0.19685         5416.48192  0.07084  0.02237     0.10493  20.33513     21.30716   9063.46914    -5.36255  1.25231  11382.08227  1.12691  55900.71945  52.77436   5.45209  18.92401     55931.85 
    14.27264  1.91566   2.5154       0.06619         2333.93428  0.07389  0.04393       0.231  13.62668     21.28516   6792.41272    -5.33939  1.05783  13129.45528  1.07125  55900.74261  52.86445   5.25891  18.90584  55933.51914 
    14.15687  1.54503  1.78746        0.0391         4055.97542  0.10153  0.02478     0.48508  21.47321     21.29819   8497.79618    -4.78983  1.13944  12352.41307  1.10388  55901.29217  52.84984   7.89381   18.9079     55932.72 
    14.43516   1.8767  1.96179       0.06265         5157.65676  0.08129  0.01675     0.23929  29.70996     21.31217   3969.18272    -6.24407  0.67014  12150.02676  1.13998  55899.83793  52.86096   6.70205  18.92089     55932.72 
    14.30512  1.91696  1.25019       0.02779         5736.94066  0.15663  0.02959     0.40812  18.39588     21.37195   6166.58848    -4.06967  1.03572  12783.64672  1.30821  55902.01233  52.86697   11.8279  18.91351  55933.51914 
    14.31893  1.81326  1.08363       0.07133         3153.92137  0.34034  0.05926     0.40325   9.24536     21.35387     6392.962    -4.62739  1.00164  12536.87797  1.25486  55901.45461  52.78868  22.31466  18.87052  55933.51914 
    14.07687  1.59289  0.85088       0.00051          4663.0849  0.32776  0.06887     0.36478   7.49556     21.42045    5601.3228    -5.78653  1.14215  12370.43988  1.46278  55900.29547  52.75649   20.4951  18.88387  55933.51914 
    14.22525  1.75843  1.34168       0.01042          5239.2544  0.27267  0.04588      0.3568   11.8764     21.34451    3067.2769    -5.80011  1.11729  12438.59963  1.22812  55900.28189  52.80519  18.86546  18.93296     55932.72 
    14.54549  2.02474  0.78962       0.01629         3651.38049   0.0688  0.01159     0.26326  52.83841     21.36422   5949.50809     -3.4427  0.72181  13372.08448  1.28512   55902.6393  52.98599   6.24536  18.90897     55932.72 
    14.14633  1.60168  1.86049       0.01434         3725.69406  0.12507  0.04462      0.2338  12.01371     21.30854   8493.69869    -6.09442   1.0759  12342.85687   1.1305  55899.98758  52.79953   8.67386  18.89988     55932.72 
    14.39931  1.71885  1.24365       0.17089         5288.00822  0.29374  0.03559     0.21191  15.28978     21.29148   6229.34215    -4.75535  0.91491  11560.97644  1.08695  55901.32665  52.76399  21.39644  18.89802  55933.51914 
    14.37695   1.3468  0.93472       0.26963         2310.73521  0.19043  0.03415     0.27294  15.00505      21.3732      6283.21    -4.23456  0.42648  12139.30522  1.31198  55901.84744  52.80476  13.81916  18.91155  55933.51914 
    14.28747  2.04012  1.71778       0.06072         5051.66644  0.07551  0.01841     0.05618  26.67202     21.34071   3007.25362    -5.38189  1.16037  11805.21852   1.2174  55900.70011  52.82766    6.1075    18.896  55933.51914 
    14.22468  1.73654  2.44129       0.09941         4965.68129  0.04479  0.01561       0.427  31.57363     21.30743   4067.34472    -5.51453  0.88406  12546.79531  1.12762  55900.56747  52.89348   3.73209  18.91908     55931.85 
    14.60912  1.68507  1.17035       0.10837         5056.43289  0.16033  0.02287     0.28884  28.98871     21.18339   7569.24066    -3.43385  0.81794  12370.98114  0.84746  55902.64815  52.87474  13.16183   18.8667     55932.72 
    14.06164  1.45207  1.52844       0.00928         4459.45901   0.0674  0.02049     0.08768  23.64846     21.34619    5532.7603    -4.94089  1.03252  12634.06835  1.23287  55901.14111  52.87715   5.33425  18.91676  55933.51914 
    14.32922  1.58276  1.64342       0.10958         5757.16565  0.17927  0.04319     0.29734   12.1237     21.32563   5017.36439    -5.24915   0.6568  12774.23415  1.17587  55900.83285  52.83019  12.45628  18.93477    55932.136 
    14.10048  1.56929  1.44034       0.12054         4823.54733  0.17007  0.04533     0.31623   10.9092     21.36251   5648.73512    -5.07827  1.18091  12192.25404  1.28007  55901.00373  52.78004  11.55761  18.91338    55932.136 
    14.22886  1.87919    1.487       0.04543         3845.23469  0.06406  0.01423     0.13398  36.49509      21.3589   6625.10709    -4.30716  1.34368  12212.28134  1.26948  55901.77484  52.88079   5.47188  18.90771  55933.51914 
    14.43157  1.99279  1.41041       0.01503         5049.07202  0.28443  0.06007     0.43564    9.4674     21.36388    8259.5632    -4.54105  0.74917  12918.00042  1.28413  55901.54095  52.81696  18.74605  18.88516     55932.72 
    14.08001  1.54751  1.80833       0.03017         4630.42932  0.06189  0.01799     0.19402  28.03992     21.33188   4977.59075    -5.38617  1.18555  12752.15506  1.19291  55900.69583  52.89854   5.05094  18.90994  55933.51914 
    14.08339   1.7054  2.15593       0.29143         3105.54324  0.03913   0.0159     0.30743  27.94702     21.31971   5134.86522    -7.67222  1.37969  11698.67045  1.15994  55898.40978  52.82339   3.19122  18.88088     55931.85 
    14.24413  1.79721  2.01803       0.01891         2382.26515  0.14938  0.02338     0.07655  21.81877      21.3169   4255.74788    -5.54346  1.18097  12155.01002  1.15247  55900.53854  52.83714  11.64938  18.94107     55931.35 
    14.36912  1.78498  1.16502       0.08964         3971.65854  0.15512  0.02575     0.32518  22.38588     21.39463   3919.45563     -4.7025  0.69427   13098.9715  1.37836   55901.3795  52.90416  12.15462  18.86868     55932.72 
    14.21639  1.46693  0.99275       0.01991         4742.70128  0.15276  0.02775      0.1276  20.06314     21.33617   7760.45677    -3.95704  0.93724  12890.95824  1.20474  55902.12496  52.88139  11.72727  18.89959  55933.51914 
    14.15214  1.62021  1.46744       0.07355         2707.67433  0.06195  0.01735     0.20978  32.47492     21.35964   3236.79152    -6.35618  1.03935  12560.41117  1.27165  55899.72582  52.89654   5.18735  18.91588  55933.51914 
    14.20262  1.74151  1.61723       0.14507         2013.01381  0.09419  0.01928     0.07139  28.25754     21.34123   8700.51283      -4.724  1.28909  12550.15517  1.21886    55901.358  52.88527   7.69723  18.89589     55932.72 
    14.27687   1.2556  2.00092       0.10091         4261.15763   0.0871  0.02859     0.48995  20.18534      21.2631   9680.05185    -6.27355  0.49719     12859.26  1.01818  55899.80845  52.87975   6.69438  18.87548     55931.35 
    14.19574  1.45161  1.67184       0.03983         4437.28901  0.13547    0.038     0.20497  13.75321     21.33493   8933.67721    -4.60376  0.72586  12915.15969  1.20133  55901.47824  52.85097   9.65986   18.9005  55933.51914 
     14.2248  1.56476  2.18942       0.05185         5519.89191  0.16341  0.04752     0.21373  12.92338     21.27224    5811.7908    -4.61027  0.98261  13399.08354  1.03984  55901.47173   52.8774  11.50552  18.88086    55932.136 
     14.3345  2.03467  1.59793       0.14459         2135.27801  0.28584  0.05816     0.19074   8.81412     21.35961   7450.42061    -3.96432   1.0611  12718.97676  1.27156  55902.11768  52.79661   18.5434  18.94021     55932.72 
    14.05671  1.47439  1.22021       0.01083         3288.91443  0.21075  0.05593     0.30774   8.87477     21.39364   7384.46122    -6.28224  0.96861  12075.75361  1.37522  55899.79976  52.75219  13.69307   18.9328     55932.72 
    14.32977   1.9312  2.04598       0.04632         4405.62261  0.07033  0.01922     0.31076   31.7408     21.31379   3543.60242    -4.97039  1.02112   13213.1496  1.14424  55901.11161  52.93883   5.86545  18.91761     55932.72 
    14.48383  1.92853  1.13204        0.3164         2064.19435  0.24001   0.0316     0.12646  19.10566     21.30233   6603.94984    -5.67895  0.94958  12728.62583  1.11445  55900.40305  52.86636  18.25597  18.89426  55933.51914 
    14.18911  1.50151  1.89355       0.09155         4197.19498  0.08099  0.01803     0.33476  30.71272       21.297   5928.57097    -4.37189  0.96748  13260.57604  1.10084  55901.71011  52.93945   6.71622  18.91589     55932.72 
    14.16464  1.39705  1.65846       0.05975         4756.71042  0.16139  0.02977     0.21165  18.46639     21.26305   3757.31722    -4.57656  1.13105  12577.68457  1.01807  55901.50544  52.85318   12.1965  18.90439    55932.136 
    14.20892  1.54231  2.46795       0.06303         3852.49808  0.37551  0.09387       0.366   6.00718     21.21286   6505.96415    -4.55526  1.24511  13492.83521  0.90695  55901.52674  52.80911  22.27888  18.85718  55933.51914 
    14.02611  1.39439  1.54214       0.08996         2367.22089  0.27016  0.05661     0.28522   9.24453     21.34397    3124.4364    -5.63967  1.19959  12315.00257  1.22659  55900.44233  52.77316  17.71277  18.94395  55933.51914 
    14.28703  1.70098  1.53391       0.02775         4004.62289  0.13421  0.02684     0.19173   22.3616     21.32898   5830.96482     -5.1637   0.9569  13073.30785  1.18496   55900.9183  52.90237  10.51346  18.91293     55932.72 
    14.09081  1.43878  1.85661       0.02714         5701.79345  0.35938  0.08304     0.34293   6.55223     21.27935   5915.40471    -5.95622  1.28298  12375.29947  1.05699  55900.12578  52.74311  21.77357  18.91011     55932.72 
    14.14608   1.5529  2.28541       0.01781         4685.97083  0.25662  0.09495     0.28941   6.08952     21.26719   5821.85912    -6.22043  1.12302  13169.16436  1.02783  55899.86157  52.78945  15.27584  18.86896     55932.72 
    14.19535  1.32264  2.08887       0.01663         5191.86944  0.27914  0.05733     0.23545   9.67413     21.25815   3342.97993     -4.6926   0.8156   13089.3986  1.00665   55901.3894  52.83046  18.48459  18.87999  55933.51914 
     14.0906  1.45938  2.32688       0.30451         4367.40096  0.17909  0.05985     0.24846   7.87414     21.24164   6446.64116     -3.9113  1.54396  11807.13888   0.9691   55902.1707  52.72093  11.32642  18.92304  55933.51914 
    14.25489  1.77451  2.27713       0.19048         2389.44301  0.18013  0.04634     0.18205  11.58169     21.30065   5127.64073    -5.10883  1.01887  12864.64572  1.11014  55900.97317  52.83216  12.39699   18.8912  55933.51914 
    14.19633  1.82913  1.69455         0.186         2152.17705  0.27003  0.05292     0.46695  10.49563     21.35844   3990.04094    -5.19751  1.43609  13377.50433  1.26813  55900.88449  52.85703  18.19972   18.8623     55931.34 
    14.24248  1.70771  2.32325       0.00283         4973.30972  0.06959  0.01364     0.03988  39.97142     21.22946   4481.88861    -5.32365  1.56848  12551.16088   0.9423  55900.75835  52.91121   6.03635  18.92415     55932.72 
    14.09533  1.63853  0.90395       0.05202         2143.55491  0.19841  0.05639     0.33979   9.33888     21.41957   6007.40816     -5.3433   1.1137   12261.3733  1.45982   55900.7387  52.77034  13.03775  18.87183  55933.51914 
    14.20521  1.66796  1.22685       0.27063         2587.37499   0.2168   0.0386     0.31387  13.63824     21.37071   6621.51806    -4.70921  1.04579  12400.77323  1.30449  55901.37279  52.81493  15.43348  18.93655    55932.136 
    14.23599   1.8823  0.87664       0.03346         5120.19332  0.25914  0.03168     0.16756  16.80794     21.39703   6491.70379     -4.1788  1.54208  12627.13237  1.38598   55901.9032   52.8487  19.23097  18.87215     55932.72 
    14.17634  1.50724  1.07856       0.20543         2424.32189   0.1827  0.03397     0.19371  16.76017     21.34346   8569.60125    -2.95744  1.24555  13014.29618  1.22515  55903.12456  52.87469  13.55068  18.88899  55933.51914 
    14.22662  1.52676  1.04132       0.01773         3030.44534  0.18583  0.02975     0.13448  19.89747     21.36387   4680.45823    -4.28057  0.91388  13095.16357  1.28408  55901.80143  52.89436  14.24424  18.89859     55932.72 
    14.42346  1.88598  1.55373       0.14788         4778.01352  0.10548  0.02692     0.40961  19.50954     21.35412   4826.22665    -4.16324  0.68513  12392.17709  1.25558  55901.91876  52.84482   8.05483  18.90285  55933.51914 
    14.32888   2.0201  1.78003       0.06228         4409.50606  0.17403  0.08146     0.34104   6.55223     21.37688   6863.71572     -6.3507  0.80888  12251.54315  1.32315   55899.7313  52.73438  10.54401  18.92673     55932.72 
