 texplosion  fnickel    Pspin  log(Bfield)      Mns  thetaPB   mejecta    kappa  kappagamma      vejecta  temperature    alpha  cutoff_wavelength  log(nhhost)      A_V         MJD0   kenergy  mnickel            TSD   log(L0)  Peak_mag     Peak_MJD  log(E_rad)  log(Peak_lum)  Rise_Time    E_fold  tau_1  delta_m15     r_peak     frac 
  -19.29009   0.0301   1.5455     14.23901  1.73805  0.67221  21.99752  0.04226     0.03631   7607.03388   4484.12767  1.09204         3227.15047     20.23319  0.09504  58505.15991   7.59332  0.66211   128230.19457  47.02278  19.37305  58557.26432    51.44489       44.75893   22.33501  37.79771   49.5    0.17642  -21.82284  0.99184 
  -18.27514   0.0525  2.12718     13.96589  1.56645  1.20431   8.61695  0.11497     0.26019   9581.26859   6183.92078  1.30856         2636.09164     18.63862  0.00242  58506.17486   4.71875  0.45237    770138.9597  45.92158  19.34315  58557.26432    51.38696        44.6775   22.33501  41.23387   49.0    0.19504  -21.77452  0.98756 
  -20.07682  0.00719  2.78246     13.98252   1.9805   1.1831   7.81022  0.05741      0.4093   8872.66483   4591.53662  1.21105         2496.30531     17.69091  0.00027  58504.37318   3.66774  0.05614  1543153.77973  45.48835  19.24042  58550.90618    51.30796       44.63499   25.55337  34.57935   70.5    0.20736  -21.78662   0.9981 
  -18.00883  0.22217  1.30849     14.47606  1.72124  0.38367  23.42162  0.03833     0.03273   8372.93217   4619.05594  0.94163         3430.93407     20.66293  0.25566  58506.44117   9.79488  5.20347    30554.57784  47.78607  19.30049  58553.32918    51.61746       44.94027   22.33501  32.64348   58.0    0.18236   -22.0106  0.95559 
  -16.35527  0.06163  1.54757     13.96704  1.49946   1.3671  24.38832  0.03093     0.33398   7097.65336   6459.49548  2.16876         3123.30376     20.40799  0.14214  58508.09473    7.3289  1.50313   388132.56098   46.4765  19.29654  58553.32918    51.40355       44.70343   25.77117  36.07963   50.0    0.18892  -21.92769   0.9771 
  -30.47603   0.0027  1.58007     14.01707  1.74138  1.22621  12.15957  0.11309     0.37854   8464.56167   9340.11356  0.41293         3195.37373     16.10819    1e-05  58493.97397   5.19702  0.03287   373190.35372  46.54045  19.32621  58553.32918    51.44168       44.77524   22.33501  37.79771   42.0    0.15286  -21.57298  0.99957 
  -21.96148  0.15765   2.5772     14.19379  1.69912  0.46545   6.50215  0.10463     0.01634   7816.40885   8690.19111  2.46615         2618.32187     20.14253  0.07714  58502.48852   2.36973  1.02504   429299.67654  46.04401  19.30579  58555.75219    51.45051        44.7463   24.05309  37.79771   47.0    0.18188  -21.80723  0.96384 
  -15.59729  0.09531  0.90567     14.49673  1.94125  0.66986  18.63196  0.06974     0.42793    9129.9725   8480.06791  0.95482         3454.71745     18.93614   0.0048  58508.85271   9.26455  1.77578    15009.96686  48.46661  19.31268     58557.26    51.42692       44.75948   25.55337  36.29743   40.5    0.15834  -21.83352  0.99548 
  -28.31583  0.00199  1.83788     14.29643  1.79981  0.51334  25.98053  0.03352     0.11951   6244.78664   9783.51771  1.41119         3375.29747     20.04701  0.06191  58496.13417    6.0438  0.05182   144151.14101  46.83662  19.37617  58558.17519    51.33868        44.6774   20.61693  37.79771   49.0    0.15276  -21.61929  0.99913 
  -15.46999  0.15841  1.32011     14.37039  1.80291  0.70369  29.00795  0.03912     0.05728   8567.82529   5844.42096  2.80317         2639.36667     20.21743  0.09166  58508.98001  12.70239  4.59515    52994.82553  47.55936  19.34989  58555.75219    51.33904       44.67646   18.89885  39.51579   57.0    0.15754  -21.88021  0.96375 
   -22.7199  0.22173  1.94731     13.87589  1.51117   1.3007    8.4716  0.07583      0.1616   8782.70212   3858.25322  0.49322         3561.95328     19.70379  0.02809   58501.7301   3.89806  1.87844   942361.46322  45.89507  19.36293  58555.75219    51.41482       44.75889   18.89885  37.79771   60.5    0.20064  -21.80489  0.95573 
  -15.90517  0.22649  1.05203     14.36472  1.76956  0.65945  14.51051   0.0634     0.02888   8031.74397   8624.46899  0.89738         3485.37179     20.27044  0.10355  58508.54483    5.5838  3.28652    33906.59808  47.94237   19.3817     58557.26    51.36646       44.63669   24.05309  41.10858   45.0    0.19078   -21.8448  0.98353 
   -23.4886  0.00429  1.78366     14.11272  1.93703   1.2147  18.95338  0.04933     0.04882   7987.63934   9560.16955  0.68293         3397.80228     19.45491  0.01584   58500.9614   7.21358   0.0814   340513.50821  46.52122  19.34577  58557.26432    51.45726       44.77608   22.33501  37.79771   41.0    0.18164  -21.69543  0.99885 
  -16.93815  0.00691  2.16437     14.34527  1.97819  0.63392  12.66055  0.07154     0.25433   8368.82304   6058.88505   1.1887         3376.74675     19.87566  0.04172  58507.51185   5.28943  0.08748    175473.3922  46.65024  19.38722  58558.17519    51.36237       44.63043   24.05309  40.16368   46.5     0.1984  -21.83053  0.99823 
  -20.72872  0.07127  1.56947     14.28336  1.72657  0.65549  17.58701  0.06614      0.1271   7722.64842   7937.63661  1.33831         2986.70049     17.94322  0.00049  58503.72128   6.25679  1.25341   107097.17925  47.08475   19.2772  58555.75219    51.38388       44.70605   25.77117  36.07963   49.0    0.16078  -21.68328  0.98408 
  -12.49287  0.01268  1.29681     14.25577  1.78447  0.80295  10.57461  0.09796     0.12694   7944.19126   5867.08292  1.77265         3218.98307      20.5111  0.18023  58511.95713   3.98099  0.13404    85810.62543  47.36106  19.35979     58557.26     51.4429       44.74766   22.33501  37.79771   45.0     0.1859  -21.95858   0.9989 
  -18.90176  0.00866  1.75626     14.12163  1.82226   1.2265  14.43335  0.08103     0.09128   8820.95733   6254.64545  1.07773         3124.35501     19.54511  0.01949  58505.54824   6.69924  0.12498   298089.62348  46.56593  19.26154  58553.32918    51.46722       44.79733   20.61693  32.64348   45.5    0.18327  -21.79402  0.99813 
  -20.80472  0.06492  1.53341     14.47853  1.79984  0.43475  12.53214  0.09022     0.07845   8639.33778   8603.87017  0.76129         3312.64391     18.09263  0.00069  58503.64528   5.57973  0.81358    43380.98337  47.51546  19.36794  58557.26432    51.38216       44.70831   18.89885  39.51579   41.5    0.18539  -21.73449  0.99071 
  -25.44487  0.36819  1.32938     14.07778  1.69474  1.44336    6.3588  0.19693     0.24345   9055.89212   9961.17689  0.49625         3198.38605     16.74712    3e-05  58499.00513   3.11075  2.34123    194385.3067  46.96199  19.32874  58558.17519    51.38266       44.70439   18.89885  39.51579   39.0    0.17108  -21.59683  0.97849 
  -20.98084  0.04147  1.35087     14.19174  1.71025  0.85129  27.84695  0.04063     0.04356   7704.12039   7066.90264   1.3875         3116.05185     20.11298  0.07206  58503.46916   9.85941  1.15481   119844.07118  47.16206  19.33734  58555.75219    51.40735       44.70237   20.61693  39.51579   50.5    0.15877  -21.74597  0.98904 
  -29.39067  0.06944  0.70112     14.20316  1.51252  0.60427  37.92225  0.02983     0.11676   8806.55047   8027.97279  0.08094         3530.42331     20.19045  0.08613  58495.05933  17.54417  2.63343    27088.81378  48.32417  19.31335  58557.26432    51.42099       44.74622   24.05309  34.36155   50.0    0.17431   -21.5881  0.99274 
  -16.24463  0.06059  1.48785     14.38587  1.58396  0.32458  21.46188  0.02688      0.0707   7574.33406   8020.74326  0.99468         3510.12625     20.64467  0.24513  58508.20537   7.34487  1.30034     55071.6097  47.38254  19.32607  58555.75219    51.51734       44.86274   20.61693  35.29594   53.0    0.22194  -22.03844  0.98296 
  -14.14935  0.00241   0.8278     14.10669  1.47607  1.23353  48.62825    0.024     0.39531   8501.40971   7480.13825  0.93021         3606.01838      19.0667  0.00648  58510.30065  20.96514  0.11716    57463.83664  47.84271  19.31142     58557.26    51.34733       44.68478   25.77117  36.07963   40.0    0.19425  -21.79088  0.99956 
  -27.32664   0.0065  2.49789      14.0684  2.14672  1.02289   7.26239  0.08799     0.11317   9482.82845   6957.90314  0.04854         3055.16204     17.82911  0.00037  58497.12336   3.89568  0.04723   907687.85703  45.84754  19.19313  58550.90618    51.37415       44.69864   22.33501  36.07963   62.0    0.19358   -21.8044  0.99887 
  -20.34096  0.00811  2.40815     14.11538  1.89297  0.79282    9.4124  0.06055     0.23845   8389.27445   9399.20533  0.38926         3829.96356     16.78418    3e-05  58504.10904   3.95163  0.07635   599204.81462  46.00504  19.28793  58555.75219    51.41249       44.74124   22.33501  36.07963   47.5    0.20147  -21.75907  0.99795 
   -8.62279  0.00412  0.71389     14.24526  1.45788  0.67566  29.38531  0.04543     0.19012  10552.10588    6955.8602  3.05534         2377.74011     20.61279  0.22778  58515.82721  19.51802  0.12098    22298.91182  48.37702  19.28649  58550.90618    51.58878       44.90544   24.05309  37.79771   42.0    0.17002  -22.08187  0.99967 
  -19.55401  0.00134  1.96728     14.01298  1.73536  1.40422   11.3548  0.11069     0.20209   9388.32294   4461.73396  2.61624         2211.06113     18.67571  0.00263  58504.89599   5.97011  0.01525   587469.86139  46.15152  19.33791  58555.75219    51.39601       44.67265   27.48924  37.79771   49.5    0.16433   -21.7981  0.99969 
  -16.64896  0.05986  2.37246     14.49218   2.1039  0.52607   9.58192  0.10484     0.13112    8464.7318    4480.8614  1.72489         3045.98451     18.52298  0.00185  58507.80104   4.09549  0.57357   113992.14627   46.7846  19.33882  58555.75219    51.56725       44.90352   24.05309   30.9254   47.5    0.18474  -21.76413  0.98746 
  -19.72898   0.0792  1.69098      14.0352   1.6278  1.28915  13.17526   0.0965     0.48186   9022.92957   7285.49564  4.36926         2147.98053     18.67393  0.00262  58504.72102   6.39855  1.04352   367533.64168  46.45887  19.24861  58555.75219    51.45519       44.81316   18.89885  34.36155   49.0    0.15309   -21.7699  0.98311 
  -21.66169  0.04844  1.44609     14.09275   1.6871  1.25899  11.17925  0.12636     0.40829   8427.87206   7130.48588  2.51853         2527.68624     18.74592  0.00309  58502.78831    4.7367  0.54153   213721.04599  46.84575  19.35931  58553.32918    51.51233       44.82239   20.61693  36.07963   49.0    0.15013  -21.65514  0.99393 
  -16.16221  0.29452  1.91412     14.02509   1.5529   1.2369    9.8868  0.09378      0.0355   9148.79125   6028.97872  2.47869         2426.76008      18.5046  0.00178  58508.28779    4.9364  2.91183   470675.48331  46.22333  19.28242  58550.90618    51.49623       44.79098   22.33501  34.36155   53.5    0.18319  -21.78524  0.93794 
  -23.96035  0.10942  1.63487     13.98676  1.56358  0.76571   6.27651   0.1184     0.05222    7567.9866   5547.84654  0.95596         3380.32171      20.5715  0.20712  58500.48965    2.1444  0.68677   412463.60546  46.42061  19.29406     58557.26    51.34277       44.67821   24.05309  36.07963   59.0    0.16991  -21.94149   0.9888 
  -20.55626  0.01461  2.77631     13.88687  1.67736  0.84147   9.85548  0.06086     0.01388   8671.94649   8451.94706  3.22204         2258.90457     16.99364    5e-05  58503.89374   4.42118  0.14403  2021316.44969   45.3009  19.36282  58555.75219    51.50894       44.85174   18.89885  37.79771   49.5    0.17859  -21.77125  0.99373 
  -23.17389  0.06947  1.44767     13.76084  1.32367  0.95114  14.38303  0.03591     0.06587   7592.39393   6935.00417  1.10482         2894.68884     20.57343  0.20805  58501.27611   4.94578  0.99917   774907.02693  46.18004  19.32669  58555.75219    51.40361       44.70718   24.05309  36.07963   70.0    0.18793  -21.99186  0.98365 
  -16.99107  0.14035  2.15053     13.94439  1.71292  1.49406  11.31841  0.06112     0.01634   8509.58336   4101.97689  2.18785         2683.92515     20.44826  0.15595  58507.45893    4.8891  1.58849    950306.1043  45.85963  19.27545  58550.90618    51.46471       44.77292   24.05309  33.93723   52.0    0.20117  -21.95921  0.96192 
  -23.88848  0.00959  1.63714     14.00159  1.76631  1.12664   7.54867  0.12657     0.34383   7792.65616   8634.91071  1.57487         2926.71129     20.55612  0.19992  58500.56152   2.73444  0.07236   436389.72825  46.44786  19.37541  58555.75219     51.4318       44.73546   20.61693  39.51579   49.5    0.16418  -21.90819  0.99901 
  -19.09873  0.07557   1.6551     14.26848  1.68819  0.60078  22.83844  0.03975     0.04378    7710.3352    6887.6592  1.55037         3069.77703     20.32127  0.11641  58505.35127   8.09916  1.72601   124717.10961  46.96269  19.32855  58553.32918    51.55703       44.87313   22.33501  36.07963   53.0    0.17917  -21.86474  0.97487 
  -13.44843  0.00158  0.87418     14.12978  1.34834  0.82464  30.98128  0.03667     0.13103   7531.26909    6196.5414  1.94308         3139.35672     20.11504   0.0724  58511.00157  10.48245   0.0491    52633.11143  47.79418  19.32809     58557.26    51.35515        44.6348   25.77117  37.79771   45.5    0.17117  -21.79588  0.99974 
  -25.21015  0.04865  1.73833     13.97539  1.61949  1.32446  10.75945  0.09267     0.04548   7557.41631   8607.42505  1.06769          3034.4742     18.46452  0.00162  58499.23985   3.66576  0.52342   508946.69575  46.29128  19.34722  58555.75219    51.51394       44.83779   22.33501  34.36155   47.5    0.16698  -21.60853  0.99087 
  -15.03343  0.00493  1.32567     14.16152  1.79812   1.5701  18.31642  0.08136     0.18776  10578.19935   4165.34188  2.50807         2212.01217     17.86417  0.00041  58509.41657  12.22619  0.09035   139467.86066  47.13432   19.3795     58557.26    51.30238       44.59272   24.05309  41.23387   42.5    0.17666   -21.8307  0.99925 
  -18.48071  0.01177   0.7785     14.10111  1.61931   1.4675  67.71352  0.01528     0.01575   7819.70201   7182.29097  0.59015         4466.21403     19.85245  0.03955  58505.96929   24.6992  0.79668    57207.63928   47.9382  19.36262  58553.32918    51.57471        44.8208   27.48924  39.89423   42.5    0.19492  -21.86988  0.99777 
  -21.55526  0.01753  1.89792     14.24187  1.76553  0.71132  19.88017  0.04858     0.02273   7443.46023   5839.84863  2.00934         3057.62593     18.88801  0.00429  58502.89474   6.57048  0.34849   193863.82027  46.67167  19.33291  58557.26432    51.35572       44.66209   24.05309  39.51579   50.5    0.17053  -21.74195  0.99363 
  -22.95051  0.00314  1.83955     14.13336   1.9302  1.21408  18.39167  0.06801     0.01849   7664.31303   6468.37091  1.49162         3213.98322     19.36977  0.01302  58501.49949   6.44458  0.05767   328184.23073  46.50891  19.37426  58558.17519    51.43287        44.7434   24.05309  37.79771   51.0    0.15423  -21.69121  0.99913 
  -14.38332  0.17255   0.8441     14.32657  1.52939  0.70262  42.53166  0.02217     0.02536   8389.61613   7676.77869  1.69597         2795.31601     20.16883  0.08195  58510.06668  17.85763  7.33873    22490.09737  48.24858  19.33858  58553.32918    51.40542       44.69445   25.77117  34.36155   61.5    0.16299  -21.83001  0.97518 
   -15.4026  0.00118  1.48916     14.11753  1.71089  1.41571   6.40955  0.20227     0.08378   8301.11152   9378.18729  1.30778         3662.90568     17.45216  0.00016   58509.0474   2.63467  0.00756   205052.24113  46.84432  19.37856   58560.5982    51.30338       44.58875   29.20732  41.23387   40.0    0.16703   -21.7995  0.99991 
  -26.37371   0.0087  1.35826      14.0668  1.77139  1.51606   9.55891  0.10399     0.03644   7201.85985    7383.9288  0.68722         3774.46227     18.07625  0.00066  58498.07629    2.9575  0.08318   223099.19223   46.9027  19.28834  58553.32918    51.57512       44.86577   17.18078  36.09449   48.0    0.16654  -21.51667  0.99923 
  -10.78702   0.0448  0.93701     14.23835  1.86538  1.21026  18.70191  0.06874     0.20734   9354.68626   8409.91028  2.39336         2596.21637     20.49125  0.17218  58513.66298   9.76274  0.83781       50743.09  47.89075  19.37598  58555.75219    51.42451       44.72389   22.33501  37.79771   42.0    0.15966  -21.93765  0.99718 
   -18.1237  0.07608  2.54223     13.78186  1.52635   1.3657   5.40103  0.10972     0.04157   9345.91583   4593.12774   3.6998         2134.07186     19.31776  0.01155   58506.3263   2.81415  0.41091  2501410.76962  45.24389   19.3585  58560.35553    51.33787       44.69726   22.33501  36.07963   57.5    0.19055  -21.79914  0.98306 
  -22.36971  0.04455   1.3177      14.4845  2.10052  0.56824   4.67501  0.22949     0.05716   7408.86994   6688.57878  0.96598         3346.29536     19.22165  0.00926  58502.08029   1.53078  0.20827     36373.4242  47.79075  19.36402  58555.75219    51.41257       44.73712   17.18078  37.79771   47.5     0.1747  -21.60505  0.99864 
  -21.98189  0.20334  2.86181     14.34446  1.83963  0.31885   4.68891  0.10497     0.02787   8309.58898   3792.81035  1.42318          2836.2651     19.25881  0.01008  58502.46811   1.93134  0.95342   286351.55349  46.16339   19.3448  58555.75219    51.34429       44.69812   20.39913  34.57935   57.5    0.18482  -21.81119  0.96296 
  -19.12997  0.01774  1.91237     14.11575  2.01562  1.32465  14.44337  0.05151     0.07698   8476.23661   6407.76475   0.3757         3516.87133     18.88978  0.00431  58505.32003   6.19016  0.25616   401671.50556  46.40624  19.37509  58558.17519    51.37652       44.72735   24.05309  36.07963   49.0    0.21307  -21.76246  0.99609 
  -19.83131  0.00145  1.69725     14.20333  2.14481  1.37137  10.28707  0.12899      0.0112   8500.41445   4480.90187  4.04556         2107.13859     19.33866  0.01212  58504.61869   4.43404  0.01491   224924.98828  46.78871  19.34705  58553.32918    51.40256       44.68344    30.9254  41.10858   42.5    0.15957  -21.76217  0.99984 
  -14.00745  0.00663  0.84493     14.23813  1.82393  1.01302  31.15493  0.04586     0.11757    8957.8538   4004.77207  2.01323         2863.99466     20.57701  0.20977  58510.44255  14.91289  0.20645    40383.49686  48.07001  19.37188  58555.75219    51.33638       44.56883   35.86183  44.88782   45.5    0.15896   -22.0293  0.99942 
  -14.53002  0.47157  1.90291     14.02554  1.83676  1.13338   7.71205  0.08262     0.13616   8877.14589   3095.20798  1.91393         2736.87298     20.67843  0.26494  58509.91998    3.6253  3.63673    549077.9797  46.23443  19.35723  58555.75219    51.42181       44.73616   18.89885  37.79771   61.0    0.21626  -22.15511   0.9401 
   -17.6272  0.15713  1.95058     13.94437  1.80757  1.01193  12.14774  0.03942     0.36372   6332.39124   5064.39615  1.12052         3792.64321     20.70832  0.28382   58506.8228   2.90575  1.90879   825065.88863  46.02913  19.31092     58557.26    51.35722       44.68415   20.61693  37.79771   72.5    0.18598  -22.05443  0.96508 
  -21.70515  0.10366  1.39865     14.28708  2.06636  0.85346  24.71775  0.03862     0.01559   8137.01453    6305.9422  0.50866         3503.62201     20.22117  0.09245  58502.74485   9.76262  2.56223   100062.75824  47.29236  19.27414  58555.75219    51.38293         44.672   25.77117  41.23387   53.5    0.17405  -21.76206  0.98062 
  -16.97105  0.11838  2.56236     13.91243  1.69622  1.45674   3.49472  0.16351       0.096   9473.87293   5425.04254  3.80152         2063.59939      18.8753  0.00417  58507.47895   1.87109   0.4137  1547848.44809  45.49132  19.36568   58560.5982    51.35367       44.69194   25.55337  36.29743   57.5    0.21497  -21.80747  0.98528 
  -19.45043  0.00756  2.08336     13.89363  1.66851  1.18092  11.69046   0.0616     0.33261   7933.53068   9732.27382  3.71695         2208.72904     20.38443  0.13463  58504.99957   4.38926  0.08833  1097511.94536  45.81324  19.34229  58555.75219    51.37654       44.64423   32.64348  41.23387   50.5    0.16997  -21.90158  0.99785 
  -21.20282  0.02668  2.58434     13.88536  1.62426  1.02173   12.2662  0.03965     0.08602   7723.95304   6171.03488  1.07061         3273.12629      19.3636  0.01283  58503.24718   4.36532  0.32724  1707865.80451  45.42235  19.29278     58557.26    51.38325       44.69326   22.33501  39.51579   70.5    0.19472   -21.7365  0.98726 
  -18.90686  0.03623  2.26657      13.8894  1.51036  1.14774    8.7662  0.09062     0.06996   7981.29016   3384.99624  1.39669         3187.71523      18.2723  0.00104  58505.54314   3.33108  0.31763  1199067.45061  45.65834   19.2974  58553.32918    51.41399       44.73835   22.33501  36.07963   56.5    0.18745  -21.77561  0.98945 
  -19.02978  0.03212  1.69028     13.97367  1.67369  1.56666    8.1234   0.1051     0.15976   8445.30884   8139.45371  0.93791         3200.03753      20.2148   0.0911  58505.42022   3.45618  0.26096   501272.19343  46.33653  19.31094  58555.75219    51.40522         44.747   25.77117  34.37642   45.0    0.20088  -21.88797  0.99589 
  -21.00624  0.08259  2.11534     13.93962  1.66614  1.37448    4.5889   0.1544     0.23695   8228.09937   8377.13417  0.57301         3816.89567     18.71764   0.0029  58503.44376   1.85325    0.379   914230.29396  45.87874  19.31136  58555.75219    51.37622       44.70574   20.61693  37.79771   48.5    0.20221  -21.77024  0.99057 
  -17.64511  0.04841  1.66265     14.06585  1.82223  1.50479  19.70423  0.04128     0.03097   8279.01885   5950.57459  0.85131         3295.91466     20.15827  0.07998  58506.80489   8.05646  0.95383   345390.99652  46.54954  19.29619  58558.17519    51.31933       44.67077   25.55337  34.57935   48.0     0.2038  -21.85351  0.98736 
  -22.99301  0.03207  2.11275     14.11909  1.69514   0.7176   8.61685  0.10338     0.08113   8759.54468   7999.81874  2.57199         2049.21275       16.563    2e-05  58501.45699   3.94401  0.27638   406012.91299  46.23981  19.29767  58555.75219    51.44031       44.75569   17.18078  37.79771   50.5    0.16926  -21.73575  0.99329 
  -18.74207  0.09516  2.49146     14.32076  1.90119  0.59572    8.9196  0.10088     0.01709   8298.77457   4628.14535  1.64871         3270.75431     19.25898  0.01009  58505.70793   3.66438  0.84882   250162.43793  46.35674  19.30293  58550.90618    51.41821       44.70395   25.77117  36.07963   45.0    0.19542  -21.83111  0.97632 
  -14.04746  0.01876  1.95792     14.25507  1.83061  0.73123   9.01841  0.10853     0.11824   8880.98051   3063.54482  4.04301         2066.49071     17.62968  0.00024  58510.40254   4.24306  0.16919   201306.23384  46.64399  19.35085  58553.32918    51.52366       44.82153   22.33501  39.51579   49.0    0.18073  -21.75563  0.99687 
  -22.20287  0.02518  2.34836     14.22009  2.10234  0.85388   9.62806  0.08591     0.05173   8866.69182   7119.41083  0.56703         3399.49089     19.31998  0.01161  58502.24713   4.51533  0.24248   390724.32448  46.25815  19.32199     58557.26    51.42944       44.77832   22.33501  34.36155   49.5    0.20888  -21.78825  0.99474 
  -15.87553  0.00749  1.57818     14.07416  1.67613  1.46226   6.30533  0.14945     0.10866   7609.31438   9064.85204   1.2271         3438.39012      18.1658  0.00081  58508.57447   2.17784  0.04723   275499.92495  46.65672  19.32817  58555.75219    51.54433       44.88794   20.61693  37.79771   41.0    0.19706   -21.7428  0.99936 
  -16.85234  0.20124  1.75328     14.33713  1.87783  0.76319  19.14392  0.03757     0.15642   7197.61639    8964.6521  1.11474         3636.11691     19.40654  0.01417  58507.59766    5.9161  3.85252   113478.14433  46.99988  19.35752  58558.17519    51.43373       44.75566   25.77117  34.37642   49.5    0.19126  -21.74622  0.94835 
  -23.61263  0.15717  2.62188     14.16944  2.01116  0.73199   7.47577  0.08924      0.0837   8558.26151   9213.55857   2.0564         2288.71064     19.70811  0.02837  58500.83737   3.26629  1.17496   588298.65076  45.96547  19.31742  58553.32918    51.55528       44.86914   24.05309  34.36155   53.0    0.18078  -21.80067  0.96678 
  -20.96408  0.00741  2.29074     13.97876  1.69292  1.08725   7.80001  0.08904     0.09866   8270.46256   4860.00155  3.25571         2212.00334     18.53526  0.00191  58503.48592    3.1826  0.05777   909685.41661  45.81864  19.32521  58557.26432    51.40468        44.7612   18.89885  36.09449   58.5    0.19317  -21.76256  0.99834 
  -23.12307   0.0711  1.76766     14.17364  1.77876  0.81999  14.77475  0.05705     0.08092   6504.65223   3548.51493  1.35939         3477.08389      19.9537  0.04994  58501.32693   3.72903  1.05047   231977.69274  46.65872  19.28467  58553.32918    51.41431       44.71733   25.77117  36.07963   56.0    0.16762  -21.69393  0.98369 
  -20.15086   0.0188  1.35258     14.30708  2.04408  0.99624   10.8177  0.15463     0.09293  10121.02968   6047.23613  1.83803         2661.13784     18.72224  0.00293  58504.29914   6.61015  0.20333      84424.569  47.39055  19.31782  58553.32918    51.37709       44.67317   25.55337  34.57935   44.5    0.16598  -21.82387  0.99855 
  -13.27701  0.31883  1.17202     14.38098  1.67807  0.58908  12.10918  0.08723     0.10152   9608.94197   5741.27113  1.99485         2640.75932     20.44226  0.15381  58511.17299   6.66949  3.86072    37028.61721  47.78725  19.34718     58557.26    51.46259       44.74838   25.77117  37.79771   50.5    0.18078  -21.95513  0.97327 
  -18.38497  0.10457  1.21969     14.16598  1.58008  0.92094  17.22307  0.06834     0.08903   8464.92572   6672.51889  1.62258         2443.49489     18.25733    0.001  58506.06503    7.3618  1.80093   101633.05653  47.28799  19.41873  58557.26432    51.38997       44.68471   20.61693  41.23387   49.0    0.16715   -21.6985  0.98467 
  -19.98807  0.04322  1.98772     13.93949  1.62918  1.08776  13.31506  0.05588     0.17603   7655.10377   7208.78416  1.13937         3513.29467     20.44798  0.15585  58504.46193   4.65449  0.57552   789789.36146  45.98659  19.32727  58555.75219    51.45652       44.78182   18.89885  36.07963   56.0    0.19252  -21.92521  0.98696 
     -15.27   0.0254  1.37397     14.20415  1.64598  0.87418  24.51121  0.04044     0.03928   7839.94069   9303.04486  1.30885         3350.02731     19.08393  0.00674     58509.18   8.98706  0.62265   112693.01741  47.15742  19.32029  58555.75219    51.65067       44.98081   18.89885  37.79771   40.5    0.19166  -21.77192  0.99353 
  -17.02163  0.13886  1.30969     14.14828  1.65866   1.1093  19.59004   0.0583      0.0808   8882.81292   7079.83537  1.91926         2465.11848      19.1209  0.00734  58507.42837   9.22069  2.72037    133461.0279  47.12891  19.29018  58555.75219    51.59508       44.96469   20.61693   30.9254   50.0    0.17257    -21.784   0.9753 
  -17.70494  0.03126  1.75001     13.95777   1.5757  1.31741   4.85555   0.1516     0.49366   7390.00543   6656.90239  0.98241         3602.36313     19.87429  0.04159  58506.74506   1.58181  0.15177   544287.01208  46.24441  19.32865  58558.17519    51.36602       44.71096   17.18078  37.79771   49.5    0.19777  -21.80045  0.99718 
  -22.16462  0.18384  1.22669     14.22596  1.82142  0.82104   6.30543  0.15711     0.19155   8646.84567   7469.52156  0.55827         3207.27782     20.11745  0.07281  58502.28538   2.81227  1.15919    89902.57559  47.39801  19.30163  58553.32918    51.51866       44.85389   24.05309  34.36155   46.0    0.19292  -21.75159  0.99181 
  -20.40172  0.00138  2.34335     14.16712  2.05453  1.00621  10.01349  0.08968     0.01451   8275.75662   6053.82677  1.02099         3386.74662     19.68825   0.0271  58504.04828   4.09099  0.01378   485248.40381  46.15592  19.33605     58557.26    51.46245       44.79407   24.05309  32.26891   44.0    0.19428  -21.82193  0.99969 
  -15.78487  0.05845  1.56405     14.42653  1.70764  0.47226  11.59615  0.09624     0.22484   9496.89082   7033.20206  3.67569         2368.81132     18.11432  0.00072  58508.66513   6.23884  0.67783    54406.25187  47.37709  19.31429  58555.75219    51.45725       44.82274   17.18078  36.07963   46.0    0.17776  -21.89475  0.99127 
  -16.38523  0.01214  2.08175     14.15884  1.97588  1.01665  10.48217  0.08941     0.11092   9275.57025   7756.91419  3.50025         2125.35105     19.99373  0.05476  58508.06477   5.37972  0.12723   382600.99551    46.345  19.36659  58558.17519    51.36069        44.6316   25.77117  40.16368   47.0    0.19032  -21.87543  0.99762 
  -22.03836  0.34683  1.21419     14.44411   1.6497  0.33487   15.7451  0.06469     0.01222   8395.14348   9289.91449  1.87311         2815.60608     20.77169  0.32841  58502.41164   6.61955  5.46092    29212.38953  47.85211  19.35069  58555.75219    51.30523       44.60203   23.83529  38.01551   48.0    0.16197  -22.09349  0.95688 
  -22.20882  0.23997  2.39647     14.27258  1.82549  0.55819   8.14417  0.10044     0.08097   8252.65112   3016.34632  1.19078         3153.62998     19.85654  0.03993  58502.24118   3.30873  1.95435   277445.47141   46.3279  19.35999  58555.75219    51.36381       44.62821   25.77117  41.23387   59.0     0.1783  -21.80125  0.94786 
  -19.65537  0.30818  2.30575     14.21165  1.89215  0.51674   4.19314   0.1185     0.41729   9016.87744   4478.51476  0.69596         2656.44864     20.36403  0.12846  58504.79463   2.03366  1.29225   352442.41813  46.27309  19.37942  58553.32918    51.35288       44.61288   24.05309  42.95194   73.5    0.19536  -21.90626  0.96894 
  -17.62656   0.1128  1.15201     14.23147  1.75378  0.99457  25.53096  0.03778     0.02987   9308.99688   4752.64633  0.72286         3300.80736     19.01667  0.00577  58506.82344  13.19776  2.87984    74434.26908  47.51813  19.32808  58555.75219     51.3443       44.65907   23.83529  36.29743   45.5    0.21488  -21.85971  0.98205 
  -13.57653  0.38657   1.2089     14.30566  1.49531  0.52674  16.52983  0.05687     0.03492   9059.71889   5022.93972  2.98785         2357.67761     20.61726  0.23014  58510.87347   8.09329  6.38997    49660.42645  47.58279  19.32933  58555.75219    51.54665       44.86541   24.05309  36.09449   62.0     0.1736  -21.99793  0.94371 
  -16.90917  0.05284  2.43696     13.90662  1.57456  0.75763  15.13171  0.01577     0.08324   5567.76531   9369.98216   1.8273         3436.24347       20.427   0.1485  58507.54083   2.79819  0.79956  1334875.66081  45.56686  19.36853  58558.17519    51.31301       44.60642    30.9254  39.51579   73.0    0.21653  -21.87118  0.97138 
   -18.1495   0.0077  1.70359     14.01792  1.64301  1.53901  16.79179  0.05511      0.0111   7711.94275   3016.07012  1.05766         3674.02969     18.77078  0.00328   58506.3005   5.95733  0.12932   407696.10357  46.41142  19.25763  58550.90618    51.64354       44.99086   22.33501  32.64348   44.5     0.1953  -21.79579  0.99787 
  -12.86865    0.041  0.94706     14.06985  1.51864  0.96838  10.79438  0.10029     0.10439   8515.82197   5011.24959  3.24384         2233.23233     20.60023  0.22129  58511.58135   4.66958  0.44259    91690.76515  47.53522  19.30306  58553.32918    51.41638       44.76672   23.83529  34.57935   48.0      0.156  -21.96373   0.9976 
  -19.82174  0.23008  2.37049     14.31936  1.96374  0.64045   9.87132  0.07853     0.11871   8517.10057   5125.92111  0.92046          3234.3361     19.16071  0.00804  58504.62826   4.27156  2.27115    235423.9562   46.4404   19.3627  58555.75219    51.41811       44.70421   22.33501  41.23387   56.5    0.20447  -21.78472  0.94709 
  -15.73674  0.01882  0.97669     14.04086   1.4295   1.2593  26.39482  0.05121     0.29506   9700.54629   4391.86611  0.91699         3268.18089     19.85031  0.03936  58508.71326  14.81625  0.49671   104902.19826  47.42373  19.31962  58553.32918    51.52006       44.81018   24.05309  39.51579   42.0    0.18977  -21.86472  0.99694 
  -17.09933  0.00117  0.86026     14.11535  1.62409  1.54622  16.36987  0.09504     0.04554   9888.18892   6855.88177  1.03779         2986.00461     20.08814  0.06806  58507.35067   9.54786  0.01918    65611.02793  47.79322  19.36485  58555.75219    51.43657        44.7214   22.33501  39.53065   40.5    0.20179  -21.88576  0.99993 
  -19.27196  0.37569  2.38534     14.29164  1.90648  0.61336   8.58895  0.07537     0.29035   9646.71212   5528.50549  0.99074         2600.55056     19.32555  0.01176  58505.17804   4.76789  3.22677   262946.87668  46.37411  19.36504  58557.26432    51.35631       44.65785   24.05309  37.79771   63.0    0.22161  -21.85227  0.92238 
  -17.37955  0.01499  1.54085     13.86632   1.4369  1.34344   7.20112  0.13007      0.0278   8258.10902   8443.35451   1.4117         3335.44566     20.54581  0.19523  58507.07045   2.92946  0.10792   586318.41923  46.28261  19.38985  58558.17519    51.33829       44.62786   25.77117  37.79771   44.0    0.18907  -22.01763  0.99821 
  -19.47502  0.00752  1.63721     14.21192   1.8998  0.93782  17.73654  0.06946     0.10325   8516.32793    9029.9062  1.09298         3369.61726     20.03589  0.06034  58504.97498   7.67363   0.1334   178191.83349  46.86846  19.28923  58550.90618    51.46245       44.78797   24.05309   30.9254   41.5    0.17621  -21.85255  0.99838 
  -18.03963  0.01121   2.4636     14.12972  1.65382  0.70938   3.68118  0.17043     0.09455   7689.62129   8170.53024  2.49261           2932.765     16.48714    2e-05  58506.41037   1.29845  0.04125   512864.32553  45.99419  19.39276     58557.26    51.55577       44.86735   20.61693  37.79771   49.0    0.22065  -21.81413  0.99858 
  -19.47438   0.1559  1.75334     14.48406  1.79245  0.27975  14.24876  0.04195     0.29149   7338.47132   8966.55961  1.17286         3352.34922     20.70209  0.27978  58504.97562   4.57736  2.22139    55065.80021  47.29368  19.27539  58550.90618     51.4259        44.7384   22.33501  36.07963   55.5     0.2013  -22.07655  0.96684 
  -20.98719  0.00364  2.61229     14.15909  1.76986  0.54957  16.13103  0.02754     0.02089   6539.98287   6545.66993  1.71227         3234.24898     20.02416  0.05873  58503.46281   4.11569  0.05866   539028.74472  45.95113  19.37906  58557.26432    51.44675       44.69638   27.48924  42.95194   67.5    0.19225  -21.80044  0.99793 
  -19.27605  0.00271  1.58728      14.3948  2.12007  0.62381  14.59274  0.08484     0.01476   9130.11401    3494.1159  3.65947         2113.66513     20.37674  0.13227  58505.17395   7.25632  0.03955    80514.53338  47.28801  19.38111  58555.75219    51.33491       44.64333   29.20732  37.67243   46.0    0.16421  -21.93861  0.99962 
  -17.27356  0.19144  1.45689      13.9351  1.43665  1.44008   16.2724  0.05349     0.06054   7838.15962   3089.81565  1.25959         3449.47447     20.31757  0.11542  58507.17644   5.96358  3.11516   381779.78359  46.51753  19.32272     58557.26    51.38024       44.69523   17.18078  39.51579   54.5    0.18226  -21.91181  0.95616 
  -12.31901  0.00554  0.88348     13.94919  1.08527  0.90267  19.33272  0.07331     0.06224  10620.01424    3643.2828  2.68462         2155.76718     19.75725  0.03177  58512.13099  13.00679  0.10706    99396.15301  47.41462  19.32827  58550.90618    51.44567       44.70356   27.48924  41.23387   41.0    0.19883  -21.81903  0.99916 
  -15.46406  0.08186  1.31478     14.04513  1.57999  1.23642  20.89607  0.05565     0.32355   9378.94815   4611.51608  1.52043         2921.31651     20.48076  0.16807  58508.98594  10.96478  1.71055   206021.46903  46.91588  19.32193  58553.32918    51.42478       44.69107   20.61693  41.23387   47.5    0.18685  -21.96127  0.98276 
  -14.93999  0.01416  0.85701     14.22289   1.7291  1.27895  29.92343  0.04544     0.01816   9084.21151   4466.72279  1.60618         2837.71461     19.17327  0.00828  58509.51001  14.73035  0.42382    42249.43824  48.01487  19.30753  58553.32918    51.47446        44.8017   24.05309  32.64348   43.5    0.16121  -21.74877  0.99879 
  -14.90208  0.01533  1.16933     14.47423  1.98699  0.60442  25.19804  0.04627     0.13901   9038.33433   9929.33132  1.30875         2997.50946     20.31303  0.11422  58509.54792  12.27922  0.38631    28407.28609  47.97774  19.34893  58557.26432    51.47789       44.82082   18.89885  36.07963   36.0    0.19069  -21.87204  0.99795 
  -17.25129  0.15353  1.65704      14.0864   1.6851  1.36417  12.96781  0.10069     0.48982   9779.67996   7476.93815  3.79047         2043.52132     17.47581  0.00017  58507.19871   7.39849    1.991   288610.89193  46.59649  19.33447  58555.75219     51.4397        44.7587   22.33501  37.81257   47.0    0.15816  -21.77827  0.97113 
   -19.9177  0.11593  1.46365     14.30722  1.70481  0.59192    22.074  0.04411     0.02677   8527.08976   5354.83084  0.65765         3470.98504      20.0132  0.05727   58504.5323   9.57436  2.55901    82398.73771  47.25372  19.32067     58557.26    51.36513       44.67771   22.33501  37.79771   51.5    0.18164  -21.82023  0.97163 
  -16.14109  0.18219  2.11097     14.23311  1.75593  0.73124  12.25907  0.07599     0.14702   8108.04737   7747.24548  1.36521         3305.10181     20.00972  0.05681  58508.30891   4.80748  2.23347   248353.21542  46.46932  19.38649  58558.17519     51.3829       44.64685   24.05309  42.82666   51.0    0.17433  -21.79502  0.95111 
  -17.75047  0.05125  2.54515     14.39245  1.89873  0.41058  12.62326  0.05057     0.02331   7828.62129   6641.36006  1.41739         3364.67666      20.1576  0.07986  58506.69953   4.61497  0.64691   187413.13673  46.46308  19.33063     58557.26    51.41617       44.74707   20.61693  37.79771   55.0    0.20855   -21.8936  0.98097 
  -22.90039  0.21515  2.28719     13.73865  1.42115  1.09354     4.084  0.09872     0.22664   9015.64058   5662.83374  0.86849         2972.04851     19.19488   0.0087  58501.54961   1.98019  0.87869  2300176.41372  45.34112  19.34482     58557.26     51.3951       44.70473   22.33501  37.79771   77.5    0.19377  -21.82148  0.96782 
  -19.56593  0.06101   1.4743     14.11428  1.77466  1.19399  19.31717  0.04921     0.08405   7393.46507   7317.26218  1.30013         3081.91323     20.07381  0.06585  58504.88407   6.29893  1.17856   211608.67025  46.85525  19.37495     58557.26    51.33696       44.67581   24.05309  37.79771   50.0     0.1695  -21.76763  0.98734 
  -15.60433  0.10174  1.39349     14.39752  1.72378  0.41966  28.34813  0.02874     0.05315    7573.0207   6714.92795  1.88504         3081.63366     20.77289  0.32932  58508.84567   9.69817  2.88423    49827.54837  47.51965  19.35415  58555.75219    51.43227       44.73066   22.33501  37.79771   53.0    0.18794  -22.11654   0.9714 
  -18.49153  0.01599  2.53515     14.43088  1.87156  0.40024  23.80977  0.02527     0.07981    6179.0486   7241.76651  1.54836         3511.52104     18.32286  0.00117  58505.95847   5.42282  0.38072   153555.53536  46.54678  19.38582  58555.75219     51.3915        44.6769   25.77117  41.23387   57.0    0.19084  -21.71072  0.98858 
  -33.26474  0.05291  2.13169     13.83892  1.68889  1.55565   3.95842  0.33207     0.03729    9057.4989   9631.35748  2.57806         2004.43166     19.57709  0.02098  58491.18526   1.93716  0.20943  1496345.91941  45.66397  19.36194  58555.75219    51.39986       44.67878   25.77117  36.07963   37.0    0.17497  -21.74594  0.99476 
  -15.31976  0.07029  1.40011      14.3508  1.61827  0.52317  15.12661  0.08913      0.0781  10266.81902   4897.05596   2.2587         2466.57639      20.0081   0.0566  58509.13024   9.51132  1.06326    58559.63469  47.41797   19.3416  58558.17519    51.33783       44.61063   27.48924  39.51579   45.5    0.18505  -21.91957   0.9882 
  -18.19964  0.01592  1.61635      14.2348  1.89405  0.88788  17.75033  0.06163      0.3516   9170.33384   3346.00417  3.65126         2001.02562     18.95882  0.00505  58506.25036   8.90438  0.28252   155839.66079  46.93648  19.31541  58555.75219    51.45858       44.79139   22.33501  34.37642   46.5    0.17425  -21.80893  0.99665 
  -23.62135  0.01963  2.27612     14.21592  1.82919  0.58456  12.32766  0.05935     0.01468   8424.68998   5437.19333  0.73112          3139.5828     19.24128  0.00968  58500.82865   5.21934  0.24199   325558.76855  46.30408  19.32657     58557.26    51.41708       44.73578   24.05309  34.37642   49.5    0.19113  -21.77633  0.99391 
  -17.57495  0.17446  1.66467      14.1989  1.85604  1.11742   7.51726  0.12313     0.16533   8294.53927   4174.14315  0.89317         3653.98611      17.1889    9e-05  58506.87505   3.08512  1.31145     191100.847  46.81351  19.32375     58557.26    51.46052       44.81268   22.33501  34.36155   46.0     0.2024   -21.7822  0.98328 
  -17.55155  0.02605  2.08077     14.21124  1.70821   0.6657   9.59982  0.10323     0.01823   9608.91837   5048.06934  0.85754         3295.03737     18.74713   0.0031  58506.89845   5.28736  0.25007   259608.97062  46.45062  19.34925  58553.32918    51.40163       44.70076   25.77117  37.79771   40.5    0.22466  -21.85362  0.99419 
  -16.56632  0.40206  1.03129     14.49929  1.69205   0.4963   10.1232   0.1023     0.32839   9118.67106   7619.14616  0.94728         3287.79264     19.64672  0.02463  58507.88368   5.02121  4.07018    16764.99279   48.2461  19.29035  58555.75219    51.28383       44.60577   25.77117  37.79771   46.5    0.18446  -21.84705  0.98007 
  -22.51645  0.00235  2.90911     14.33051  1.97084  0.41282  11.02635  0.03537     0.07286   6357.89193   4093.56169  1.40607         3337.96375     16.87421    4e-05  58501.93355    2.6588  0.02586   338036.71048  46.10701  19.34399  58557.26432     51.3611       44.68419   22.33501  37.79771   74.0    0.19124  -21.70968  0.99903 
  -22.02034  0.20217   0.8665     13.98108  1.36739  1.01546   8.49931  0.14953     0.29585     8748.585   3456.10478  1.41685         2666.70717     20.48501  0.16972  58502.42966   3.88049  1.71828    104013.3206  47.51211  19.31884  58555.75219     51.4132       44.74609   24.05309  36.07963   51.5    0.15887  -21.81432  0.99092 
  -21.21806  0.00598   2.2029     14.17832  1.95735  0.82104   4.97606  0.16148     0.10157   9325.08556   4959.00908   0.3409         3334.52264     18.24976  0.00099  58503.23194   2.58118  0.02976   388005.96502  46.28568  19.33344  58557.26432    51.34069       44.66863   22.33501  37.79771   50.0    0.22086  -21.79836  0.99936 
  -22.03731  0.10231  1.17651     14.21479  1.88557  0.84487   12.3347  0.05401     0.01017   5364.11214   5264.21017  1.03022         3803.12924     20.23504  0.09545  58502.41269   2.11715  1.26198    90130.54897  47.44822  19.31855  58555.75219    51.41935       44.72379   20.61693  34.37642   54.0    0.16827  -21.65353  0.99222 
  -22.75167  0.00749  1.94404     13.86578  1.53192   1.2965   10.2918  0.07799     0.06216   9132.05073   6106.19749  0.31278         3138.79399     18.62047  0.00232  58501.69833   5.11982  0.07707   997466.99625  45.87777  19.29878  58550.90618    51.44343        44.7444   25.77117  36.07963   54.5    0.20357  -21.76903  0.99815 
   -17.6964  0.04113  1.98034     14.21851  1.80927  0.52468   14.2618    0.043     0.42313   7552.09307   5942.35047  1.61697         3078.86199     20.70333  0.28058   58506.7536   4.85217  0.58661   240866.22919  46.55109  19.30287  58550.90618    51.38892       44.70283   25.77117  34.36155   59.0     0.1992  -22.07139  0.98871 
  -15.80922  0.16196    1.246     14.18431  1.83564   1.3232   6.08416  0.18239     0.08801   9408.36606   7643.75207  1.04381         2616.82615     16.93562    5e-05  58508.64078    3.2126  0.98542    113245.5152  47.28758  19.32603  58553.32918    51.41991       44.69931   24.05309  41.23387   41.0    0.20982  -21.79019  0.99308 
  -22.16715  0.04183  1.92389     14.08204  1.75622  1.00765   9.30826  0.10604     0.33985   9063.65332   6343.17743  1.27209         2669.68036     18.90846   0.0045  58502.28285   4.56145  0.38933   413689.35259  46.32839  19.27961  58553.32918    51.35555       44.65109   22.33501  42.95194   50.0    0.19101  -21.79699  0.99261 
  -19.24199  0.01185  2.13865     14.22709  1.85655  0.66667  11.73624  0.08413     0.01164   8829.67188   5365.59826  0.57077         3323.37096     19.17215  0.00826  58505.20801   5.45815  0.13907   277094.53184  46.43465  19.33233  58553.32918    51.48483       44.76415   25.77117  37.79771   41.5    0.20114   -21.7926  0.99698 
  -19.50697  0.00579  2.71257     13.88009  1.73011   1.5035   6.75986  0.08731     0.18867   9368.90608   8552.93272  1.53351         2595.29866     17.61244  0.00023  58504.94303   3.53951  0.03912  2053372.39215  45.32769  19.34089  58555.75219    51.35774       44.67649   18.89885  41.23387   53.5    0.21195  -21.80463  0.99846 
  -25.22144   0.0546  1.70619     14.30482  1.76222  0.55566   6.57449  0.17194     0.03653   7672.45144    5187.5312   1.1097         3480.97553     18.77555  0.00331  58499.22856   2.30865  0.35896    117028.3452  46.98256  19.28493  58550.90618    51.35932       44.71532   22.33501  32.65834   50.0    0.16017  -21.68863  0.99468 
  -13.74999  0.20557  1.06595     14.22843  1.52737  0.81284  16.45704  0.06624      0.1465   9346.99788   5520.45278  2.36454         2328.85513     19.98981  0.05427  58510.70001   8.57676  3.38313    56283.54481  47.64693  19.31118  58558.17519    51.62542       44.92529   25.55337  34.57935   50.5    0.17062   -21.8099  0.97808 
  -16.93051  0.03487  1.58515     14.14012  1.49106  0.54912  16.69116  0.04206     0.44444   7560.65656   6580.69418  1.41893         3180.14243     20.62012  0.23166  58507.51949   5.69158  0.58204   182479.24233  46.78099   19.3368     58557.26    51.34297       44.66303   20.61693  39.51579   53.0    0.19553  -21.98761  0.99043 
  -19.07655  0.00575  1.80403     14.12769  1.78855  1.19888  13.80741  0.09279     0.03922   8708.72495   6929.94259  1.56258         2991.41095     18.12679  0.00074  58505.37345   6.24667  0.07933   300213.82119  46.53143  19.30881  58558.17519    51.47308       44.82183   17.18078  37.79771   46.0    0.16374  -21.76343  0.99871 
  -21.25627  0.01196  1.87959     13.74011  1.51939  1.20498  13.65251  0.04263     0.24768   6508.58506   5402.62476  3.14047         2655.86633     20.77504  0.33096  58503.19373   3.44995  0.16331  1649607.85399  45.68501  19.28098  58550.90618    51.33969       44.63636   24.05309  39.51579   72.5    0.16695  -22.06724  0.99627 
  -17.18868  0.00296  1.69051     14.02164  1.60262  1.24621  10.87761  0.11766     0.15762  10242.89225   4372.63945  3.31813         2026.03316     18.18488  0.00085  58507.26132   6.80779  0.03218    384937.0096  46.43225  19.33996  58555.75219    51.34609       44.61614   25.77117  44.67002   45.5    0.17125  -21.83211  0.99946 
  -15.17405   0.0167  1.92921     14.11625  1.98941  1.28216  16.55759  0.06426     0.14148   9318.11598   7773.18891  3.75639         2049.62831     20.33053  0.11892  58509.27595   8.57592  0.27654    402525.9116  46.39202  19.32822  58555.75219     51.4873       44.77509   17.18078  37.79771   47.0    0.17637  -21.88694  0.99562 
  -20.80366  0.00518  2.71087     13.87099  1.74934  1.46822   6.95074  0.06377     0.21675    7447.7609   8864.46435  1.15921          3241.8644     17.30725  0.00011  58503.64634    2.2999  0.03601  2162399.34354  45.31057   19.3191  58558.17519    51.29346        44.5911   23.83529  41.45166   60.0    0.19618  -21.72293  0.99861 
  -19.95156  0.07303  1.17688     13.79672  1.18988  1.50004  10.90461  0.17929     0.01205   9883.79969   9530.70843  3.99546         2058.05949      17.4565  0.00016  58504.49844   6.35456  0.79636     390254.423  46.61154  19.34017  58553.32918    51.43569       44.75463   22.33501  37.79771   35.0    0.16213  -21.81024  0.98997 
  -14.10929   0.3413  1.11403     14.26544   1.8069  1.01644   27.2911   0.0266     0.25951   7686.10039   5788.74389  1.64441         3334.64883     20.66345  0.25596  58510.34071   9.61746   9.3145    61329.07722  47.64432  19.36586     58557.26    51.42664       44.76108   18.89885  37.79771   71.5    0.18529   -22.0626   0.9514 
  -14.99028  0.09112  1.47098     14.21952  1.79168  0.89704  20.66754   0.0499      0.1313   8146.57512   6482.27371  2.06855         2805.51205     20.40126  0.13995  58509.45972   8.18213  1.88316   130992.67682  47.06964  19.33901  58555.75219    51.33261       44.65212   27.48924  36.07963   50.5    0.16405  -21.87602  0.98038 
  -11.94519   0.0364  1.59996     14.57708   1.5162  0.24291  13.58895  0.08468     0.01044   9868.73921   6926.45944  4.44764         2079.38327     20.19313  0.08667  58512.50481   7.89472  0.49464     25271.1666  47.63876  19.31938  58555.75219    51.42658       44.75327   20.61693  39.53065   40.0    0.19758  -21.87494  0.99195 
  -14.16948  0.10791  0.85441     14.19172  1.45487  0.88941  23.91535  0.04621     0.24808   8986.98989    3927.9785  2.06466         2323.06901     19.18684  0.00854  58510.28052  11.52212  2.58074    40787.76935  47.95781  19.29804  58553.32918    51.36693         44.687   25.77117  37.79771   47.5    0.18146  -21.74883  0.98951 
  -11.41226  0.04854   1.5521     14.28167  1.70634  0.74973  10.01301  0.10143     0.14342   9478.80839   3061.17964  3.80255         2085.06628     18.18033  0.00084  58513.03774    5.3666  0.48602   104325.32229  47.10068  19.33741  58558.17519    51.47306        44.8365   20.61693  32.64348   44.5    0.19958  -21.74857  0.99384 
  -14.05349  0.00143  2.00691      13.9693  1.58652  0.99575   9.00897  0.09771      0.0216   9554.95606    5517.3432  4.91401         2018.15145     20.38382  0.13444  58510.39651   4.90636  0.01292   683463.84982  46.02952   19.3455  58555.75219    51.35251       44.67728   24.05309  39.51579   46.5    0.18531  -21.90619  0.99969 
  -28.23118  0.04372    1.937      13.9816  1.64726    0.856   6.64879  0.13495     0.01224   6368.62074   3140.20985  1.80076         3150.26275     20.33539  0.12026  58496.21882   1.60865  0.29071   624657.69669  46.11571  19.35547  58555.75219    51.45064       44.76593   18.89885  41.23387   50.5    0.16189  -21.74697   0.9938 
  -33.65649  0.00272  2.84257     13.86618  1.87859  1.05234   4.14726  0.17521     0.02468   6744.05956   7589.66338  1.74528         3015.83052     17.89358  0.00043  58490.79351    1.1252  0.01129  2610343.80219  45.21856  19.21451  58553.32918    51.57699       44.92179   20.61693  32.64348   55.5    0.14894  -21.68594  0.99956 
  -20.96658  0.00999  2.15257     14.56921  1.98624  0.34479  10.51978  0.09812     0.01389   8806.90871   6907.36941  1.46922         2461.16398     17.54807   0.0002  58503.48342   4.86722  0.10513    62136.20789  47.10762  19.36845  58558.17519    51.52332       44.85602   20.61693  36.07963   42.0    0.18936  -21.73452  0.99791 
  -19.94807  0.05418  0.81672     14.22026  1.77676  1.14655  30.06643  0.04393     0.03095  10092.42243   8557.03204  0.49427         2705.65996     19.21585  0.00913  58504.50193  18.26837  1.62899    39909.28951  48.09325  19.31567     58557.26    51.45999       44.80655   17.18078  38.92141   37.5    0.19756  -21.76031  0.99586 
