 texplosion  fnickel    Pspin  log(Bfield)      Mns  thetaPB   mejecta    kappa  kappagamma      vejecta  temperature    alpha  cutoff_wavelength  log(nhhost)      A_V         MJD0   kenergy  mnickel           TSD   log(L0)  Peak_mag     Peak_MJD  log(E_rad)  log(Peak_lum)  Rise_Time    E_fold  tau_1  delta_m15     r_peak     frac 
   -5.97445  0.39945  0.87218     14.57593  1.56306  0.98431  16.07145  0.03166     0.04945   9835.28445   6984.12779   1.5629         3726.60104     18.20374  0.00089  58845.57555   9.27377   6.4197    7782.81156  48.69047  18.66786     58873.55     51.2167       44.58555    9.59068   29.4394   75.0    0.29813  -21.39332  0.99223 
   -2.64477  0.20592  1.33658     14.77602  2.00629  1.04346  29.16894  0.01665      0.3334   8945.57712   8072.84932   2.3452         3833.07915     16.25566    1e-05  58848.90523  13.92402  6.00657    9335.91013  48.34909  18.73935     58873.55    51.15065       44.39847   14.38602   34.7925   45.5    0.36839     -21.74  0.98565 
   -2.31464  0.30528  1.41274     14.77983   1.9682  1.00264   19.4819  0.03047     0.10121  10363.82715   7280.63705  2.33056         3537.30622     16.90289    4e-05  58849.23536  12.48242  5.94746   10054.44525  48.26043  18.66331     58873.55    51.13479       44.43466   12.06687  32.43313   58.0    0.31319  -21.53717  0.98205 
   -4.37583  0.46768  1.72307     14.59912  1.60583  0.86866  12.67857  0.03368     0.13304   8491.56614   7908.64459  2.20223         3960.76576     19.23603  0.00957  58847.17417   5.45347  5.92947   28046.81284  47.55406  18.70527  58878.57391    51.39104       44.88308    7.19301   23.9767   52.5    0.37011    -21.684  0.92865 
   -6.69494  0.35709   1.2001     14.60534  1.85444  1.23519  17.71868  0.02511     0.11192   8996.79878   7029.24751  1.61701         3919.05363     18.44653  0.00155  58844.85506   8.55529  6.32723   15268.03532  48.19484  18.69102     58876.56    51.31909       44.74336    9.59068  25.48628   76.0    0.30672  -21.39998  0.98278 
   -2.42461  0.20958  1.30661     14.58601  1.72106   1.5147  28.76839  0.01444     0.18242   8234.13617   8145.95587  2.30331          4038.9771     19.12601  0.00743  58849.12539  11.63533  6.02928   18360.74278  48.00846  18.60438     58873.55    51.30415       44.68132   11.98835  26.37437   52.5     0.3377  -21.66847  0.97773 
   -8.06783   0.3175  0.81371      14.7001  1.86306  0.90658  21.97683  0.02619     0.13577   9977.65316   7303.79055  1.51218         3160.54764     18.68888  0.00271  58843.48217  13.05116  6.97761    4558.15392  49.05935  18.61187     58873.55    51.16294        44.4613   12.06687  30.68313   88.5    0.23087  -21.22173  0.99585 
   -1.85585  0.20976  0.78894     14.74437  1.73365  0.92219   28.0636  0.01769     0.38176   8586.06468   7890.77627  2.98762         3832.50548     19.63382  0.02391  58849.69415  12.34124  5.88672    3251.87732  49.20158  18.64944     58873.55    51.20862       44.54446   11.98835  28.77204   52.0    0.28344  -21.66148   0.9975 
   -5.70097   0.3773  0.80244     14.33773  1.52706  1.21638  14.47776  0.02449     0.39777   8530.53213   7659.99293  0.83982          4003.4396     16.90827    4e-05  58845.84903   6.28465  5.46245   19276.43233  48.35885  18.72039     58873.55    51.22834       44.56605     9.6692  28.66664   61.5    0.35742  -21.47284  0.98993 
   -3.65414  0.36034  1.16385     14.89076  1.79725  0.60243  18.95241  0.03498     0.34027  11852.19937   6761.07212  2.65387         3251.57847     18.81205   0.0036  58847.89586  15.88143  6.82937    3738.43779  48.81897  18.49137  58873.13363    51.22099       44.58273   11.98835  27.04173   54.0    0.34505  -21.75046  0.98693 
   -4.60096  0.31325  0.71986     14.64266  1.73832  1.03645  19.81087  0.01369      0.3878   5368.20949   8452.45225  1.92111         4193.05543     16.22088    1e-05  58846.94904   3.40557  6.20578     4336.3147  49.15736  18.72463     58876.53    51.27595        44.6401    9.59068  28.77204   33.0    0.38641  -21.96816  0.99751 
   -6.59626  0.16416   1.3572     14.54005  1.83205  1.48594  35.81152  0.01333     0.06828   7807.24152   7862.42239  1.50408          4291.5517     19.13305  0.00755  58844.95374  13.02102  5.87889    26058.2285  47.85055  18.66799  58876.20265     51.1572       44.47915   12.06687  30.68313   71.0    0.26614  -21.37342  0.97192 
   -1.73082  0.15187  0.90786     14.76219  1.62624  0.79366  38.11517  0.01319     0.20974   8819.90975   7620.77008   2.3931         3717.21639     16.81885    4e-05  58849.81918  17.68696  5.78852    3721.06821  48.99332  18.75844     58876.53    51.29779       44.66486   11.98835  26.37437   55.0    0.30386  -21.55394   0.9951 
   -3.67468  0.26012  1.65402      14.6425  1.55114  0.79725  23.16076  0.01534     0.06955   6641.55157   7746.58473  2.72022         4068.54342     18.11702  0.00073  58847.87532   6.09423  6.02456   20442.91953  47.71187   18.7254     58876.56    51.26842       44.62461    9.59068   29.4394   54.5    0.34596  -21.70354   0.9356 
   -4.30421   0.3233  2.79601     14.56235  1.84064  1.30997   16.8574  0.01992     0.05255   6405.69869   8091.73653  2.83136         4041.34566     18.13925  0.00077  58847.24579    4.1262  5.44992  100266.82239  46.63958  18.59092     58873.53    51.16436       44.47555   14.38602  29.34719   54.0    0.34432  -21.63452  0.83997 
   -2.27361  0.31062  0.90911     14.71136  1.56001  1.01821  22.32705  0.02912     0.07039  12082.93443   6864.11227  2.91942         3397.90576     17.16054    8e-05  58849.27639  19.44479  6.93512    4523.35008  48.88928  18.62371  58872.57861    51.16656       44.46161   11.98835  31.74486   65.0    0.33057  -21.60029  0.99473 
   -6.64813  0.22195  1.29469     14.64032   2.0387  1.53287  28.00987   0.0173     0.03809   8709.10275   7827.23994  1.64605         3913.75227     17.59505  0.00022  58844.90187  12.67316  6.21668   16629.00651    48.133  18.63681     58873.55    51.23196        44.5746   11.98835  28.66664   72.5    0.27997  -21.36341  0.98265 
   -7.95037  0.13473  0.78251     14.89955  1.84386  0.42223  46.46615  0.01332     0.05469  10339.00701   7068.83789   0.6546         4219.28586     17.40335  0.00014  58843.59963  29.62931  6.26036    1665.05689  49.52616  18.61212  58876.20265    51.40009       44.85132    9.59068   25.5402   76.5    0.26335  -21.32366   0.9954 
   -3.14439  0.40379  1.43957     14.52714     1.57  1.14385  16.42126    0.025     0.04378   9229.01626   6987.67211  1.87604          3668.8564     17.46406  0.00016  58848.40561   8.34343  6.63081   26663.24799  47.72236  18.73541  58876.20265    51.15235       44.45053   14.38602  31.16971   61.0     0.3798   -21.6597  0.95231 
   -4.65235  0.49334  1.64974     14.49012  1.52959  1.04304  12.13812  0.04029     0.23068    8964.2705    7598.5365  1.79811         3987.09392     19.36659  0.01292  58846.89765   5.81847  5.98816   40455.24594  47.41161  18.65692  58873.13363    51.15916       44.41596   14.38602  33.56738   54.5    0.33485  -21.64935  0.92634 
   -6.12336  0.41103  1.54315      14.6681  1.67827  0.72187  15.34347  0.03192     0.49858   9684.27038   7252.76128  1.86782         3558.61686     19.33666  0.01206  58845.42664    8.5839  6.30669    17111.5684   47.8836   18.7165  58876.20265    51.24828       44.59596   11.98835  28.66664   68.5    0.31039  -21.47607  0.94669 
   -3.77049  0.19155  1.05735     14.59225  1.60784  1.18323   30.4942  0.01694     0.22125   8285.14316   7654.87689  2.99827         3458.69111     16.15272    1e-05  58847.77951  12.48661  5.84132   10914.47809  48.38865   18.6294  58872.57861    51.35592       44.74533   11.98835  28.77204   57.0     0.2894  -21.55136  0.98874 
   -4.45544  0.39186  0.77584     14.49654  1.41377  1.52709  18.00724  0.03497     0.16507  12675.00557   6774.37601  2.92917         2804.17517       16.245    1e-05  58847.09456  17.25722  7.05628     8028.8408  48.73503  18.50682  58872.57861    51.17312       44.49951     9.6692  28.77204   69.5    0.31715  -21.54289   0.9945 
   -3.63266  0.34731  0.72369     14.75151  1.98004  0.70733  16.51708  0.02125     0.03144   7566.63405   8082.15392   0.9807          4880.9113     18.28378  0.00107  58847.91734   5.64113  5.73652    3023.99494  49.36583  18.71165     58876.56    51.27176       44.63541   11.98835   29.4394   40.5    0.36925    -21.843  0.99752 
   -4.49655  0.22924  1.34117     14.88908  1.74534  0.48971  24.00817  0.01889     0.04987   7313.36662   7645.67242  3.14222         3933.54751     19.00222  0.00558  58847.05345   7.65986  5.50358    4858.42421  48.56926  18.58226     58873.55     51.2108        44.5406   11.98835  28.77204   49.5    0.31487  -21.72508  0.97593 
   -4.61726  0.19886  1.16327     14.47149  1.59586  1.23268  31.97867  0.01124     0.15196    7098.8551   7342.33957  1.49173         4224.24409      19.7682  0.03258  58846.93274   9.61312  6.35913   22865.96715  47.98129  18.67859  58872.57861    51.17922       44.47952   11.98835  31.16971   61.0    0.33771  -21.65403  0.97412 
   -4.91072  0.38702  0.92794     14.55525  1.78168   1.3846   17.0437  0.02825     0.04963   9693.00846   7561.36673  1.33682         3704.18133      19.1749  0.00831  58846.63928   9.55231  6.59629   11045.48224  48.54145  18.69831  58876.20265     51.2816       44.64675   11.98835  28.77204   63.5    0.33785  -21.55287  0.99199 
   -4.39797  0.30306  0.83886     14.62194  1.54841  1.01324  21.36499  0.02588      0.4062   9764.57297   7857.02943  3.06391         3119.90782     19.63031  0.02372  58847.15203  12.15168  6.47494     5770.2996  48.85015  18.63542  58876.20265    51.19255        44.5082   14.38602  29.32375   64.5     0.2655  -21.48607  0.99464 
   -4.33108  0.21542  0.74174     14.64865   1.5226  0.54238  28.11584  0.01873     0.37454  11462.17758   7378.12144  1.40415         2497.29465     16.84037    4e-05  58847.21892  22.03497  6.05659    3922.94831  49.11731  18.58584     58873.55    51.21523       44.56991   11.98835  28.66664   52.5    0.35522  -21.63303  0.99306 
    -7.2287  0.30314  1.21652     14.62059  1.95683  0.93259  21.30125  0.02275     0.15332  10365.41912   6999.02581  0.65823         4526.51184     17.84472  0.00039   58844.3213   13.6523  6.45728   15431.85607  48.20174  18.53523  58870.06462    51.20191       44.50273   14.38602  32.57373   73.5    0.31773  -21.44946  0.97829 
   -4.93786  0.34313  0.85849     14.86377  1.67426  0.45272  19.22892  0.02533     0.21983  10521.58291   7294.90955  1.08428         3492.73624      16.8152    4e-05  58846.61214  12.69826  6.59798    2145.70067  49.29363  18.68652     58873.55    51.13931       44.41554   12.06687  31.16971   66.5    0.33239  -21.50496   0.9928 
   -3.52398  0.26811  1.24953      15.0034  1.96772  0.55594  25.56839  0.01603     0.37562   9023.76312   6611.93363  2.24539         3687.66973     16.10429    1e-05  58848.02602  12.41955  6.85521    2808.48295  48.92085  18.63031  58872.57861    51.21094       44.51166   14.38602  30.17606   75.5    0.33839   -21.5195  0.98791 
   -3.80528  0.29725  1.24757     14.56775  1.52724  1.35382   20.0304  0.02114     0.04506   7366.77721   7362.94008  3.83675         3737.25393     18.15308  0.00079  58847.74472   6.48443  5.95408   16156.77292  48.05227  18.68273  58876.20265    51.36269       44.78657    9.59068  26.37437   55.0    0.28405  -21.67169  0.97863 
   -5.16729  0.39687  1.48022     14.39578   1.3788  1.13665  14.39876  0.02498     0.14439   6742.37794   8731.78972  1.66976         4395.22435     17.89846  0.00044  58846.38271   3.90462  5.71442   45331.59284   47.4113  18.63253  58876.20265    51.38494       44.84548    9.59068   25.5402   60.0    0.30587    -21.492  0.93425 
   -5.63578  0.37867  0.99231      14.6485  1.63503  0.87686  17.92109  0.02586     0.14249  10029.25219   7319.22812   1.5869         3596.49048     17.70864  0.00028  58845.91422  10.75298  6.78621    7544.52715  48.61145  18.66932  58876.20265    51.10405       44.37273   14.46454  34.78393   76.0    0.31144  -21.42874  0.98866 
    -4.2765  0.47259   1.5793     14.59502  1.99442  1.51815  12.45827  0.03653     0.29589   8733.71284   7261.44731  1.78816         3827.97698     18.70908  0.00284   58847.2735   5.66869  5.88766    29821.6588   47.6972  18.63619  58876.20265    51.44923       44.93839    9.59068   23.9767   53.5    0.32689  -21.66485  0.96299 
   -6.10951  0.17251    1.353     14.35081  1.61502   1.4286  33.94199  0.01033     0.09388   7169.51487   8473.84225  1.16416         4335.88328     18.83737  0.00382  58845.44049  10.40744  5.85537   54571.24025  47.47747  18.74393     58876.56    51.13717       44.45595   14.38602  31.16971   64.0    0.30218  -21.48269  0.95311 
   -3.75875  0.19138  0.88377     14.66441  1.73307  1.10544  34.73947  0.01524     0.02464  11108.24152   7395.47865  1.70561         3504.30975     17.06459    6e-05  58847.79125   25.5706  6.64852    5895.14205  48.84449  18.66806     58873.55    51.13495       44.42593   12.06687  32.45656   57.5    0.35353  -21.62639  0.99496 
   -7.83735  0.32357  1.80345     14.57717  1.79548  1.11902    19.109  0.02304     0.03248   7522.02603   7516.61218  2.17924         4029.86879     17.78546  0.00034  58843.71265   6.44963  6.18303   38006.34729  47.43096  18.74687  58876.20265    51.18287        44.5086   11.98835  31.16971   76.0    0.25926  -21.39826  0.93004 
   -4.81381  0.34722  2.37748     14.73366  1.95734  0.85818  15.94515  0.02659     0.03488   7335.78128   7790.17539  3.08665         3672.40564      18.0213  0.00058  58846.73619   5.11857  5.53651   35026.83386  47.26388  18.61095  58876.20265    51.19035        44.5171   12.06687  28.77204   56.5    0.31571  -21.56791  0.89725 
   -2.15439  0.46391  1.05694     14.92009  1.93699  0.83845  14.52923  0.04454     0.15215  11897.26731   6892.07617  3.15376         3315.84204     19.00769  0.00565  58849.39561  12.26773  6.74026    2903.14194    49.045  18.75224  58876.20265    51.16835       44.40968   12.06687  36.43066   56.5    0.30216  -21.70997   0.9953 
    -3.1006  0.36588  1.28059     14.65637  1.82567  1.25225  16.53506  0.02454     0.11564   7802.05838   7727.35277  2.28526         3879.86971     17.14605    8e-05   58848.4494   6.00415  6.04993   13530.48155  48.18414  18.60503  58872.57861    51.17583       44.46335   11.98835  31.72142   45.5    0.37764  -21.77705  0.98289 
   -2.96607  0.24708  0.73422     14.67558  1.86866   1.3134  26.54696  0.01878     0.10941  10492.84306   7149.29997  1.52618         3770.19936     16.77745    3e-05  58848.58393  17.43525  6.55935    4167.03342   49.1889  18.78364     58876.56    51.26383       44.62207   11.98835  27.04173   65.5    0.34286  -21.54125  0.99805 
   -4.66462  0.24182  1.55216     14.53615  1.71091  1.09081  23.32212  0.01837     0.03452   7864.91926   8046.72217  1.48918         4123.65942     17.73064   0.0003  58846.88538   8.60565  5.63975   32405.39209  47.60958  18.76917  58878.57391    51.16608       44.42736   12.06687  35.96505   55.0    0.31751  -21.55966   0.9515 
   -2.53367  0.21303  1.23079     14.76857  1.70296  0.73697  26.77133  0.01666     0.01303   7348.39593   8100.17157  2.60628         4034.65811     19.17567  0.00833  58849.01633   8.62347  5.70318     6954.3082  48.47743  18.62726     58876.56    51.26836       44.64795   11.98835  27.04173   57.5    0.31815  -21.54095  0.98357 
   -3.84243  0.15876  0.78636     14.84193  1.70944  0.65885  42.16419  0.01416     0.44906  11189.95757   6845.75979  2.40159         3308.30836     17.10873    7e-05  58847.70757    31.494  6.69418    2032.63597  49.40239  18.69891  58876.20265    51.10979       44.38114   14.46454  33.56738   64.0    0.33444  -21.58083  0.99697 
   -3.71994  0.28631  2.39509     14.60591  1.79467  1.05659  19.11308  0.01667     0.08497   6288.19716    8495.0342  2.86212         4018.17359     19.26984  0.01034  58847.83006   4.50827  5.47236   58696.79214  46.99557  18.55016  58872.57861    51.16641       44.47323   14.38602  29.34719   50.5    0.35694  -21.67502   0.8792 
   -3.29312   0.2814  1.17691      14.8256  1.48299  0.41099  21.54076  0.02153     0.35981    8851.6972   7754.35741  1.78739         3735.03586     17.20562    9e-05  58848.25688  10.06795  6.06156    4258.40839  48.66925  18.72329  58876.20265    51.27964       44.60859   11.98835  31.06432   55.5    0.33365  -21.61096  0.97186 
   -6.50678  0.25587  1.44266     14.53254  1.56449  0.81408   24.2438  0.01331     0.02445   6456.56008   7517.89651  1.55318         4191.28279     17.65077  0.00025  58845.04322   6.02879  6.20319   26027.58198  47.72946  18.62046  58872.57861    51.18501       44.47594   14.38602  30.68313   80.5    0.29017   -21.3808  0.94443 
  -10.25032    0.361  0.70305     14.50289  1.63435  0.97741  16.89576  0.02396     0.16725   7120.56846   7585.03318  0.99679         4306.24678     17.11055    7e-05  58841.29968   5.11016  6.09941    7402.02643  48.91887   18.6102  58876.20265    51.31003       44.70865   11.98835  26.37437   92.0     0.2203  -21.11738  0.99558 
   -1.65269  0.45123  0.99257     14.77118  1.91821  1.52483  13.73655  0.03188     0.04022   8209.76855   8003.11718  2.64075         4039.32873     16.43549    2e-05  58849.89731   5.52289  6.19831    5033.59335  48.85634  18.74155     58876.56    51.13807       44.43541   12.06687  33.56738   47.0    0.32916  -21.79405   0.9963 
   -4.81311  0.21759  0.79071     14.84939  1.68959  0.52875  30.36417  0.01814     0.05639  10910.83298   6865.99462  1.29663         3752.33671     17.00152    6e-05  58846.73689  21.56276  6.60704    1962.63567  49.40776  18.63007  58876.20265    51.29565       44.69984   11.98835   23.9767   61.5     0.3444  -21.60435  0.99571 
   -6.20756  0.34615  1.73208     14.62555  1.82414  0.97876   17.4932  0.02874     0.27557   8388.04352   7516.76374  2.26065         3674.11707      16.3586    1e-05  58845.34244   7.34206  6.05521    28504.3262  47.59786  18.72001  58876.20265    51.15751       44.44565   14.38602  33.56738   68.5    0.26922  -21.43624  0.94073 
   -6.47638  0.17271  1.28142     14.61228  2.11558  1.51404  36.91398  0.01078     0.17602   7943.69298   8290.65322  1.06311         4559.72203     18.25569    0.001  58845.07362  13.89514  6.37554   19234.09319  48.09482  18.67648  58876.20265    51.15876       44.48114   14.38602  29.34719   74.5    0.29288  -21.38421  0.98129 
   -8.65794  0.23753  0.74137     14.57255  1.89235  1.17619   29.5354  0.01535     0.36203   9078.99161   7560.05445  0.57975         4695.90845     17.27091   0.0001  58842.89206  14.52263  7.01567    6914.84764  48.96599  18.55996  58872.57861    51.33905       44.75405    9.59068   25.5402   89.0    0.24602  -21.25656  0.99626 
   -7.20403  0.46716  0.74674     14.59084  1.55272  0.65641  14.35212  0.03255     0.08547  10835.11749   7138.06918  0.40202         3264.30294     18.75998   0.0032  58844.34597  10.05103  6.70475     5291.4551  48.99002  18.64978  58876.20265    51.15087       44.45778   12.06687  32.43313   82.0    0.30368  -21.30864  0.99261 
   -6.45859  0.20034  1.47788     14.48096  1.56924  0.78205  29.10701  0.01126     0.02742   7257.85775   7366.13941  1.53596         4085.96665     19.85217  0.03953  58845.09141   9.14622  5.83127   34742.88944  47.58439  18.68862  58876.20265     51.1754       44.48285   12.06687  29.34719   64.5    0.33852  -21.57302  0.93865 
   -5.14541  0.24661  0.84123     14.59768  1.77739  1.06396  27.76164    0.022     0.36901  10466.74543    7220.3154  1.05971         3414.89081     17.91213  0.00045  58846.40459  18.14244  6.84637    7448.34392  48.79674  18.63577  58876.20265    51.30185       44.68124   11.98835  26.37437   73.5    0.27866  -21.43477  0.99407 
   -5.43571   0.4323  0.80819     14.67366  1.91235  1.19705  14.05099  0.03737     0.12041   9168.08412   7812.71842  1.59815         4081.84763     18.98585  0.00538  58846.11429   7.04517  6.07427    5213.02193  49.01829  18.66592  58876.20265    51.46719       44.92625   11.98835   23.9767   66.0    0.28995   -21.4351  0.99713 
   -4.89535  0.33097  1.03286     14.59722  1.65581  1.07809  20.19262  0.02581      0.0738  10302.10209   7425.32679    1.574         3758.96259     17.81082  0.00036  58846.65465  12.78414  6.68314   10482.51413  48.43931  18.73418  58876.20265    51.17822       44.46692   12.06687  31.16971   63.0    0.34147  -21.57907  0.98747 
   -4.65998  0.47952  1.62019     14.57593  1.55435  0.79478  13.21748  0.03021     0.07235   8962.52646   6979.46715  1.53392         3530.67823     16.60897    2e-05  58846.89002    6.3334  6.33804   26707.24984  47.61463  18.61946     58873.55    51.24569       44.60306   11.98835  27.04173   68.5    0.36101    -21.516  0.92724 
   -7.76953  0.44624  0.70707     14.44888  1.59314  1.35934   14.8761  0.03471     0.09062   9853.83541   7050.21806  1.14151         3331.57415     17.61094  0.00023  58843.78047   8.61642  6.63829    9359.09143  48.80093  18.69512  58876.20265     51.1869       44.47352   11.98835   33.0808   84.5    0.25646   -21.2776  0.99542 
   -2.64082  0.26592  0.70327     14.82357  1.97372  0.85701  23.46451  0.01883     0.13369    8506.7464   7673.80843  1.85314         3692.01021     16.29365    1e-05  58848.90918  10.12898  6.23968    2042.68446  49.55969  18.63365     58873.53    51.14123       44.44749   12.06687  29.34719   47.0    0.40564    -21.781   0.9987 
   -5.73774  0.25667  0.90875     14.67215  1.59036   0.7631  25.18106  0.02227     0.36232   9568.29606   7320.24915   1.8365          3562.8579     16.94652    5e-05  58845.81226  13.75214  6.46321    5519.44192  48.81155  18.63491  58873.13363    51.07339       44.33987   16.78369  34.03299   76.0    0.26569  -21.37846  0.99144 
   -3.71164  0.27219  0.84989     14.83221  1.70815  0.80727  23.74708  0.02475     0.05583   9907.04473   7217.78693  3.68555         3492.71037     18.75906  0.00319  58847.83836  13.90355  6.46361    2481.18644  49.24798  18.69585     58876.56    51.34097       44.76498    9.59068  26.37437   57.0    0.29438  -21.67711  0.99699 
   -2.39353  0.17086  1.09857     14.44742  1.33746  1.53292  36.99457  0.01051     0.29453   6575.86228   8184.50907   3.1774         3905.40425     20.14517  0.07761  58849.15647   9.54269    6.321   19094.61193  48.03256  18.63595  58876.20265    51.30635       44.68828   11.98835  26.32647   60.5    0.26661  -21.62587  0.97757 
   -1.13005  0.29359  0.83645     14.59269  1.56843  1.39852  20.62058  0.02361     0.44937   9348.94812   7109.24242  2.58223         3559.30319     18.43152   0.0015  58850.41995  10.75112  6.05398    6649.54908  48.79664  18.69932     58876.56    51.23215       44.60002    9.59068  31.06432   42.5    0.33825  -21.83929  0.99576 
   -5.11936  0.29173  0.74437     14.62746  1.56818  0.75801  21.76846  0.02527     0.46519  11134.32387   7263.44746  1.63372          3062.5597     16.01948    1e-05  58846.43064   16.0984  6.35049    4486.16893  49.06878  18.67239  58876.20265    51.18451       44.47974   12.06687  30.68313   63.5    0.32669  -21.50674   0.9952 
   -6.35458  0.27258  1.55946     14.80498  1.94213   0.6297  21.69891   0.0214     0.10228   8494.49711   7670.99835  1.91497          3835.0423     16.23936    1e-05  58845.19542   9.33986  5.91479   10766.72261  48.13909  18.70939  58876.20265     51.1457       44.39047   14.38602  34.77688   65.5    0.30891  -21.45913  0.96179 
   -6.49354  0.33373  3.61001     14.46262  1.65355  0.96313  16.02823  0.01585     0.02352   5069.59766   8549.04985  2.83592         4059.80516     16.95403    5e-05  58845.05646   2.45731  5.34912  237692.99464  45.99623  18.69843     58873.55    51.17984       44.45182   12.06687  31.16971   63.0    0.31298  -21.51359  0.71875 
   -5.47605  0.20622  1.05718     14.66421  1.93927  0.89393  29.42505   0.0135     0.01035    6738.3665   7348.51858  1.62412         4334.69728     19.06576  0.00646  58846.07395   7.96991   6.0679    9447.95543  48.53284  18.72259  58878.57391    51.32892       44.71475   11.98835  26.37437   68.0    0.27256   -21.5121  0.98865 
   -6.08815  0.44317  2.03861     14.62035   1.7766  1.05756  13.92882   0.0336     0.07596   8664.45937   7320.82252     2.79         3667.08996     18.29062  0.00108  58845.46185    6.2377   6.1729   39389.28158  47.30439  18.70914  58878.57391    51.27811        44.6675   11.98835  27.04173   67.5    0.30161  -21.50326   0.9081 
   -4.89682  0.38882  1.72174     14.81383  2.17163  0.89116  15.85985  0.03056      0.2794   9649.15536   7101.07779  2.62908         3638.40623     16.05545    1e-05  58846.65318   8.80856  6.16668   14089.07033  47.98481  18.68924  58876.20265     51.2114        44.5253     9.6692  31.16971   53.5    0.34953  -21.71246  0.96438 
   -2.51252  0.36146  1.48022     14.77833   1.8296  0.78222  16.51214  0.02561     0.19999   7988.10967   7840.37004  2.55024         3881.49328     17.67493  0.00026  58849.03748   6.28519  5.96851   10331.46726  48.17639  18.58719     58873.53    51.21502       44.53738   11.98835  31.16971   58.0     0.3254  -21.59807  0.97118 
   -2.54798  0.30807  0.95903     14.95743  2.16819  0.69565  20.12437  0.01803     0.15954   7022.22481   7894.58032  2.39267         4039.60936     16.39009    1e-05  58849.00202   5.91969  6.19973    2252.79943  49.28856   18.5221  58873.13363    51.20531        44.5347     9.6692  30.17606   27.5    0.46926  -22.90737  0.99669 
   -3.54157   0.1605  0.85181     14.94295  1.94145  0.55709  38.27833  0.01219     0.06023    8094.6627    7818.6885  2.39489          3779.0944      19.6648  0.02568  58848.00843  14.96159  6.14355    1701.09134  49.46556  18.60481     58873.55    51.16521         44.465   12.06687  30.68313   61.0    0.32469  -21.55242  0.99679 
   -8.63318   0.1743  0.84108     14.52163  1.73041  1.14946  37.60382  0.01139     0.09096   9195.36658   7247.29862  1.18459          3960.1024     18.32467  0.00117  58842.91682  18.96694  6.55434   10289.37724  48.64493  18.66407     58873.53    51.23021       44.56029   14.38602  28.66664   81.5    0.28261  -21.34631  0.99277 
   -4.92672  0.24976  0.96081     14.69412  1.63811  0.95397  25.54738  0.02368     0.12994   9917.10647    7438.2872  2.79826         3648.23114       18.318  0.00116  58846.62328  14.98799  6.38081     5743.8015  48.75871  18.73663     58873.55    51.15724       44.42946   14.38602  32.45656   63.5    0.29279   -21.5422  0.99299 
    -4.0629  0.20193  1.18784     14.65225  1.56594  0.70032  31.80371  0.01254     0.09633   8192.66933   7796.58354  1.58447         4092.76798     20.12377  0.07388   58847.4871  12.73373  6.42225   10176.66757   48.3065  18.70715     58873.55    51.21557       44.52768   11.98835  30.17606   52.0     0.3979  -21.76255  0.97309 
  -13.42372  0.15882   0.7672     14.90175  1.99511  0.43288   39.1381  0.01247     0.01936   7639.51041   8066.42113  0.97125         4478.11353      18.6359   0.0024  58838.12628  13.62567  6.21589    1714.33819   49.5649  18.61486     58876.56    51.34094       44.80634    9.59068  25.48628   83.0    0.20381   -21.1606  0.99602 
   -2.59384  0.38876   1.2129     14.73568   1.8178  1.00258   15.4896   0.0245     0.36995   8294.52973   7814.49409  2.54228         3990.97884      16.8689    4e-05  58848.95616   6.35698  6.02168    8387.90594  48.43709  18.46441  58872.57861    51.15627       44.45853   14.38602  31.16971   34.0    0.42619  -22.01877  0.98747 
   -6.32087  0.28915  1.01101     14.52536  1.79792  1.47099  21.33116  0.02772     0.13149  10604.66671   7106.84871  1.00708         3744.51416     16.09503    1e-05  58845.22913  14.30987  6.16781   15183.71223  48.33272  18.69825  58876.20265    51.27003       44.62353   11.98835  27.04173   70.0    0.29696  -21.39517  0.98868 
   -3.49042  0.28506  0.80299     14.64639  1.56666  0.92975  22.81852  0.03084     0.19473  13972.24618   6948.91892  2.07231         3307.81084     16.23234    1e-05  58848.05958   26.5734  6.50468    4779.85071  48.97499  18.66996  58876.20265    51.26513       44.65263    9.59068  28.77204   54.5     0.3734  -21.65972  0.99545 
   -5.40722  0.39364  0.95008     14.74247  1.72194  0.92451   17.7749  0.03293     0.08008  11297.40977   6880.54937  2.50146         3343.32602     17.15432    8e-05  58846.14278  13.53294   6.9969    4725.17941  48.87492  18.76473  58873.13363    51.19597       44.48058   11.98835  31.74486   77.5    0.29816  -21.44897  0.99382 
   -6.75867  0.36273  0.78233     14.64093  1.91822  1.20823  18.17944  0.02822     0.11539   9662.06402   7070.13845  1.00092         4200.19956     17.57379  0.00021  58844.79133  10.12389  6.59423    5696.80797  49.00934  18.64771     58876.56    51.37269       44.81324    9.59068  25.48628   82.5    0.27499  -21.32423  0.99686 
    -3.4376  0.24429  1.71011     14.57332  1.80062  1.33087  24.40146  0.01509     0.20607    7136.6719   8277.30224  2.03612         4115.88673     16.28355    1e-05   58848.1124   7.41369  5.96115   34885.83718  47.51557  18.64892     58876.53    51.33648       44.74289   11.98835  25.48628   57.5    0.32229  -21.59318  0.94506 
    -4.2469  0.16974  1.40558     14.44872  1.55989  1.34313  32.87537  0.01047     0.09865   6926.05144   7882.67329  1.99894          4057.8625      17.8756  0.00042   58847.3031   9.40739  5.58025   36238.84328  47.60706  18.71821  58876.20265    51.29777       44.68741    9.59068  26.37437   52.0    0.35956  -21.66346  0.95725 
   -9.58217  0.25113   1.5025     14.65949  1.84653  0.85917  22.64601  0.01633      0.0754   5656.32896   8200.71882  2.43281         4176.12384     18.45569  0.00159  58841.96783   4.32203  5.68703    18570.7674  47.91274  18.66683  58873.13363    51.20279        44.5029   11.98835  30.17606   79.5    0.22725  -21.26041  0.96282 
   -1.53913  0.30001  1.01463     14.74373  1.83007  1.31122  20.41549  0.02102     0.20391   8465.89779   7740.12465  2.49352         3950.72653     16.95581    5e-05  58850.01087   8.72837  6.12487    5694.22859  48.76326  18.57866  58872.57861    51.11638       44.38601   14.38602  33.56738   68.5    0.33482  -21.46179  0.99518 
   -8.13988   0.2153   1.4182      14.5746  1.61307   0.8621  27.53349  0.01692     0.19246   7607.85079   7426.07079  1.91434         4081.08278      17.4516  0.00016  58843.41012   9.50632  5.92801   21366.83786  47.84328  18.70036  58876.20265    51.19465         44.518   11.98835  30.17606   77.0    0.25507   -21.3366  0.95638 
   -7.42982  0.15695  0.96143     14.45944  1.81507  1.51382  38.28222  0.01002     0.07828   7847.70117   7776.94008  0.89262         4430.72684     19.23485  0.00954  58844.12018  14.06401  6.00847   18778.45749  48.28824  18.67693     58873.53     51.2459        44.6004    9.59068  28.77204   76.0    0.28375  -21.32153  0.98834 
   -6.70182  0.23122  0.82074      14.5867  1.77522  0.80738  27.01034  0.01513      0.0378   9056.39959   7561.00541  0.78268         4293.66223     19.63502  0.02397  58844.84818  13.21504  6.24524    7448.48043  48.81762  18.66939  58876.20265    51.19306       44.50135   14.38602  29.34719   72.0     0.3154  -21.41866  0.99276 
   -3.90393  0.36029  1.33554     14.68038  1.75735  1.04217  17.72866  0.02848     0.04856   9162.00539   6955.35704  2.23477         3671.08381     17.07228    7e-05  58847.64607   8.87737  6.38753   12683.01414  48.15917  18.62008  58876.20265    51.23042       44.57562   11.98835  28.77204   67.5    0.32602  -21.52645  0.97741 
   -7.99723  0.21142   0.7173     14.57796  1.63635  0.66901  27.13148   0.0171     0.09589   9264.00211   7139.11357  0.79099         3896.43085     17.19554    9e-05  58843.55277  13.88986  5.73605    5459.63082  49.03415  18.65722  58876.20265    51.20005        44.5611   14.38602  26.37437   71.5    0.29599  -21.34487  0.99448 
   -4.43054   0.1545  0.82494     14.79571  2.15354  1.15093  44.72865  0.01213     0.03198   10713.1247   6768.96591  1.70728         3620.06441     16.81064    4e-05  58847.11946  30.62282  6.91048    3486.59542  49.22675  18.66237     58873.55    51.22084       44.56117   11.98835  31.06432   69.0    0.35172  -21.56581  0.99788 
   -3.72862   0.2585  0.75809     14.74131  2.05128  1.26438  23.36244  0.02048     0.07174   8549.05963   7242.70052  1.92942          3862.0605     17.27648  0.00011  58847.82138  10.18549  6.03912    3602.92875  49.26477  18.66186  58876.20265    51.16335       44.45503   12.06687  31.16971   54.0    0.29496  -21.64564  0.99844 
   -3.42291  0.27277  1.22376     14.64164  1.66293  1.21366  23.42617  0.02478     0.21154   9881.28336   7456.83888  3.16588         3403.04489     18.79197  0.00344  58848.12709  13.64442  6.39005   12044.90794  48.23352  18.77581     58876.56    51.13388       44.41764   12.06687  33.56738   64.5    0.28193  -21.52338   0.9831 
   -1.45856  0.31769  1.04213     14.86524  1.81977  0.72169  18.93109  0.02934     0.07088  10165.34964    7686.9013  3.12535          3447.3264     16.93615    5e-05  58850.09144  11.66937   6.0143    3413.37742  48.95984  18.58713     58873.55    51.17796       44.49901   14.38602  28.77204   58.0    0.31064  -21.53904  0.99364 
   -5.96601  0.37179  0.76615     14.49352  1.82475  1.28162  17.59472  0.02916     0.06966    12510.009   7329.96285  0.22929         3295.58899     18.06436  0.00064  58845.58399  16.42574  6.54158   10247.19767  48.75082  18.61242  58872.57861    51.24418        44.6021   11.98835  28.77204   66.0    0.35586  -21.46243  0.99482 
   -6.03048  0.36294  1.07014     14.60281  1.94291  1.03198  16.22013  0.03054     0.25923  10521.22818   7283.16714  0.73197         3958.82633     17.48935  0.00017  58845.51952  10.71062    5.887   12868.62103  48.38888  18.55822     58873.55    51.18245       44.49784   12.06687  28.77204   65.0    0.32978  -21.43507  0.98764 
   -7.00594  0.18512  0.79513     14.44496  1.47135  1.05483  33.31209   0.0146     0.37108   9173.05115   7286.88813  1.21885         4034.50732     16.03317    1e-05  58844.54406  16.72079  6.16677   11129.58674   48.5892  18.78265     58873.55    51.27596       44.60494   11.98835   29.4394   74.5    0.27975  -21.38465  0.99159 
   -2.59763  0.22922   0.9824     14.69459  1.88342  1.47017  25.87562  0.01929     0.22276    9014.8433   7944.14575  2.59597         3830.58544     19.50823   0.0179  58848.95237  12.54395  5.93112    6889.17006  48.72105   18.5465  58873.13363    51.16599       44.45921   12.06687  31.16971   35.0    0.34608  -22.08295  0.99518 
   -2.76507  0.20356  0.75868     15.09189  2.12847  0.54396  36.59191  0.01598      0.0793  13419.05193   6573.59507   2.8637         2628.28473     16.40084    1e-05  58848.78493  39.30573  7.44848     745.09146  49.96459  18.61237  58876.20265     51.4127       44.90171    9.59068  21.57903   71.0    0.37294  -21.58584  0.99869 
   -4.83534  0.33124  0.76386     14.52376  1.38236  1.10396  18.07962   0.0253     0.08533    7683.2096   7840.98188  2.66575         3819.42062      18.5028  0.00177  58846.71466   6.36651  5.98864    6713.34053   48.8165  18.69307  58876.20265    51.19355       44.46161   14.38602  32.43313   60.0    0.30074  -21.55468  0.99516 
   -3.57519  0.22352  1.72218     14.70076  2.01764  0.96652  26.31128  0.01375      0.0946   7843.03915   8361.49375  2.03464         4086.81188      18.3193  0.00116  58847.97481   9.65468  5.88101   22044.79926  47.75822  18.63511  58872.57861    51.25778       44.62082    9.59068  28.77204   44.0    0.37541  -21.81499   0.9549 
    -4.9203  0.25952  0.72513     14.67452  1.48957  0.62135  24.36381  0.02078     0.23692   9662.28021   7250.57301  1.23626         3705.89491     19.09733  0.00695   58846.6297   13.5685    6.323    3255.85217  49.20841  18.68816  58876.20265    51.22214       44.54178   14.38602  30.17606   66.0    0.31563  -21.48985  0.99517 
   -2.63496  0.30608   1.1744     14.76334  1.76716  0.79509  20.28104  0.02792     0.05064   10419.8696   7269.96535  2.27038          3575.7246     16.55305    2e-05  58848.91504  13.13536  6.20764    6730.33175  48.54845  18.76783  58876.20265    51.14129       44.42092   12.06687  32.45656   47.0    0.35925  -21.76796  0.98625 
   -6.64431  0.31868  1.33962     14.67521  2.07277  1.01602  21.16104  0.02366     0.19501  10211.68781   7137.30327  0.98071         3534.05555     17.13905    8e-05  58844.90569  13.16313  6.74355   15413.53986  48.14353  18.56571     58873.53    51.15635       44.44289   14.38602  31.16971   79.0    0.28963  -21.36466   0.9763 
   -5.65904  0.26371  0.95784     14.64974  1.91566   1.1038  25.31224  0.02299     0.09673  10902.31613   6833.57893  1.18302         3445.87085      16.1911    1e-05  58845.89096  17.94714  6.67507    8188.99697  48.67535  18.60543     58873.55    51.11886       44.40982   16.78369  30.05889   75.0    0.29818  -21.41481  0.99273 
    -4.1725  0.47473  1.48569     14.70535   1.8409  1.06949  13.99832  0.03498     0.06836   9929.35493   6974.87309  2.15283         3934.98944     17.21142    9e-05   58847.3775   8.23275  6.64545   14655.78641  48.02401  18.73468  58876.20265    51.13129       44.38707   12.06687  36.43066   56.0    0.39712  -21.75902  0.96999 
   -0.97191  0.19827  0.76517     14.58409  1.45414   1.5169  31.64899  0.02293     0.03851   12179.2048   6872.36205  4.11355          3330.3269     18.74702   0.0031  58850.57809  28.00431  6.27518    5367.30597  48.93418  18.70306  58878.57391    51.32267       44.69867   11.98835  28.77204   61.5    0.31501  -21.54687  0.99685 
   -6.89814  0.19082  0.94094     14.69148  1.87061  0.52817   28.1356   0.0102     0.02862    6394.4921   8630.12963  0.83916         5188.72282     16.02385    1e-05  58844.65186   6.86271  5.36885    6367.36761  48.78974  18.65364  58872.57861    51.13203       44.40055   16.78369  34.02908   66.5    0.30089  -21.42377  0.98813 
   -3.13468  0.45305  0.88735     14.75864  1.72743  0.84282  13.60137  0.04334     0.04818  10051.46975   7684.55557  1.89453         3785.44832     17.65775  0.00025  58848.41532   8.19726  6.16215    3838.22903  49.02593  18.63179  58876.20265     51.3276       44.72877   14.38602   23.9767   45.5    0.33465  -21.76354  0.99558 
   -1.66999  0.24152  0.98673     14.82659  1.87578  0.86471  24.19788  0.02227      0.0756   9468.64811   7560.74038  3.17917          3504.4934     17.62401  0.00023  58849.88001  12.94137  5.84426    3768.90048  48.97742   18.6012  58872.57861    51.17965       44.48804   14.38602  31.72142   46.0    0.31808  -21.75377  0.99548 
   -6.21122  0.24675  0.81277     14.62287  2.03454  1.42077  25.10386  0.01791     0.44038   8257.47876   7457.14156  1.20903         4238.28403     16.85486    4e-05  58845.33878  10.21087  6.19427    7087.22919  48.90689  18.62741     58873.55    51.22019       44.56351    9.59068  31.06432   76.0    0.28277   -21.3541  0.99668 
  -11.31619  0.40685  1.13936     14.72919  2.06451  0.49167   12.8853   0.0277     0.08154   6860.41871   7687.70419  0.72961         4353.22892     18.11041  0.00072  58840.23381   3.61762  5.24241    8661.16702  48.53276  18.66194  58876.20265     51.2236       44.56339   11.98835  28.66664   77.5     0.2475  -21.24778  0.98079 
   -2.73096  0.48426  1.49083     14.80582  2.12666  1.05792  13.50349  0.04198     0.26256  10751.50181    6982.0433  2.28362         3397.22838     16.01091    1e-05  58848.81904   9.31133  6.53922   10733.11261  48.21896  18.77439  58876.20265    51.22063       44.58711   11.98835  27.04173   61.0    0.30665  -21.61182  0.97984 
   -3.86782  0.22116  1.13207     14.74912  1.61092   0.5798  28.44359  0.01369     0.08874   8097.44089   7284.41785  1.80083         3945.98306     19.68547  0.02693  58847.68218  11.12518  6.29048    6086.98979  48.58377  18.70804     58873.55    51.32077       44.71679    9.59068  27.93083   60.5    0.36196  -21.64523  0.97972 
   -4.38398  0.21926  1.04155     14.67669  1.89259  1.25819  27.57054  0.01652     0.31164   7467.81441   8265.03931  1.99482         4128.71703     18.95889  0.00505  58847.16602    9.1719  6.04499    8449.76256   48.5837  18.70453  58876.20265    51.22307       44.57051     9.6692  28.66664   59.5    0.28868    -21.526  0.99278 
   -1.49933  0.18898  1.21558     14.79659   1.9815   1.3087  34.35973    0.012      0.0334   9292.88733   7032.21263  2.83171         3674.21384      17.0582    6e-05  58850.05067   17.7002  6.49333    6937.30778  48.55508  18.71202  58876.20265     51.2265       44.53264   11.98835  30.17606   68.5    0.32639  -21.53822  0.99186 
   -2.97931  0.31114  1.82572     14.82053  1.63785  0.63631  18.43956  0.01768     0.01943   5742.84003   7533.79427  3.85857         3889.15283     17.21533    9e-05  58848.57069    3.6277  5.73728    11585.2097  47.89635  18.67971  58872.57861    51.12466       44.37627   14.38602  35.96505   61.0    0.31206  -21.55832  0.93719 
   -6.93969  0.18059  0.89265      14.8135  1.86266  0.51991  32.84748  0.01519     0.14709  10375.01844   7064.32872  0.59634         4396.24388     19.06812   0.0065  58844.61031  21.09148  5.93209      3253.159  49.12532  18.67329     58873.55    51.16076       44.41399   14.46454  32.39483   70.5    0.30855  -21.37593  0.99278 
   -6.85583  0.15192  0.95539     14.55834  1.80982  1.20092  42.16636  0.01118     0.14982    9470.8409   7677.21059  0.96865         4396.28317      17.5907  0.00022  58844.69417  22.56162  6.40575   11725.71083  48.49698  18.68582  58876.20265    51.17033       44.47079   12.06687  30.68313   74.0    0.29404  -21.39973  0.99063 
   -5.69269  0.14884  0.78739     14.62019  1.66472  0.91616  42.77773  0.01414     0.01958  10611.34255   7512.38582   1.2209         3730.48153     18.40275   0.0014  58845.85731   28.7333   6.3669    5509.98484  48.95665  18.64897     58873.55    51.29241       44.67569    9.59068  26.37437   68.0    0.29085  -21.41117  0.99531 
   -2.28712  0.23996  0.76895     14.69391  1.78544  1.23024  26.27496  0.02179      0.2536  10290.99204    7182.2095  2.19465         3652.64049     16.50784    2e-05  58849.26288  16.59907  6.30483    4013.58452  49.14526  18.59809  58873.13363    51.22248       44.56156   14.38602  28.66664   58.0    0.32494   -21.5998  0.99781 
   -3.61719   0.1641   1.0864     14.69793  1.72716  1.14527  38.14652  0.01299     0.19949   8313.65159   8333.10475  2.40154         4024.95297     17.43925  0.00015  58847.93281  15.72772  6.25988    7608.05007  48.55292  18.65298     58873.55    51.11334       44.40144   19.18136  31.63141   45.0    0.33422  -21.80084  0.99121 
   -2.82222  0.19616  0.70115     14.64036  1.44695  1.06317  35.96847  0.01701      0.1419  12239.80456   6362.95651  3.06572         3162.37304     17.25233   0.0001  58848.72778  32.14387  7.05542    3460.75549  49.19851  18.55239  58876.20265    51.25643       44.63872   11.98835  28.66664   69.0    0.34532  -21.57384  0.99748 
   -6.26101  0.29872  0.98793     14.71483  2.11426  0.93977  22.65013  0.02852     0.49711  12902.59834   7350.58554  0.58737         3180.73837      19.3022  0.01114  58845.28899  22.49325  6.76603    7124.59735  48.75179  18.62274  58872.57861     51.1514       44.44581   16.78369  30.68313   67.0    0.32396  -21.45384  0.99253 
    -5.2262  0.29059  0.96797     14.45782  1.66796  1.38528  20.56425  0.02575     0.05093   9633.61046   7687.57152  1.07018         3960.43994     19.85266  0.03957   58846.3238  11.38461   5.9757   17623.32045  48.27322   18.5148  58872.57861    51.19996       44.52059   11.98835  28.77204   59.0    0.30824  -21.52012  0.98743 
   -1.13692  0.12698  0.73576     14.80751   1.7388  0.85177  51.84854  0.01095     0.04407  11465.16286   6770.46731  2.88307         3212.34452     18.93327  0.00476  58850.41308  40.65595  6.58379    2120.84879  49.44912  18.77288  58879.27167    51.29162       44.62432   11.98835  28.77204   44.5    0.36698  -21.86947  0.99821 
   -2.96436  0.15736  0.70015     14.95164  1.99957  0.63681  41.13153   0.0105     0.07688   7694.93668   7570.16601  2.10933          3894.1832     19.73857  0.03043  58848.58564  14.52821  6.47249    1137.23402  49.82355  18.69051     58873.55    51.19699       44.55851   11.98835  28.66664   72.0    0.26388  -21.46094  0.99881 
   -2.29415  0.15255  0.71045     14.79334  1.66355  0.80764  44.06048  0.01488     0.02485  12098.30558   6909.11054  2.61636         3429.01555     18.37322  0.00131  58849.25585  38.47029  6.72139    2019.46171  49.48158  18.54126  58873.13363    51.30674       44.72396   11.98835  26.32647   59.5    0.34676  -21.63648  0.99817 
   -3.17999  0.39256  1.28258     14.68818   1.7095  1.01226  17.13921  0.03098     0.05514  11005.94428    7238.4503  2.13688         3581.79377     17.87986  0.00042  58848.37001  12.38433  6.72811   10976.94875  48.24506  18.75973     58876.56    51.36852       44.77043    9.59068  26.37437   56.0    0.39338  -21.69797  0.97929 
   -4.96834  0.27078  1.18394     14.44672  1.29824  0.94937  23.16582  0.01981     0.03111    8463.5321   7272.80822  1.95377         3643.24684     17.52667  0.00019  58846.58166    9.8987  6.27274   21596.92906  47.90115  18.68239     58873.53    51.11112       44.40756   14.38602  33.56738   68.5    0.30411  -21.48189  0.96103 
   -2.63416  0.23506   1.2913     14.54235  1.69471  1.53591  24.82618  0.01967      0.1379   9140.20809   7785.38716  1.93463         4104.85363     19.85812  0.04007  58848.91584  12.37226   5.8356   21590.87892  47.94161  18.78239  58876.20265    51.12677       44.37064   14.46454  34.70733   44.5     0.3592  -21.80214  0.97582 
   -2.16733  0.36307  0.79041     14.69391   1.7752  1.55773  18.68326  0.03841     0.29988  11702.82115   7264.30118   4.2442         3083.14814     19.91019  0.04518  58849.38267  15.26374  6.78333    4216.54195  49.09743  18.65709     58873.55    51.17309       44.48645   14.38602  29.32375   53.0    0.27356   -21.7672  0.99766 
   -4.94526  0.30205  1.65894     14.77439  2.02127  0.99474  20.90142  0.01969     0.21996   7995.63706   7868.52694  2.52389         3896.22767     18.22975  0.00094  58846.60474   7.97093   6.3132   14598.89818  47.97049  18.63991  58876.20265    51.23675       44.60034     9.6692  27.04173   61.5    0.32873  -21.59318  0.96602 
   -5.99229  0.21695   1.2177     14.77116  1.63661  0.49376  28.89017  0.01582     0.07211   8655.91124    7326.7334  1.15151         3840.77354     17.21396    9e-05  58845.55771  12.91228  6.26781    6464.27694  48.50119  18.73133     58876.56    51.19858       44.54782   11.98835  30.17606   77.5    0.28176  -21.35215  0.97081 
   -1.90968  0.47913  0.95545     14.72718  1.99837  1.55791  13.04661  0.05338     0.34535  10775.65967   7250.54948  2.38202         3413.45746     17.73125   0.0003  58849.64032   9.03676  6.25096    5950.49219  48.83455    18.646  58876.20265    51.10634       44.41834   12.06687  33.56738   63.5    0.28325  -21.48686   0.9961 
   -4.59133  0.36913  0.82475     14.35053  1.40031  1.49476  15.15514  0.02691     0.09435   7305.68421   9018.90023  1.24529         4900.97558      18.3685   0.0013  58846.95867   4.82513  5.59427   17604.14372  48.33681  18.67287     58873.55    51.21176       44.50607   11.98835  31.16971   40.5    0.32782  -21.84434  0.98989 
    -0.6072  0.29614   0.8273     14.75987  1.81675   1.5392  21.64543  0.02506     0.04519  10088.00072   7232.44061  3.44335         3544.00852     19.43126    0.015   58850.9428  13.14025  6.40997    3488.94842  49.15012  18.57209  58873.13363    51.13855       44.44181   14.38602  30.68313   35.0    0.41644  -22.07557  0.99804 
   -3.91046   0.3965   1.6329     14.79204  1.91396  0.74834  14.17132  0.02959     0.34844   7652.07442   8318.97623  2.76816         3854.40014     17.80828  0.00036  58847.63954   4.94989  5.61889   12347.64416  48.03327  18.67074  58876.20265    51.22506       44.55918   14.38602  27.77839   49.0    0.31635  -21.67541  0.96304 
    -7.5336  0.17115  0.76141     14.43772  1.49744    1.243   38.1144  0.01871     0.12091  11325.28412   7259.08616  1.68141           2877.799     16.63684    2e-05   58844.0164  29.16181  6.52337   10738.82164     48.65  18.67665     58873.55    51.25327       44.62253   14.38602  27.04173   74.5    0.24647  -21.31569  0.99332 
   -5.00125  0.25364  1.71064     14.58791  1.76157  1.18053  24.31649   0.0163     0.10931   7198.38653   7458.76613  2.88107         3640.53657     17.29005  0.00011  58846.54875    7.5162  6.16775   31930.39125  47.54423  18.74207     58873.55    51.34499       44.73674   11.98835  26.37437   64.0    0.30282  -21.57022  0.94148 
    -6.3497   0.3129  0.82595     14.67761  2.02145  0.97546  19.37221  0.02414         0.1   8742.06385   7633.56685  1.00268         4586.76836     16.88898    4e-05   58845.2003    8.8315  6.06161    5651.64027  48.98842  18.65819     58873.55    51.10345       44.39299   12.06687  33.56738   71.0    0.28917  -21.40132   0.9962 
   -2.65339  0.26695  0.75024     15.07359  1.58297  0.34351  24.12968  0.02482     0.03243  10081.31512   7514.23146  2.25806         3626.37811     16.98538    5e-05  58848.89661  14.62895  6.44141     589.54142   49.9474  18.65431  58876.20265    51.25069       44.61466    9.59068  28.77204   49.5    0.34088  -21.73322  0.99725 
   -3.81656  0.20464  1.25989     14.75239  1.68727   0.5297  29.97975  0.01223     0.12376   8458.12816   7165.02384   1.3222         4029.94141     19.56678  0.02049  58847.73344  12.79392  6.13501    7778.42715  48.40447  18.66979     58873.55    51.19624       44.48662   14.38602   33.0808   58.5    0.39718  -21.64708  0.96947 
   -3.25509  0.17785  0.72935     14.98602  1.51627  0.36214  34.09326  0.01556     0.02601   8090.76029   7767.85578  2.24397          3866.4454     18.65549  0.00251  58848.29491  13.31295  6.06354     798.74328  49.82135  18.68236  58876.20265    51.29974       44.67509   11.98835  26.37437   59.0    0.30224  -21.56801  0.99689 
   -6.22976   0.4474  2.40998     14.63412  1.94867  1.36758  13.78605  0.02792     0.04719   6672.83498   7908.77225   2.8928         3907.08497     17.11411    7e-05  58845.32024   3.66174  6.16792   56668.83884  47.04121  18.80381  58878.57391    51.37985       44.83812    9.59068   23.9767   72.0    0.27099  -21.44765  0.88455 
   -6.61202  0.17291  0.83265     14.54652  1.64998  0.90448  32.47722  0.01434     0.06319   7794.46795   7918.16759  1.21304         4136.54309     17.90286  0.00044  58844.93798  11.77007  5.61553    8573.75382  48.71223  18.68799     58876.53     51.2894       44.66653   11.98835  28.77204   70.0    0.26316  -21.30258  0.99293 
