 texplosion  fnickel    Pspin  log(Bfield)      Mns  thetaPB   mejecta    kappa  kappagamma      vejecta  temperature    alpha  cutoff_wavelength  log(nhhost)      A_V         MJD0   kenergy  mnickel            TSD   log(L0)  Peak_mag     Peak_MJD  log(E_rad)  log(Peak_lum)  Rise_Time     E_fold  tau_1  delta_m15     r_peak     frac 
  -14.95351  0.00616  2.09325     14.06282  1.62223  1.04586   4.43012  0.17125     0.22985  12739.23907   7351.36286  0.75635         2234.43038     16.00349    1e-05  58679.44649   4.28874  0.02729   494234.91525  46.14338  20.14563     58727.33    51.35722       44.78027   20.30378   27.32189   37.5    0.29806   -21.9016   0.9993 
  -18.72977  0.12048  1.87312      14.0384  1.85999  1.29621   3.47154  0.14521     0.39523  11824.02895   7189.66995  0.09202         2610.18744     20.25079  0.09897  58675.67023   2.89522  0.41826   507757.06246  46.28757  20.15023  58722.59736     51.2547        44.6773    19.5064   29.32145   47.0    0.30153   -21.9189  0.99309 
    -10.346  0.03017  2.43244     14.23155  1.99566  1.20025    3.8881  0.33736     0.21681  14902.92278   7716.32329  4.58291         2125.58454     16.35313    1e-05    58684.054   5.15119  0.11729    377477.2463  46.21996  20.08451  58725.07068    51.29153       44.68396   21.51633   30.23621   34.0    0.27119  -21.99336  0.99706 
  -16.72867  0.05156  1.51364     14.01311  1.60257  1.37613  10.15103  0.07672     0.01268  11592.13247   7281.47179   0.1592         2096.52762     18.78777  0.00341  58677.67133   8.13699  0.52334   320966.01571  46.60716  20.15284  58725.07068    51.41042       44.84041   21.31669   29.47919   31.0    0.33473  -21.83592    0.993 
  -19.73103  0.36619  2.16414     14.22251  1.90131  0.84273   4.15695   0.2794     0.11374  14018.60237   4220.46393  1.10494         2025.99675     19.42881  0.01491  58674.66897   4.87316  1.52223   296772.51822   46.4049  20.07376  58722.59736    51.27848       44.65931   21.81559   31.74802   39.0    0.25189   -21.9754  0.96835 
  -17.45695  0.14635  1.93064     14.18755  1.64227  0.63075   6.21987  0.10138     0.02083  10835.47835   5955.58509  0.38334         2041.44421     18.69363  0.00274  58676.94305   4.35617  0.91026   239643.83083  46.53332  20.09386     58722.37    51.59969       45.00668   23.03015   30.23621   37.5    0.30001  -21.80696  0.98096 
  -16.76003  0.00602  2.57548     14.09375   1.6351  0.75806   2.73354  0.21763     0.43265  12241.18899   6026.60199  1.10306         2375.81276     19.11742  0.00728  58677.63997   2.44343  0.01647   654015.76691  45.84508  20.13088  58725.07068    51.27332       44.72418   21.36919   26.82763   48.0    0.29025  -21.86398  0.99937 
  -19.71568  0.00382  2.33229     14.17433  1.68355  0.62173   2.92329  0.31621     0.05809  11709.92816   3656.89264  2.30549         2111.84959     18.53888  0.00192  58674.68432   2.39115  0.01116   381012.36533  46.17857  20.03118     58722.37     51.2654       44.72138   19.65354   27.21259   37.5    0.25948   -21.8845  0.99966 
  -17.44963  0.32726  1.08919     14.26695  1.87455   1.0978   3.20264  0.32635     0.16253  12982.99493   7692.67586  0.11198         2199.31218     18.09995   0.0007  58676.95037   3.22022   1.0481    60397.32669  47.68652   20.0697  58727.54401    51.46653       44.86582   22.16019   31.74802   32.5    0.31193  -21.77644  0.99492 
  -17.14926  0.36538  1.19119     14.37468  1.88116  0.77405   8.83898  0.06977     0.01649  10538.50549   7513.24502  0.29328         2917.77296     16.61649    2e-05  58677.25074   5.85582  3.22959     44142.2259  47.74645  20.06457  58725.07068    51.23774        44.6808   24.83922   26.40074   36.5    0.31489  -21.66382  0.98102 
  -13.53107  0.00211  2.56804      14.1842   1.8302  0.92034   2.63683   0.2927     0.44593  11667.16265   4174.25045  2.44835         2479.58864      19.3396  0.01214  58680.86893   2.14112  0.00557   479870.86643  46.03102   20.1517  58727.54401    51.29005       44.67922   19.53696    31.8646   42.0    0.28417   -21.9039  0.99982 
   -16.3149  0.22337  1.63386     14.30446  1.71205  0.65917   5.66192  0.17286     0.02088  11123.53005   7295.04278  2.16355         2012.41614     17.26617   0.0001   58678.0851   4.17904   1.2647   104433.86504  47.05709  20.07468  58722.59736    51.37413        44.7999   13.40148    28.1722   33.0    0.28755  -21.80289  0.98242 
  -11.55168  0.05851  3.43524     14.19994  1.93979  0.86352   3.61721  0.12828     0.08759  10989.42801    5537.9634  3.13704         2716.75312     17.93155  0.00047  58682.84832   2.60586  0.21163   846448.55061  45.55708  20.10483  58725.07068    51.27857       44.60854   25.56181   33.39881   45.0    0.32586  -21.88039   0.9889 
  -16.14405  0.06454  2.46105     14.00897  1.78386  1.29604   4.63779  0.20398     0.01816  11735.39429   7077.90323  1.21743         2905.41455     18.54422  0.00195  58678.25595   3.81007  0.29933    962676.0116  45.75449  20.03018  58725.07068    51.21743       44.62306   19.65354   30.23621   32.0    0.34971  -21.94009  0.99088 
  -17.03191  0.38446  2.00659     14.17918  1.82724  0.93114   2.96611  0.22872      0.1958  12220.98882   6867.51593  0.38092         2227.49364     19.30889  0.01131  58677.36809   2.64258  1.14035   299340.82173  46.44956  20.10685     58724.42     51.2628       44.70504   18.14173   28.19106   42.0    0.30216   -21.8713  0.97819 
  -15.05451  0.00156  2.88089     13.95117  1.78888  1.06525   2.04245  0.31723     0.13253  15347.97859   7203.21453  0.99687         2069.41168     16.99102    5e-05  58679.34549   2.86999  0.00319   1726286.7944  45.36526  20.04034     58722.37    51.25614       44.67715   20.00452    28.7244   36.5    0.30562  -22.07973  0.99986 
  -12.87397   0.2891  1.96267     14.22676  1.93956  1.30663   4.99606  0.22979     0.05812  12553.76816   7971.94295  1.98846         2500.37131     18.02506  0.00059  58681.52603   4.69681  1.44434   244171.23661  46.58316  20.07822  58727.54401    51.31476       44.72821     23.672   30.23621   34.5    0.26558  -21.95059  0.97612 
  -18.31094  0.08346  2.38935     14.23091  1.92491   0.7236   4.54526  0.16209     0.17604  12989.66277   6905.26556  0.06442         2203.60756     17.06701    6e-05  58676.08906    4.5749  0.37936   352346.07881  46.24973  20.06429     58724.38    51.39505       44.85535   16.45044   28.04232   43.0     0.2899  -21.93113  0.99031 
   -11.2271  0.03399  1.93533     14.11743  1.73345  1.55716   6.13513  0.14987      0.3535  12746.58888   6580.56323  1.95869         2087.32098     17.09645    7e-05   58683.1729    5.9462  0.20855   351058.64222  46.38887  20.13033  58727.54401    51.38893       44.81441   21.16535   30.23621   36.5    0.28448  -21.88994  0.99593 
  -12.00016  0.04084  1.64057     14.30903  1.78379  0.82758   5.16748   0.2099     0.27755  12230.16658   5216.17793  2.06137         2233.81539     16.00048    1e-05  58682.39984   4.61074  0.21105   107418.38662  47.05912  20.13095  58725.07068    51.31116       44.75183   22.67716    28.7244   37.0    0.26151  -21.87799  0.99721 
  -15.13249  0.00556  1.32632     14.30128  1.91448  0.96987   5.69163  0.21419     0.10413  13096.47322   8089.91796  0.53265          2394.2025     18.23598  0.00096  58679.26751   5.82335  0.03166    78092.50558  47.41299   20.0803  58725.07068    51.37214       44.76416   16.62992   33.25983   31.0    0.29009  -21.90774  0.99976 
  -17.88924  0.03141  1.54983     14.05065   1.6315  1.20215    9.2607  0.09968     0.05099  12266.74954   7348.65028  0.46843         2053.81257     19.93033  0.04732  58676.51076   8.31247  0.29085    288184.2511  46.64119  20.13442     58727.33    51.62752       45.11572   15.11811   25.70078   36.5    0.27753  -21.87663  0.99602 
   -19.2918  0.01856  2.60399     14.02539  1.68981  0.73691    2.1951  0.20187     0.05245  11078.87406   4616.63637   1.4358         2088.82737     17.04024    6e-05   58675.1082   1.60721  0.04074   946587.89775  45.68924  20.15532  58725.07068    51.53848       44.95797   17.02675   29.83938   42.0     0.2816  -21.84144  0.99847 
  -11.35928   0.0015  2.39543     13.98986  1.49719  1.07755     1.984  0.29636     0.47451  11613.80758   7341.00678    1.695          3053.2008      20.1203  0.07329  58683.04072   1.59632  0.00297    835867.2845  45.76322   20.1426  58725.07068    51.28209       44.68146   20.00452   31.74802   40.0    0.33937  -21.97946  0.99989 
  -12.60406  0.09623   3.0612     14.04695  1.78456  1.24558   3.06342  0.23615     0.17037  12645.43306   6880.87353  4.45232         2427.13238     17.43768  0.00015  58681.79594   2.92214  0.29479  1250909.40972  45.45137  20.18314  58727.54401    51.40163       44.77807   18.79197   32.44798   43.0     0.2858  -21.93964  0.98614 
   -8.30709  0.22557  1.23128     14.37174  1.79066  0.87309  10.75218  0.10474      0.4248  13509.68704   7762.27427  3.32574         2161.23221     20.01133  0.05702  58686.09291  11.70616  2.42534    45504.96676  47.68309  20.06811  58722.59736    51.42538        44.8589   19.44872   27.41741   35.0    0.27172  -21.98586  0.98411 
  -11.60761  0.24922  1.86299     13.88415   1.2801  0.97788   2.43727  0.26453     0.11249  13318.91356   7180.89186  2.10091         2141.13931     20.35775  0.12661  58682.79239    2.5791  0.60741   703354.23368  45.98849  20.10103  58725.07068    51.25714       44.67464   24.04183   29.27262   38.0    0.31663  -22.05215  0.98273 
     -9.641  0.00112  2.39027     14.05542  1.57216  1.15646   2.74661  0.28919     0.22991  13997.69527   4480.00675  2.40152         2372.11736     17.01396    6e-05    58684.759   3.21024  0.00308   646188.26054  45.89809  20.06023  58720.12404    51.28011       44.72213   18.14173   25.70078   37.0    0.33358  -21.95203  0.99989 
    -8.2307  0.09954  1.84274     14.07364  1.61185  1.23009   5.40056  0.10881     0.20446  11349.10314   4588.11612  2.74957         2689.30657      20.6252  0.23438   58686.1693   4.14943  0.53755   362073.95065  46.38644  20.08983     58723.38    51.26804       44.66172   22.55068   29.50112   37.0     0.3391  -22.15451  0.98944 
  -12.26473  0.00573  1.25628     14.19734  1.66959  1.40753   7.00247  0.22554     0.12778  13794.99016   8349.15465  2.79926         2615.34976     18.90264  0.00444  58682.13527   7.94916   0.0401     98608.3402  47.29937  20.16461  58730.01733    51.37363       44.83582   19.65354   27.21259   32.5    0.22668  -21.99466  0.99968 
  -12.94779  0.09938  2.29889     14.14708  1.67481   0.9299   6.40362  0.16837     0.01405  11079.38145   3947.24478  3.35551         2671.33556     18.75824  0.00318  58681.45221   4.68904  0.63639   417501.02207  46.14912   20.1553     58727.33    51.32095       44.73388   19.65354   30.93617   34.0    0.30151  -21.89827  0.98167 
  -12.47525  0.00814  2.70506     14.01197    1.658  1.15026   2.24912  0.30606     0.13646  14197.38911   8976.08196  1.32082         2456.79325     17.33285  0.00012  58681.92475   2.70431   0.0183  1066116.15582  45.59627  20.09287     58730.38    51.31758       44.71095   16.62992   34.30449   31.0    0.32896   -21.9644  0.99924 
   -13.7193  0.01734  2.24481      13.9085   1.4732  1.56577   3.60448  0.28455      0.4059  14670.81972   5934.80663  3.85416         2243.58581     20.06187  0.06406   58680.6807   4.62785  0.06249  1050600.66825  45.71331  20.11636  58725.07068    51.41983       44.83968   20.30378    28.7244   40.0    0.28363     -22.08  0.99788 
  -55.06515  0.05677  1.00747     13.84561  1.78796  0.48545  77.70451   0.1561     0.03547   5038.23114   7937.87505  3.54261         2772.15106     18.39143  0.00137  58639.33485  11.76602  4.41098   343102.51137  46.97931  20.18345     58724.42    51.27233       44.64967   20.00452   31.74802  148.0    0.01562  -21.90972  0.97775 
   -9.50775  0.00167  2.18207     14.61508  1.78828  0.37057   2.20667  0.26372     0.43397   8666.69928   7846.21838  2.19052         3011.59606     17.42095  0.00015  58684.89225   0.98872  0.00369    46540.26839  47.17571  20.38296     58727.33     51.1727       44.56009   22.55068   32.52475   38.0    0.29921   -21.7779  0.99991 
   -14.0953  0.02274  1.55442     14.26365    1.554  0.65556   5.38802  0.20389     0.47312  14214.98005    6204.7974  0.92528         2301.25453      17.4786  0.00017   58680.3047   6.49454  0.12253   103538.94364  47.06206   20.1184  58727.54401    51.31924       44.71762   18.49271    32.1491   34.5    0.32163  -22.01853  0.99819 
  -12.54047  0.02211  1.84757     14.38746  1.84433  0.56746   5.44228  0.13421     0.20641  12992.97015   5088.27921  0.91401         2060.88888      20.0963  0.06935  58681.85953   5.48056  0.12035    98161.07615  47.00954  20.64308  58775.38059    51.49823       44.30211   70.58795  133.50649   37.0    0.32816  -21.97754  0.99805 
  -16.67136  0.02281  2.64112     14.09119   2.0003  1.29827   3.53785  0.26613     0.08003  13652.35065   6045.05386  1.13018         2380.55151      19.9938  0.05477  58677.72864   3.93352  0.08071   851355.69673  45.79625  20.02456     58722.37    51.29042       44.76318   20.00452   25.81008   36.5    0.28764  -22.02637   0.9976 
  -11.84372  0.00119  3.38896     14.11188  1.94752  0.94687    1.8743  0.28676     0.20102  14277.55453   6079.86642  2.33726          2455.4354     16.75205    3e-05  58682.55628   2.27915  0.00224  1240697.23493  45.40453  20.13527   58723.4119    51.37928       44.79345   17.28016    28.7244   43.0    0.33296   -21.9892  0.99989 
  -25.02433  0.00196  2.14326     13.98047  1.50749  0.50895   2.07646  0.31982     0.02958  10767.06585   6822.73054  0.87172         2088.14711     19.45588  0.01587  58669.37567   1.43597  0.00407    703524.6925  45.93767  20.13609  58725.07068    51.37049       44.85298   17.28016   26.63971   37.5    0.30731   -21.8614  0.99988 
   -7.05801  0.26797    1.406     14.17637  1.49062  1.11969   6.55371  0.19347     0.01825  12502.39958   5935.19487  2.54945         2930.71428     17.92626  0.00047  58687.34199   6.11084  1.75619   121454.99422  47.06182  20.12551     58724.42    51.43194       44.88045   21.16535   27.21259   31.5    0.30638  -21.95969  0.97862 
  -15.09582  0.05098  1.52779     14.33778  1.98783  0.85193  10.34019  0.08317     0.04366  13079.39272   6562.60805  0.08739         2231.25713     17.23941   0.0001  58679.30418   10.5519   0.5271    90943.17818  47.24033  20.08573   58723.4119     51.3888       44.76133    13.6063   31.74802   33.5     0.3432  -21.91555  0.99492 
  -14.94396   0.0837  3.13608     13.99658  1.76131  0.96162   2.41357  0.29087     0.10868  13795.07883    6974.7036  3.91825         2371.15881     18.78733   0.0034  58679.45604   2.73991  0.20202  1634092.00849  45.30863   20.0287     58722.37    51.14398       44.57083   22.67716    28.7244   39.5    0.28484  -22.01353  0.98971 
  -42.21288  0.04226  0.87247     14.27744  1.82132  0.30845  73.64124  0.13182     0.03147    5438.5663   9082.06394  3.83985          2891.8828     18.63997  0.00242  58652.18712  12.99323  3.11209    35877.29037  48.09291  20.12326     58722.37    51.26567       44.69421   18.14173   28.19106  141.0    0.01798  -21.39753   0.9886 
  -13.07978  0.03593  3.16069     14.11898   1.8405  0.86445   3.21123  0.21438     0.06781  12363.44023   5805.43409  3.70909         2472.07567     18.10446  0.00071  58681.32022   2.92804  0.11537   987095.98614  45.53986  20.04522     58722.37    51.15798       44.56278   23.02814   30.23621   40.0    0.29279  -21.94278  0.99441 
  -11.84838  0.01774  1.36599     14.33071  2.01726  1.13856   7.13038  0.18319     0.04943  13228.51035   8432.61541  1.19675         2576.48395     17.74134  0.00031  58682.55162   7.44324  0.12649    76216.72575  47.42066  20.12365  58725.07068    51.45224       44.91942   16.62992   27.21259   30.0    0.27258  -21.96454  0.99909 
  -18.24178  0.00641  2.28542      14.1271  1.78986  0.84471   2.41539  0.30697      0.2192   12730.4981   8205.00115  0.37482         3378.76198     17.41301  0.00014  58676.15822    2.3351  0.01547   483469.26044  46.11936  20.30786  58781.34139    51.66272       44.44167   72.10064  144.31913   37.5    0.29724  -21.99251  0.99959 
   -6.65248    0.102  1.00106     14.29842  1.59197  0.90602   5.18733  0.33382     0.25405   16938.3974   7356.89245   1.9701         2197.43196     17.24954   0.0001  58687.74752   8.87801  0.52911    37483.25194  47.89602  20.10356  58725.07068    51.30734       44.74043   16.62992   30.23621   30.5    0.30801  -22.07235  0.99745 
  -18.44992  0.06149  2.58984     13.93642  1.63033  0.81629   3.21412  0.13515     0.03116  11460.71753   6852.29609  1.52045         2053.77805     16.93009    5e-05  58675.95008   2.51833  0.19763  1360809.19939  45.52078  20.18804  58727.54401    51.43364       44.87645   16.45044    28.7971   40.0    0.29757  -21.87081  0.99227 
  -19.37344  0.01194   1.0771      14.1484  1.61709  0.94988  11.43145  0.14918     0.02014  13238.38849   6789.19672  1.56319          2484.8818     20.31662  0.11517  58675.02656  11.95085  0.13652    87955.79225   47.4688  20.15112  58727.54401    51.31143       44.73537    13.6063   33.95979   33.5    0.24135  -21.87146  0.99913 
  -13.45428  0.05057  3.20386     14.00924  1.78932   1.0996   2.73432  0.16821     0.06252  10401.82598   7154.43284   2.1574         3005.18461     17.17625    8e-05  58680.94572    1.7648  0.13829  1634476.74959  45.29681  20.13253  58725.07068    51.21406        44.5943   21.16535   33.25983   44.0    0.29612  -21.89407  0.99282 
   -7.71541  0.24929  1.13214     14.30933  1.68584  1.16526   7.99982     0.13      0.2862  12836.45697   6249.47414  3.69662         2259.93983     19.72618  0.02957  58686.68459   7.86317  1.99424    48281.52231  47.70408  20.09914   58723.4119    51.34359       44.78633   18.79197    28.8337   36.5    0.27759  -21.88403  0.98894 
  -17.82835  0.00607  2.18338      14.0565  1.57357  0.80364   2.82624  0.25139      0.1574  13732.98218   4247.18774  0.25793         3255.39371     18.06246  0.00064  58676.57165   3.17955  0.01714    536991.8002  46.05751  20.05572     58722.37    51.23586       44.66621   18.87682    26.4775   40.0    0.31667  -22.00947   0.9995 
  -12.91418   0.3267  1.07936     14.30859   1.7269  1.00842   6.67539  0.17753     0.32387  15472.98392   6257.83932  0.34362          2499.5988     16.55353    2e-05  58681.48582   9.53349  2.18088     45105.8393  47.78555  20.11509     58723.38    51.26508       44.69555   12.68616   31.21592   32.0    0.33883  -22.04471  0.98901 
  -13.97285  0.07634   1.0518     14.15898  1.56706  1.21176   5.78772  0.33937      0.0906  16884.03618   7129.58504  1.92505         2140.28125     18.68539  0.00269  58680.42715   9.84209  0.44184    77411.99983  47.53125  20.07143     58724.38    51.27991       44.74057   19.65354   27.21259   31.0    0.26587  -22.14077  0.99735 
  -13.45982  0.00487  2.15997     13.92258  1.48483  1.37681    3.2938  0.15924     0.26005   12762.5255   3710.60723  0.64368         2766.23698     16.49321    2e-05  58680.94018   3.20035  0.01603   918829.61654  45.80839  20.15639  58725.07068    51.41361       44.91503    16.4251   24.39954   43.5    0.35413  -21.92995   0.9995 
  -18.26386  0.01758  1.17758     14.15826  1.79541  1.07755   4.56773   0.2597     0.47417  14963.50332   6718.28544  0.14831         2057.34946     20.34569  0.12315  58676.13614   6.10091  0.08028   111543.08591  47.33359   20.0824   58723.4119    51.30776       44.72577   18.14173   30.23621   34.0     0.3232  -22.06015  0.99947 
  -20.01849  0.21967  2.39979     14.15563   1.7775   0.4006   4.54632  0.10689     0.01111   10825.7331   8508.54755  0.19968         2163.23846     18.51248  0.00181  58674.38151   3.17835  0.99868    464212.2053  46.09159  20.16051     58724.38    51.35013       44.74463   18.14173   30.68612   34.0    0.31882  -21.85978  0.97101 
  -10.27416  0.37123  0.85665     14.29498  1.52884   0.8373   8.93878  0.16247     0.08569  16273.75948   6741.56724  0.63231         2105.77536     17.36312  0.00013  58684.12584  14.12151   3.3183     26780.9465  48.15978  20.07209     58722.37    51.28099       44.70466   18.49271   29.70287   33.0    0.31807  -22.08923  0.98877 
  -10.35285  0.00611  1.08277      14.1241  1.46226  1.18625   4.34532  0.33983      0.0616  14435.45952   7795.42274  1.17191         2609.27406     16.50124    2e-05  58684.04715   5.40145  0.02655    89887.96954   47.4111  20.15313  58725.07068     51.3355       44.75987   20.30378    28.7244   28.5    0.30708   -21.9986  0.99981 
  -17.57532  0.00545  2.27527     13.99822  1.67851  1.28411   8.07619  0.09091     0.01407   9680.54661   8879.30684  3.61698         2327.38833     20.06332  0.06428  58676.82468   4.51475  0.04399   813507.38246  45.86934  20.11981     58727.33    51.26237        44.6851   15.70978   31.74802   35.5    0.25298  -21.83173  0.99874 
   -9.95505   0.0215  2.25853     14.14355  1.79974  1.44876    3.5733     0.23     0.17604  14340.75297   7563.08496  2.34619         2090.23649       19.105  0.00708  58684.44495    4.3837  0.07682   440134.70881  46.17282  20.12971     58727.37    51.34556       44.78738   21.16535   27.21259   33.0    0.32609  -21.95759  0.99806 
   -9.14192  0.10288   2.0695      14.5794  1.83113   0.4355   3.95845  0.25514      0.1609  12421.53306   4743.22412  2.77402         2350.75615      16.4271    1e-05  58685.25808   3.64336  0.40724     50521.5447  47.19636  20.10467     58724.38    51.24768       44.64614    19.5064   28.87154   37.0    0.29018  -21.83971   0.9917 
  -20.44865  0.00154  2.64752     13.98211  1.95981  1.56959   3.03068  0.29239     0.07357  13857.94646   5688.23237  0.15354         2922.67481     19.02456  0.00588  58673.95135   3.47188  0.00468  1385152.01374  45.57388  20.11332  58725.07068    51.29624       44.69754   21.16535   30.63729   35.5     0.2982  -22.04606  0.99986 
  -14.63327   0.0055  1.45831     14.28401  1.84088  0.89943   4.25478  0.24829     0.09603  12848.39908   7032.03132  0.54968         2233.65771     17.01975    6e-05  58679.76673   4.18988  0.02341    98292.59874  47.21365  20.05875     58723.38     51.2057       44.61009   23.02814   30.23621   32.5     0.2905  -21.91082  0.99977 
  -10.53089  0.19677  3.36273      14.0727  1.83729  1.02131   1.97709  0.23524     0.21465  12806.03554   5152.78065  2.75618         2593.18668     19.62687  0.02353  58683.86911   1.93411  0.38902  1380318.03454  45.33966  20.17593     58727.33    51.45721       44.94061   17.07535   24.39954   47.0    0.33078  -21.93504  0.97892 
   -19.7682  0.00403   2.3181     14.13871  1.84008  0.85258   6.93572  0.06503     0.13542  10350.35004   8607.52855  0.57733         2388.19134     17.08634    7e-05   58674.6318    4.4323  0.02799   484729.78573  46.11792  20.17364     58724.38    51.29116       44.69393   20.00452   29.42436   44.5    0.27695  -21.73506  0.99927 
  -18.24879  0.05359   2.1537     14.31412  2.03827  0.72977   6.21505  0.12877     0.17323  12241.28825    4873.0386  0.09339         2224.47202     18.34651  0.00123  58676.15121   5.55553  0.33304   206636.25557  46.59653   20.1594  58725.07068    51.29434       44.70699   19.65354   28.89967   41.5    0.29038  -21.85522  0.99367 
  -10.10657  0.06626  2.03382     14.10724  1.80562  1.48388   5.65863   0.1948      0.1874  14012.80798   5533.59632  3.72225         2220.88965     20.19255  0.08655  58684.29343   6.62809  0.37493   423230.14532  46.28227  20.09636   58723.4119    51.27347        44.7086   18.14173    28.7244   38.5    0.26544  -22.10627   0.9924 
  -20.41298  0.01533   2.4554     14.07855  1.98383  1.48617   4.44048   0.1756     0.23871  12298.10333   3658.87341   0.1941         2809.56385      16.2973    1e-05  58673.98702   4.00621  0.06807   773499.26734  45.89765  20.12221  58722.59736    51.22686       44.68309   20.73961    26.4775   44.0    0.27052  -21.86181  0.99823 
   -7.98561  0.28693  2.32372     14.58919   1.7019  0.40722   4.91788  0.18493     0.35825  11166.63337   7546.39923  4.97635         2714.32095     16.59127    2e-05  58686.41439   3.65805  1.41107    56589.08537  47.01468  20.11786     58727.33    51.39407       44.83112   19.13657   30.23621   38.5    0.27564  -21.85969  0.96063 
  -14.28438  0.00136  2.34234     14.09973  1.74908  1.37279   9.16426  0.06296     0.06885   9715.70176   7630.25033  1.58487         2710.54429     16.34557    1e-05  58680.11562   5.16028  0.01245   562953.59719  46.02188  21.52179  58742.38394    50.97667       44.01523   38.14625   80.12596   40.5     0.2978  -21.74345  0.99964 
  -13.85395  0.21501  2.02531     14.07385  1.82905  1.36713   5.81463  0.15832     0.01814  11978.69641   7948.86493  1.00847         2042.34841     18.55196  0.00198  58680.54605   4.97701  1.25023   495830.91552  46.22275  20.16871  58725.07068    51.27959       44.70467   21.51833   30.23621   30.0    0.32244  -21.92518   0.9757 
  -12.49831  0.00107  1.66833     14.22256  1.57684  0.78552    5.9254  0.16438     0.09817  13130.98346    7580.6737  1.88858         2046.82595     16.63215    2e-05  58681.90169   6.09452  0.00632   146236.28916  46.85701  20.07098     58724.42    51.32438       44.78478   20.30378   27.32189   33.0    0.28946  -21.90878  0.99989 
  -17.29252   0.0025  2.86555     14.02603  1.83694  0.92457    1.9037  0.29476      0.1642   15065.7457   7501.28822  0.21198         2104.24979     16.22244    1e-05  58677.10748   2.57754  0.00476  1242395.37316  45.52426  20.09363     58724.42    51.34306       44.77874   21.51833   27.32189   37.5    0.31331  -22.03279  0.99981 
  -16.00781  0.03257  2.61828     14.20831  1.82468  0.62895   2.53166  0.26775     0.06554  13963.31806    7377.8828  1.12962         2208.45264     19.80127  0.03516  58678.39219   2.94448  0.08245    445063.5911  46.04558   20.1402  58725.07068    51.31349       44.74981   18.49271    28.7244   32.5    0.34402  -22.03868  0.99723 
  -11.89003  0.00129  2.65892      14.0551  1.73991   1.1968   2.66349  0.23923     0.11857  14013.74076   7223.50507  1.10443         2757.91847     19.60427  0.02234  58682.50997   3.12023  0.00343   886229.50032  45.71242   20.1184  58727.47875    51.38282       44.80403   17.28016   31.74802   35.5    0.36248  -22.00427  0.99987 
  -18.84369  0.00249  2.39185     14.19527  1.85881  0.73404   3.03086  0.23697     0.02577  10225.48885   5456.75626  0.86312         2966.92231     19.19871  0.00878  58675.55631   1.89043  0.00756   401766.99783  46.17664  20.15467     58727.33    51.43558       44.86158   18.49471   30.23621   34.0    0.32492  -21.81083  0.99979 
  -14.76865  0.18333  1.16672     14.19021  1.56932  0.99871   7.79875  0.18354     0.18748  15052.75522   6989.10898  0.77993         2293.12954     18.02444  0.00059  58679.63135  10.54106  1.42971    82612.08069  47.41358  20.12485  58722.59736    51.34759       44.79195   22.67716   27.21259   33.5    0.28651  -22.01963  0.98906 
  -16.49662  0.00311  0.93394     14.21701  1.58463  0.65188   4.74117  0.13399     0.10591   9844.52965   5804.25728  0.36162         3172.35966      20.4349  0.15123  58677.90338   2.74096  0.01472    47245.87413  47.85377  20.09605     58724.38    51.28978       44.70377    19.5064     27.535   41.5    0.28616  -21.85927  0.99993 
  -20.52346  0.01062  1.23534     14.08563  1.69638  1.12312  23.19675  0.03607      0.0762  10423.82081   5652.35118  0.50607         2140.22677      20.0837  0.06736  58673.87654  15.03516  0.24629   162049.73384  47.10515  20.11518     58724.38    51.22584       44.60196   23.02814   31.28087   43.5     0.2568  -21.72668  0.99801 
  -13.68232  0.09334  2.19789      14.1644  1.80315  1.10722   3.27192  0.33444     0.15103  13723.27876   3854.34202  2.55637         2115.59474      17.1938    9e-05  58680.71768   3.67574  0.30539   379370.83061   46.2618  20.09727     58724.38    51.36638       44.76225   15.11811   30.93617   36.5     0.2709  -21.96093  0.99274 
  -15.97899  0.10412  1.16274     14.18312  1.25244  0.56484  11.17939   0.0906     0.23052  11026.43695   3801.01343  0.68908         2710.52415     19.32858  0.01184  58678.42101   8.10803  1.16399      67653.343  47.40535  20.12856  58725.07068    51.36713       44.82548   19.65354   27.21259   41.0    0.25065  -21.79734  0.98699 
  -20.72207  0.03005  2.58081     14.05896  1.92291  1.02673   2.09242  0.27767     0.22177  13426.37614   8444.11588  0.06421          2292.4626     17.05066    6e-05  58673.67793   2.25006  0.06289   906512.41524  45.77192  20.10459  58725.07068    51.24349        44.6758   19.65354   27.91255   39.0    0.28871  -21.96996   0.9981 
  -16.48139  0.17246  3.01723     14.21929  1.76255  0.47708   2.01675  0.31115     0.09435  14496.90926   4049.09845  1.17211         2561.16571     17.33846  0.00012  58677.91861   2.52831  0.34781   542732.53158  45.82118  20.04355  58720.12404    51.39041       44.85743   16.62992   25.70078   37.0    0.33242  -22.03101  0.98369 
  -10.97719  0.13434  2.82798     14.06208  1.73464  1.34212   3.21519  0.15107     0.32675  12138.25194   8289.64348  2.67929         2401.73659     18.10375  0.00071  58683.42281   2.82583  0.43194   967880.30867  45.61928   20.0862     58722.37    51.25556       44.63818   18.49271   34.77164   39.0    0.35469  -21.88443  0.98205 
  -15.06108  0.00486  2.74274     14.09414  1.62897  0.78868    2.3119  0.30445     0.29239  13784.28035   7730.73308  1.40671         2823.49034     18.13967  0.00077  58679.33892   2.62038  0.01124   737583.44323  45.73658  20.13835     58727.33    51.17553       44.58346   24.40098   29.90803   39.0     0.3082  -21.99587  0.99951 
  -14.87961  0.00822  2.39624     14.05436  1.89874   1.3441   4.11561  0.15483     0.04108  12123.43774   7848.57494  0.18954         2132.34781     17.94183  0.00049  58679.52039   3.60839  0.03385   788188.74675  45.89162  20.12751  58725.07068    51.25343       44.69138   21.36919   28.05969   33.0    0.31749  -21.87902   0.9991 
   -14.0779  0.17595  1.74891     14.11733  1.68846   1.4189   6.43347  0.17339     0.06309  13709.31682   3569.98954  0.90404         2270.45637     17.68615  0.00027   58680.3221    7.2128  1.13199   279376.40785  46.56461  20.13463  58725.07068     51.2977       44.66185   23.02814   31.28087   35.0    0.28084  -21.95482  0.98159 
   -8.19378  0.05233  0.85718     14.05688   1.3109  1.26759   6.76258  0.28404     0.21535  17408.64117   7581.33116  1.47738         2047.31845     16.67535    3e-05  58686.20622  12.22558  0.35388    68826.56437  47.68252  20.11145  58821.53025    51.83777       44.52915  107.33856  169.32279   30.5    0.28672  -22.12097  0.99826 
  -15.37788  0.01309  2.35491     14.30871  1.74841  0.44762   3.49949  0.15002     0.10503  10732.93773   5112.76693  0.83572         3077.61758     20.23447  0.09532  58679.02212   2.40475  0.04582   217261.94794  46.43056  20.08039   58723.4119    51.25033       44.68032   18.14173    28.7244   49.5    0.27293  -21.97052  0.99867 
  -13.36852  0.14971  1.97855     14.22604  1.75812  1.01829   4.77135  0.24117     0.31597  13145.50354   8095.12811  2.36917         2325.13815     16.35293    1e-05  58681.03148   4.91839  0.71434   225669.04952  46.56773  20.15926  58725.07068    51.31415       44.71616   18.49271   31.74802   34.5     0.2637  -21.90077  0.98591 
  -19.09493  0.10453  1.81035     14.00943  1.61731   1.1613   6.60878  0.13665       0.025  11912.31656   3868.58723  0.41223         2116.24872     16.53895    2e-05  58675.30507   5.59424  0.69079   471279.97145  46.28883  20.07053  58725.07068    51.36049       44.77739   18.14173   30.23621   34.5    0.29881  -21.86006  0.98695 
  -15.02415  0.07396  1.44603     14.30287  1.66718  0.71023   7.97616  0.11907     0.09816  14067.22105   8388.95031  0.38116         2376.27747     17.30364  0.00011  58679.37585   9.41537  0.58989    80242.88848  47.26607  20.15006     58727.33    51.32416       44.73826   18.14173   28.89967   29.5    0.33816   -21.9649  0.99335 
   -17.9518  0.00549  2.44472     14.11489  1.88165  0.97829    3.2554  0.32712     0.06775  14425.42792   6276.55061  0.63935         2374.18689     17.56196   0.0002   58676.4482     4.041  0.01787   615221.75216  45.97789  20.10594  58725.07068    51.29259        44.6856   20.00452   33.25983   32.5    0.32711  -22.03841   0.9995 
  -11.48006  0.01274  2.47265     14.25187  1.89725  0.90417   3.59558  0.24014     0.08804  14442.39625   8579.26981  4.30755         2159.73368     19.74402  0.03081  58682.91994   4.47378   0.0458   337692.06876  46.23213  20.13352     58723.38    51.56657       45.04698   16.51792   24.45396   30.0    0.32256  -22.04446  0.99871 
  -10.97732  0.29885  2.33482     14.17721   1.8166  1.17509   3.14234  0.27726     0.08013  12303.90259   7134.32913  3.13094         2641.23728     20.32569   0.1176  58683.42268   2.83769  0.93908   406599.09606  46.18243  20.15486     58727.33    51.24242       44.62154   21.16535   32.56272   36.0     0.2937  -22.01391  0.97553 
  -13.31528  0.10942  2.74334     14.10084   1.7087  0.85527   2.44755  0.30481     0.30577  14162.36371   4167.52985  2.62654          2235.2786     18.80261  0.00353  58681.08472    2.9284   0.2678   750511.67096   45.7496  20.12916  58727.54401    51.43329       44.90681   18.14173   27.21259   43.0    0.29133  -22.00858  0.98918 
   -25.1808  0.00885   2.1149     14.26704  2.05686   0.7302   2.52994  0.33497     0.04307  10803.55264   8403.12191  0.19665         2437.58182     18.06521  0.00065   58669.2192   1.76145   0.0224   249761.76483  46.53394   20.0935  58725.07068    51.37344       44.74992   22.67716   32.19793   30.5    0.31312  -21.72007  0.99959 
  -15.78838  0.02047  2.27774     14.07835  1.68886  1.21998   5.52487  0.17839     0.15253  12794.28978   6395.34209  1.97137         2705.66118     17.04053    6e-05  58678.61162   5.39488  0.11307   567178.55365  46.02771  20.16157  58727.54401    51.42015       44.87746   20.00652   27.21259   39.0    0.27114   -21.9647  0.99679 
  -17.67821  0.00894  1.75769     14.05782  1.79251  0.72148   4.02556  0.19353     0.05709  11590.19997   5540.35317  4.97119         2023.63821     20.87766  0.41917  58676.72179   3.22578    0.036   394024.91555   46.4369  20.17706     58724.38    51.33739       44.72802   21.16535   29.70287   46.0    0.22955   -22.3718  0.99944 
  -13.75262  0.02481  2.92094      14.0825  1.88875  0.98157   2.91294  0.20073     0.04553  12292.36301   7201.90048  2.67901           2009.465     16.73447    3e-05  58680.64738    2.6256  0.07228  1023398.29008  45.60393  20.13739     58727.33     51.3092       44.69616   24.92406   31.01294   35.5    0.31203  -21.89434  0.99712 
  -18.51873  0.05232  2.03908     14.36994  2.01432  0.50083   4.75503  0.24421     0.07123    14527.701   6968.81346   1.3452         2025.60058     20.48299  0.16894  58675.88127   5.98651  0.24876   141559.20914  46.80317  20.09318  58725.07068    51.45461       44.90448   15.47109   29.66333   35.5    0.26499  -22.21562  0.99566 
  -12.69297   0.0567  2.42975     14.19457  1.57087  0.70191   4.13382  0.16345     0.13859  12059.22469   6526.63671  1.91808         2899.63638     18.87645  0.00418  58681.70703   3.58606  0.23439   351507.54562  46.14793  20.12106     58723.38    51.49227       44.99487   14.00973   26.32029   39.5    0.31632  -21.95412  0.99159 
  -15.20163  0.01923   2.8891     13.99237  1.86945  1.30709   3.86671  0.19659     0.02826  13009.81768   7117.93562  2.78125          2284.5537     17.56423   0.0002  58679.19837   3.90401  0.07437  1500753.37921  45.44273  20.12066     58724.38    51.28919       44.67698   20.73961   29.95103   33.0    0.34314  -21.99509  0.99706 
  -11.10687  0.01911  1.97275     14.08399  1.67359  1.54281   5.21705  0.21041     0.20656  13163.57685   8245.53118  1.85219         2347.59199     17.45083  0.00016  58683.29313   5.39262  0.09968   410792.09955  46.28873  20.13275  58725.07068    51.34462       44.77255   18.79197   31.21468   34.0    0.26876  -21.93579  0.99786 
   -9.62583  0.33283   1.0636     14.39227  1.88199  1.23221  11.93789    0.088     0.28744  15682.21704   4773.03183  1.31051         2188.65055     16.66626    3e-05  58684.77417  17.51337   3.9733    32468.58674  47.97844  20.06861     58722.37    51.21266       44.63068   21.16535    28.7244   35.5    0.33622  -22.00111   0.9861 
  -13.88468  0.00338  2.90793     14.13357  1.80714  0.81759   2.74082  0.32575     0.48618  13016.18495   3935.31157  4.74972         2628.46135     20.17307  0.08276  58680.51532   2.76997  0.00928   767058.74302  45.71384   20.0965  58727.47875    51.24737       44.67838   24.83922   27.21259   44.0    0.27122   -22.0969  0.99961 
    -7.1037  0.03252  2.73089     14.17234  1.85235  1.29758   3.62585  0.20628     0.38924  11885.56069   8149.60497  2.78207         2903.62782     18.12163  0.00074   58687.2963   3.05546  0.11792   580045.49014   45.9005   20.1181  58725.07068    51.43261        44.8801   18.49471   26.65151   35.0    0.32255  -21.95223  0.99582 
   -9.00416   0.0434  1.78433     14.27192   1.5998  0.79139   4.01874  0.22997     0.25215  13276.19605   8852.74998  1.98089         2480.41146     16.96611    5e-05  58685.39584   4.22537  0.17443   135204.87097  46.83897  20.07328  58727.54401    51.31053       44.72841   23.18027   29.32145   30.0    0.32681  -21.91326  0.99676 
  -15.15398  0.02309  2.60037     14.22126  1.77178  0.91969   4.67156  0.22885     0.08148  13084.32776    5995.9842  1.51105         2392.71614      18.0806  0.00067  58679.24602   4.77081  0.10787   401592.98551   46.0834   20.1219     58727.33    51.41557       44.82691   20.64838   28.74648   35.5    0.28237  -21.76794  0.99629 
  -13.10318  0.03128  1.77023     14.24746  1.98366  1.34033   5.56958  0.24653     0.28176  15043.62218   6176.41187  0.59554         2756.17428     17.61242  0.00023  58681.29682    7.5189  0.17424   184680.99464  46.80383  20.03069      58722.4    51.38676       44.85373   19.65354   25.70078   33.5    0.30893  -22.03641  0.99771 
  -38.63864   0.0836  1.07058     14.46828   1.8904  0.28699  73.32644   0.1036      0.0253   5310.37881   9696.47111  4.29719         2833.49392     18.85386  0.00397  58655.76136  12.33499  6.12977    23283.32274  48.11911  20.11954  58725.07068    51.42794       44.89538    16.9809   26.45557  134.0    0.01946  -21.08616  0.96883 
  -13.13343  0.01502  2.72039     13.84545  1.57173  1.19051   1.71979   0.2057     0.06715  11978.92062    5179.5041  3.10549         2161.71337     16.10142    1e-05  58681.26657    1.4721  0.02583  2200677.62202   45.2534   20.0756   58723.4119    51.24674       44.66892   21.16535    28.7244   42.0    0.30772  -21.92069  0.99881 
  -11.37406  0.22011  1.67029     14.15557  1.72646  1.30562    7.1192  0.15178     0.12297  13040.51294   4402.95411  3.20199         2217.33244     20.28707   0.1076  58683.02594   7.22184  1.56702   218476.42712  46.72102  20.05838  58727.54401    51.38774       44.79612   15.11811   31.74802   39.5    0.25608   -22.0149  0.97774 
  -12.89606  0.11075  2.28639     14.17617  1.82977  1.21385   4.18051  0.19831     0.13817  12463.16677   6494.26527   2.8326         2343.51265     18.26574  0.00102  58681.50394   3.87359  0.46301   394614.72011  46.21677  20.10667  58727.54401    51.28515       44.71122   16.62992   32.19793   38.0    0.28881  -21.92498  0.98841 
  -15.50027  0.00437  1.80602     14.42453  1.39535  0.31571   5.06898   0.1602     0.08982  12249.99804   7440.01365  0.87353         2399.33961     16.08862    1e-05  58678.89973   4.53753  0.02218    59824.92505   47.1232  20.15728  58722.59736    51.29519       44.70138   23.03015   30.68612   36.5     0.2919   -21.8761  0.99947 
   -5.82563   0.1833  1.05523     14.28953  1.57134  0.97739   4.70912  0.33358     0.21807  16917.31133   7372.31315  2.89197         2113.16315     17.49357  0.00017  58688.57437   8.03951  0.86316    42827.79861   47.7867  20.09423     58724.38    51.28428       44.74386   18.14173   27.21259   30.5    0.30323  -22.01452  0.99527 
  -14.48447  0.21524  2.47507     13.97631  1.70239  1.38884   2.98266  0.20587     0.08937  12867.94696    8307.3436  0.42575          2623.9847     18.39045  0.00137  58679.91553   2.94611  0.64199  1080016.94988   45.6793  20.19874     58727.33    51.23528       44.64313    19.5064   30.38335   35.5    0.31193  -21.92921  0.97903 
  -10.98012  0.02153  2.33326     14.13443  1.54056   0.8724   5.73478  0.11145     0.33019  10196.70536   8822.71517  2.13609         2940.45414     18.39425  0.00138  58683.41988   3.55683  0.12347   419330.47182  46.09804  20.07589  58727.54401    51.35861       44.75991   24.18897   30.23621   36.0    0.29926  -21.83802  0.99579 
  -13.92086  0.08915  2.29991     14.34696  2.06796  0.85019   5.57256  0.19767     0.11162  13808.07789   7343.95714  1.05552         2705.69997     17.00002    6e-05  58680.47914   6.33794  0.49678   205523.40438  46.54811  20.13375  58727.47875    51.37675       44.81665   16.62992   30.34551   34.5    0.29482  -21.99106  0.98954 
  -12.49083  0.02505  3.03325     14.22642  1.87165  0.78293   2.88828  0.31472     0.13286  14903.78242   7569.34171  4.79002         2413.70641     17.18663    9e-05  58681.90917   3.82701  0.07236   563663.74221  45.82623   20.1055     58723.38    51.23891       44.65123   19.65354   29.17431   34.5    0.30495  -22.05562  0.99686 
  -16.08526  0.00198  2.10327     14.09274  1.86201  1.16804   3.14176  0.16064     0.13491  11269.42282   4467.25825  0.07877          2244.2008     18.69613  0.00276  58678.31474   2.38015  0.00622    499004.3897  46.19493  20.15245     58722.37     51.4488       44.89498   18.14173   25.70654   45.0    0.31876  -21.78989  0.99987 
  -13.73598  0.02462   2.3229     14.24048  1.77077   0.7991   4.83028  0.15973     0.19057  11294.72045   5979.86441  2.49727          2254.0697     16.35773    1e-05  58680.66402   3.67579  0.11894   293142.95745  46.31787  20.15116  58727.47875    51.42786       44.84428   19.13657    28.7244   41.5    0.27962  -21.82114  0.99674 
    -11.772  0.09367  2.52635     14.16408  1.92986  1.38322   3.35864  0.21747     0.31857  11674.31487   3159.84952  1.71975         2453.91933     16.35551    1e-05    58682.628   2.73057  0.31461   537252.11475  46.01921  20.07154  58725.07068     51.3419       44.73583   19.65354   31.74802   40.5    0.29806   -21.8411  0.99107 
  -10.59715  0.12155  2.06455     14.53913  1.79258  0.43599   3.04683  0.27552      0.1437  12027.54408   4815.32198  2.83724         2324.72445     16.52036    2e-05  58683.80285   2.62924  0.37035    59250.58932  47.11998  20.15622  58725.07068    51.39676       44.78828   21.16535   30.23621   37.0    0.28827   -21.8826  0.99221 
   -12.6823  0.28811   2.9995     14.28362  1.79753  0.60276   3.78742  0.14344     0.03458  11841.51154   8281.00314  3.69114         2204.48634     17.64301  0.00024   58681.7177     3.168   1.0912   406766.39675  45.96008  20.11972   58723.4119     51.1878       44.54756   19.65354   32.56272   34.5    0.32669  -21.85937  0.95295 
  -18.65812  0.00257  1.78906     14.33494  1.69762  0.51002     7.532  0.11239     0.02492  11578.59337   8749.72247  0.32812         2826.55041     18.41087  0.00143  58675.74188    6.0235  0.01933   107900.07811  46.96042  20.17505  58722.59736     51.2926       44.72094   19.65354   27.32189   30.5    0.30417  -21.83737  0.99966 
  -13.14983   0.2261  7.28901     14.21642  1.65453  0.96619  23.26872  0.06108     0.10767  14137.55913   7082.88906  2.20213         2139.74126      19.0148  0.00575  58681.25017  27.74269  5.26096  3012954.05042  44.28319  20.11656     58730.38    51.35044       44.79411   21.90044   27.98931   74.0     0.1795   -21.1955  0.38001 
  -11.21743  0.01069  1.81148     14.13385  1.64545  1.10142   3.71997   0.2559     0.15379  12234.40356    5916.3791  4.20174         2159.22729     19.78487  0.03385  58683.18257   3.32148  0.03976   270683.73531   46.5366  20.12871  58727.54401    51.39815       44.86246   24.18897   24.18897   38.5    0.26529  -21.95251  0.99926 
  -17.01685  0.00152   2.1868      14.1384  1.62123  0.81155   4.56699  0.19697     0.04542  12701.67008   7533.18475  0.86358          2683.0388     19.19331  0.00867  58677.38315   4.39521  0.00696   380614.82426  46.21859     20.15  58727.54401    51.32259       44.72567   23.41225   31.01294   32.5    0.31017  -21.89159  0.99981 
  -14.59284  0.02161  1.62845     14.17532   1.5647  0.77013   3.00052  0.20987     0.09028  12138.81329   8683.47237  0.15103         2344.16982     18.66115  0.00255  58679.80716    2.6374  0.06485   171853.74811  46.80457  20.03359  58725.07068    51.53148        44.9691   16.51792   29.83124   30.5    0.35835  -21.83839  0.99895 
   -5.19751  0.11723  0.70457     14.64556  1.76866  0.57905  13.93943  0.10543     0.25637  16888.17659   8697.08223  3.03108         2203.01753     16.69956    3e-05  58689.20249   23.7158  1.63412       4170.593  49.20044  20.07318  58725.07068    51.30905       44.70093   18.14173   34.77164   27.5    0.33217  -21.96798  0.99862 
   -15.0615  0.25748  1.54367     14.28737  1.36435  0.51549   7.67685  0.09476     0.27455  11355.27607   5895.43363  0.88676         2735.67052     18.75138  0.00313   58679.3385   5.90481   1.9766    80373.91624  47.12155  20.13338     58724.42    51.36055       44.78613   25.85212    28.7244   42.0    0.29623  -21.82688  0.96604 
  -16.09874  0.00134  1.91325      14.1044  1.68909  1.07206   4.57784   0.1553     0.04738   12719.3911   8132.56055  0.42646         2032.31895     18.01558  0.00058  58678.30126   4.41794  0.00614    354977.8159  46.38275  20.07044  58725.07068    51.18862       44.61059   18.14173   31.74802   30.5    0.34101  -21.86725  0.99988 
  -20.30403  0.00161  2.38903     13.99033  1.91323  1.34589   2.67705  0.22216     0.06266  11902.57501    7349.7443   0.5378         2007.28763     19.98392  0.05354  58674.09597   2.26238  0.00432  1060147.57878   45.7688  20.09115     58727.33    51.43893       44.91336   15.76835   27.21259   37.5    0.29673  -21.93206  0.99989 
  -10.42596  0.32206  1.11243     14.52661  1.78148  0.69204  18.96765  0.04689     0.07329  12306.72626   3484.30554  1.22825         2868.50383     16.45234    2e-05  58683.97404  17.13665  6.10873    18110.45127  48.16915  20.11487  58725.07068    51.22888       44.60725   24.83922   32.56272   47.5    0.28033  -21.93911  0.97285 
  -11.44219   0.0064  3.33249     14.40418   2.0067   0.6107   3.90572  0.14376     0.03011   9454.58602   8351.82179  4.76438         2831.81228     17.97839  0.00053  58682.95781   2.08263  0.02499    321720.4406  46.01831  20.32487  58783.30636    51.64857        44.4294   75.45844  141.27104   35.5    0.31297  -21.88499  0.99882 
  -10.39221  0.35718  2.02025     14.22086  1.49481  0.78645   6.51332  0.10197     0.04741   10989.4585   7533.87501  3.23127         2475.77557     19.84094  0.03852  58684.00779   4.69226  2.32641   204880.79953  46.52112  20.11907  58725.07068    51.21213       44.60651   24.40098   30.37519   40.5    0.29682  -21.85417  0.94152 
  -12.65995  0.02967  2.74538     14.25408  1.51911  0.53332   2.83107  0.28507     0.10363  13265.32997    4658.9765  4.87718         2731.64025     17.35151  0.00012  58681.74005   2.97176  0.08399   329948.95709  46.05478  20.09714     58727.33    51.32091       44.74182   16.62992   33.25983   36.5     0.3254  -22.01665  0.99592 
  -16.85513  0.01356  1.45767     14.19671  1.52017  0.68228    6.4067  0.11474     0.18223  12384.97607   9015.55333  0.03214         2426.05366     16.56186    2e-05  58677.54487   5.86208  0.08689   121226.93074  47.03982  20.02069  58725.07068    51.39675       44.81175   20.64838    28.8337   30.5    0.33084  -21.83834  0.99883 
  -40.17171  0.04845  0.74245      14.2559  1.87166  0.35594  74.62939  0.14122     0.03087   5627.20454   9179.58616   3.9842         2833.12635     18.71533  0.00288  58654.22829  14.09686  3.61589    29483.03189  48.33017  20.10553  58730.01733    51.28722       44.69575   16.62992   33.25983  143.5    0.01816  -21.34084  0.99087 
  -10.31522  0.00148  1.58302     14.19681  1.76086  1.31566   3.72398  0.28792     0.22623  13273.67139   7749.08421  2.16979         2215.50616     18.86337  0.00406  58684.08478   3.91396  0.00553   165533.02165  46.89671  20.11649   58723.4119    51.33375        44.7819   22.16019   27.32189   32.5    0.28761  -21.93368  0.99993 
  -16.14976  0.00661  1.50363     14.18904   1.8002  1.07657   7.32724  0.11438     0.27981   11743.1218   7823.32788  0.11292         2255.66359     17.93702  0.00048  58678.25024   6.02746  0.04844   158249.29748  46.97054  20.10462   58723.4119    51.39977       44.77838   19.65354   36.28346   33.5     0.3191  -21.78359  0.99947 
   -9.47773  0.02144  0.75393     14.31642  1.73163  1.16267   8.83862  0.16978     0.12838  14383.22875   7853.93064  0.76023         2783.13681      18.0466  0.00062  58684.92227  10.90749  0.18951    21286.34808  48.42454  20.07362     58724.38    51.22678       44.62948   23.02814   30.23621   29.0    0.33169  -22.03807   0.9997 
  -11.23205  0.27376  2.36971      14.3125  2.19002  1.34552    5.0087  0.28425     0.04919    13823.991   8550.78914  3.73121          2497.5078     19.01037  0.00569  58683.16795   5.70978  1.37119   270803.22096  46.42725  20.13326     58722.37    51.29688       44.71098   15.11811   29.70287   32.0    0.24719    -21.993  0.97247 
  -15.42595  0.00102  1.65948     14.38907   1.5075  0.42084   6.46529  0.13668     0.04419   12352.0304   8283.50248  1.72268         2067.91622     16.20782    1e-05  58678.97405   5.88426  0.00662    64250.34167  47.19928  20.04191     58724.42    51.37735       44.81005   20.00652    28.7244   32.0    0.28756  -21.89171  0.99988 
  -10.44579  0.02807  2.70119     14.24561  1.68463  0.74142   5.23646  0.09096     0.22029   9754.48449    8510.8051  2.11622          3069.3339      18.1129  0.00072  58683.95421   2.97217  0.14701   368302.01528  46.06604   20.0855  58725.07068    51.38608       44.81831   14.63936   29.55413   37.0    0.34188  -21.83471  0.99412 
  -13.85483   0.0012  2.72343     14.03269  1.85836  1.03969   2.06343   0.2373     0.17708  14630.40585   4445.69279  1.28987          2096.7622     20.04139  0.06111  58680.54517    2.6347  0.00249  1101022.82653  45.62594  20.05927   58723.4119    51.37014       44.83151    16.9809   25.70078   43.5    0.32334  -22.08101  0.99991 
   -13.7326  0.00565  1.72031     14.20293  1.57707  0.79731   5.98206  0.15488     0.42068  11772.55372   7638.65181  1.61793         2324.30297     18.65098  0.00249   58680.6674    4.9456   0.0338   170223.48776  46.76446  20.16365  58725.07068    51.32623       44.73076   18.49271   30.23621   35.5    0.28355  -21.85828   0.9994 
