 texplosion  fnickel    Pspin  log(Bfield)      Mns  thetaPB   mejecta    kappa  kappagamma      vejecta  temperature    alpha  cutoff_wavelength  log(nhhost)      A_V         MJD0   kenergy  mnickel            TSD   log(L0)  Peak_mag     Peak_MJD  log(E_rad)  log(Peak_lum)  Rise_Time    E_fold  tau_1  delta_m15     r_peak     frac 
   -5.52811  0.00382  0.88848     14.03971  1.77827  0.60044  33.88134  0.29707     0.01418   10114.9038   5921.88051   0.1395         3526.95971     17.35024  0.00012  56734.55089  20.67813  0.12948   108565.06051  47.58586  18.78991  56836.52063    51.57773       44.55259   53.37836   88.2796   69.0    0.06055  -22.26355  0.99949 
   -7.23489  0.07784  1.13996     13.95385  1.82678  0.66375  24.46186  0.28541     0.01257   8769.10025   6606.11605  0.13021          5688.8044     19.47077  0.01642  56732.84411  11.22088   1.9042   272630.81545  46.98118  18.69651  56839.28193    51.61865       44.61665   59.53741  78.01453   68.5    0.06397  -22.30617  0.98807 
   -5.43996  0.00258  0.83505     13.83612  1.89411  1.41521  41.75857  0.28801     0.01048  10534.81322   5989.08095  0.27023         2212.11911      18.0983   0.0007  56734.63904  27.64563   0.1076   260860.57421  47.28642  18.82868  56833.75933    51.50598       44.49304   61.59042  80.06755   70.0     0.0624  -22.26457  0.99966 
   -7.07926  0.34002  0.71496     13.76854   1.5667  0.85112  24.69644  0.32388     0.01097   9401.41763   6145.27551  0.00428         4995.02107     20.50699  0.17853  56732.99974  13.02112  8.39738   215916.16343  47.42098  18.75679  56839.28193    51.60989       44.62045   55.43138  78.01453   68.5    0.06812  -22.46359  0.97452 
   -8.39456   0.0043   1.1265     13.75218  1.78059  0.98754  25.15991  0.31119     0.01037   8883.98252   6026.45309  0.17192         3319.78473     19.94076  0.04847  56731.68444  11.84545  0.10828   656875.38653  46.59846  18.79538  56836.52063    51.56984       44.56134   57.48439  82.12056   68.5    0.06721  -22.29833   0.9993 
   -6.49942  0.00412  1.00667     13.93234  1.91267  0.91367  34.51752  0.28801     0.01388  10460.72801   6315.79719  0.17182         2079.95428     16.23351    1e-05  56733.57958  22.53153   0.1423   245779.76052  47.15417  18.75935  56836.52063    51.59208       44.60943   59.53741   73.9085   67.0    0.06026  -22.26983  0.99935 
   -7.19444  0.00113  0.77136      13.4975  1.31607   0.9321  18.81224  0.32811     0.01293   8879.79423   6792.41507  0.43249         2725.30436     20.74377  0.30796  56732.88456   8.84858   0.0212   735548.58546    46.747  18.78455  56839.28193    51.63532       44.63745   51.32535  82.12056   67.5    0.06472  -22.59531   0.9999 
   -7.20685  0.00714  1.19216     14.15936   1.9671  0.41448  27.03509  0.31138     0.01125     9621.791   6720.24989  0.11178         5072.14961     19.71597  0.02889  56732.87215  14.93024  0.19302    124620.0146  47.31442  18.73969  56833.75933    51.58646       44.59472   57.48439  75.96152   66.5    0.06716  -22.34411   0.9988 
   -7.94826  0.26515  1.71759      13.9788  1.85643   0.6223  19.12803  0.24267     0.01171    7683.1289   6759.78425  0.68387         5432.24592     19.46161  0.01608  56732.13074   6.73556  5.07182   560705.14374  46.31895  18.71468  56833.75933    51.55429       44.57335   63.64343  71.85549   69.0    0.06879  -22.29111  0.93288 
   -8.07498  0.00599  0.98725     13.83265  1.69725  0.63135  23.53307  0.30864     0.01169   9210.51049   6938.43199  0.17666         3892.78943     20.62562  0.23461  56732.00402  11.90894  0.14092   331981.71954  46.98862  18.75979  56839.28193    51.59651       44.59524   59.53741  78.01453   65.5    0.06756  -22.50478  0.99925 
   -7.58985  0.01913  1.25792     13.79235  1.99275   1.1279  22.84681  0.30473     0.01414   9164.59842   6479.98565  0.25533          4372.3816     20.42418  0.14754  56732.48915  11.44668  0.43707   761860.77371  46.48712  18.82248  56836.52063     51.5732       44.54358   57.48439  86.22659   68.0    0.06557   -22.4207  0.99704 
   -6.69395  0.00224  1.07477     13.84316  1.85473  1.02619   31.3567  0.26958     0.01208   9448.56892   6447.87038  0.10137         5452.93169     19.28997  0.01083  56733.38505  16.69896  0.07025   409644.43754  46.86208  18.85936  56836.52063    51.56665       44.54576   51.32535   88.2796   68.0    0.06374  -22.28689  0.99961 
   -8.24603   0.0054  1.10851       13.533   1.4357  1.19223  22.34782  0.28955      0.0119   8780.63645   6216.89031  0.24747         2645.55485     17.51468  0.00018  56731.83297  10.27813  0.12065  1407206.09591  46.18807  18.83315  56833.75933    51.56959       44.53881   49.27234  92.38563   68.5     0.0665  -22.30734  0.99895 
   -6.87632  0.00782  0.91199     14.01971  1.67532  0.50868  25.57284  0.32152     0.01188   9209.91366   6856.93862  0.20039         2070.13656     16.43382    2e-05  56733.20268  12.93949  0.19992   118161.79307  47.50048   18.7768  56836.52063    51.58166       44.57038   53.37836  86.22659   66.5    0.06473  -22.26781  0.99908 
   -5.27497  0.02026  0.86071     13.84542  1.87266  1.48213  18.12915  0.33357     0.04497   8956.32753    6222.6977  0.25463         4045.72865     20.61124  0.22697  56734.80403    8.6749  0.36724   262510.64744  47.25245  18.71948  56836.52063    51.77824       44.78157   57.48439  78.01453   72.5    0.05743  -22.33888  0.99874 
   -6.12088  0.00123  0.73376     14.03575    1.516  0.44427  34.32609  0.19877      0.0104   8192.62793   5822.71547  0.18178         2302.54824     17.96615  0.00051  56733.95812  13.74352  0.04225    64285.62961  47.91033  18.73531  56833.75933    51.58958       44.61089   61.59042  71.85549   69.5    0.05582  -22.23971  0.99985 
   -6.89523  0.01811  1.09328     13.82994  1.74884  1.02086  26.60063  0.29595     0.01635   9402.47863   6158.00563  0.06735         5674.17984     18.64226  0.00244  56733.18377  14.02826  0.48179   424773.79792  46.80597  18.76457  56833.75933    51.55821       44.57517   59.53741   73.9085   68.0    0.06195  -22.22695  0.99702 
   -7.00951  0.05767  1.25741     13.83616  1.95558  1.14075  25.92012  0.32846     0.01255   9602.56561    6396.1783  0.23609         5139.75471     19.82681  0.03729  56733.06949  14.25735  1.49475   610554.99636  46.57544  18.81569  56836.52063     51.6036        44.6018   49.27234  86.22659   67.5    0.06625  -22.29581  0.98969 
   -8.23834  0.15809  1.20242     13.86736   1.6453   0.5539  22.74635  0.32231      0.0102    9218.3046   5982.36112  0.23904         2293.55104     17.05608    6e-05  56731.84066  11.53031  3.59587   406873.04308  46.71552  18.74657  56833.75933     51.5596       44.57214   59.53741   73.9085   68.0    0.07105  -22.32228  0.97097 
   -7.88271  0.00478  1.05418     13.96253  1.63838  0.49094  29.23464  0.28671     0.01183   9342.96582    5741.5721  0.14016         4393.91005     19.72236  0.02932  56732.19629   15.2228   0.1398   200910.51373  47.13443  18.70891  56839.28193    51.64713        44.6772   55.43138   73.9085   69.5    0.06236  -22.34164  0.99911 
    -8.3633  0.09366  1.08674     13.77832  1.71099   0.8821  23.78132  0.32607     0.01618   9983.53896   5990.36306  0.01915         5991.57514     20.37404  0.13145   56731.7157  14.13944  2.22734   520808.45533  46.71317  18.74451  56836.52063    51.58275       44.57667   57.48439  80.06755   67.5    0.06523  -22.42295  0.98601 
   -7.91007  0.01768  1.10399     13.84817  1.66284  0.73201  30.15246  0.28688     0.01098   9472.08367    6325.9173  0.14725         4148.23249     19.35707  0.01264  56732.16893  16.13768  0.53323   378656.62535  46.82552  18.73722  56839.28193    51.68494       44.69252   59.53741  75.96152   69.5    0.06417  -22.26029  0.99636 
   -6.79014  0.00653   0.8936     13.76175  1.55402  1.05883  33.13187  0.28537     0.01449   9945.85939   6285.63601  0.22301         2886.87659      16.6746    3e-05  56733.28886  19.55049  0.21636   345185.21793  47.01997  18.74543  56839.28193    51.61256       44.59993   55.43138  84.17357   70.5    0.05721  -22.22095  0.99893 
     -8.149  0.20477  1.32328     13.85122  1.68508  0.72374  19.73401  0.28737      0.0117   8081.47934   6323.90604  0.35339         4142.69674      18.2732  0.00104     56731.93   7.68819  4.04097   543629.57315  46.51686  18.66593  56836.52063    51.61511       44.63736   57.48439   73.9085   69.0    0.06681   -22.2201   0.9623 
   -7.14743  0.04295   0.9618     13.98628  1.55325  0.54896  32.15221  0.24351     0.01325   9154.98741   6046.49725  0.15297         3316.97191     18.66208  0.00255  56732.93157  16.07509  1.38105    142125.1042  47.34124  18.69872  56836.52063    51.58122       44.59625   63.64343   73.9085   69.5    0.05596  -22.17857  0.99214 
   -7.61931  0.00356  1.49228      13.7905  2.13205  1.26204  25.23152   0.2415     0.01062    8623.0963   6702.47363  0.35613         5397.61585     20.24465  0.09758  56732.45969  11.19173   0.0899  1156938.76005  46.18663  18.74739  56836.52063    51.60471       44.60682   53.37836  82.12056   67.5    0.06916  -22.42182  0.99922 
   -7.28507  0.01295  0.78954     13.62067  1.53684  1.41689  34.28182  0.28197     0.01098   9916.19255   6302.83693   0.0814         3003.42457      20.4489  0.15618  56732.79393  20.10856  0.44387   510326.37692  46.95287  18.73268  56833.75933    51.55978       44.57488   61.59042   73.9085   69.0    0.06432  -22.42073  0.99826 
   -7.30275  0.00131  0.93313     13.90034  1.97236  0.72032  23.31638  0.29426     0.01278   8952.68518   6637.51629  0.25729         3383.74478     20.67638   0.2637  56732.77625  11.14795  0.03059   252352.49751  47.22194  18.76239  56836.52063    51.58527       44.58242   59.53741  78.01453   68.5     0.0631  -22.56896  0.99988 
   -7.57831  0.10782  1.37715     13.91628  2.02711  0.84983  25.21668  0.29018     0.01207   9236.28423   6396.00673  0.18875         4806.51901     19.84476  0.03886  56732.50069  12.83245  2.71885   524922.16548  46.57767  18.80371  56836.52063    51.57745       44.55599   55.43138  84.17357   68.0     0.0674  -22.31137  0.97886 
   -8.53858  0.00129  1.33418     13.74144  2.09459  1.39804  23.55451  0.32502     0.01346   9777.21415   6260.83206  0.07535         5998.62205     20.43265  0.15044  56731.54042  13.43172  0.03038  1138852.85965  46.28305   18.7033  56833.75933    51.54397       44.56249   63.64343  71.85549   68.0    0.06891  -22.47174  0.99978 
   -6.64429  0.02784  0.96106     14.03111  1.74312  0.57043  33.45861  0.27131     0.01195   9715.42932   6611.28927  0.06518         2895.03044     16.20241    1e-05  56733.43471  18.83905  0.93157   129548.74028  47.43223   18.8095  56833.75933    51.57107       44.57986   53.37836  78.01453   68.0    0.06214  -22.23767  0.99554 
   -5.24798  0.02062  0.70463     13.82834  1.38212  0.78933  42.61445  0.23618     0.01066   9610.01069   6145.89166  0.34928         4331.18876     19.10948  0.00715  56734.83102  23.47642  0.87852   140478.32113  47.56585  18.65994  56839.28193    51.64424         44.652   57.48439  78.01453   71.0    0.05583  -22.16597  0.99683 
   -7.97075  0.01018  1.34878     13.44401  1.33257  1.28011  16.59488  0.29723     0.01307   8394.45046   6328.88325  0.68263         4125.60024     18.80693  0.00356  56732.10825   6.97567  0.16886  2913160.54383  45.66929  18.80712  56836.52063    51.55052       44.53016   59.53741  84.17357   67.0    0.07591  -22.28415  0.99755 
   -8.02972  0.00307  0.94675     13.95096  1.34182  0.32755  18.05544  0.32066     0.01165   8256.00632   6201.18395  0.06873         4414.86568      19.3701  0.01303  56732.04928   7.34134  0.05536    139978.5783    47.298  18.79302  56833.75933    51.58913       44.57997   51.32535  84.17357   67.5    0.07227  -22.32935  0.99961 
   -7.99838  0.01518  1.49825     13.93777  1.90216  0.66184  19.52088  0.30592     0.02061   9223.90737   6160.55032  0.45991         3006.50544     20.14965  0.07841  56732.08062   9.90733  0.29627   528067.59997  46.47423   18.7756  56836.52063    51.58705        44.6049   59.53741   73.9085   68.0    0.06369  -22.30243  0.99693 
   -7.58837  0.00796  1.04875     13.71606  1.68009  1.06057  27.98612  0.32761     0.01138   9479.11841   5649.96618  0.07813         4547.86201     16.81529    4e-05  56732.49063   15.0005  0.22288   634418.26032  46.65046  18.79129  56836.52063    51.60156       44.60258   51.32535  82.12056   69.5    0.06576  -22.30575  0.99864 
   -6.94968  0.00948  1.15556     13.60436  1.17743  0.60527  23.98068  0.24372     0.01063   8643.61586   6286.03355  3.28573         2462.23853      19.8583  0.04009  56733.12932  10.68758  0.22731   902853.16989  46.25858  18.71895  56839.28193    51.61744       44.61049   57.48439  80.06755   70.0    0.06356  -22.25986   0.9971 
   -7.77522  0.08477  1.15112     13.81168  1.43137  0.56896  19.91107  0.31113     0.01054   7910.71734   6698.01354  0.49979         4307.86257     19.67082  0.02603  56732.30378   7.43282  1.68785   419225.83451  46.67991  18.79056  56836.52063    51.59047       44.57918   53.37836  84.17357   68.5    0.06414  -22.23042  0.98442 
   -7.68234  0.02986   1.2938      13.7646  1.63215  0.82618  19.67668  0.33935     0.01246    8579.1874   6394.24983  0.37072         4460.30495     18.37959  0.00133  56732.39666   8.63916  0.58759   750100.25896  46.38275  18.69612  56836.52063    51.66945       44.66848   59.53741  78.01453   67.5    0.07048  -22.23603  0.99431 
    -7.5001  0.00101  1.04207     14.20327  2.08441  0.50355  26.21663  0.33541      0.0182   9381.34184    5909.4114  0.04827         2533.94827     16.89762    4e-05   56732.5789  13.76366   0.0265    82425.99736  47.63597  18.71695  56836.52063    51.61253       44.62019   57.48439  75.96152   69.5    0.05354  -22.22868  0.99989 
   -7.91295  0.05179  1.36946     13.61227  1.67992   1.3673   18.8946  0.33603     0.01207   8865.33096   6347.92113  0.37376         4983.96672     19.55107  0.01976  56732.16605   8.85839  0.97856  1744433.91296  45.97938  18.81992  56833.75933    51.54238       44.53214   59.53741  80.06755   67.5    0.07297   -22.3445  0.98985 
   -7.65185  0.00313  1.09334     13.81707  1.79735  0.95362  29.65403  0.29638     0.01201   9466.89205   5907.32614  0.13266         3379.20174     19.11907  0.00731  56732.42715  15.85352  0.09273   463244.28803  46.78016  18.73089  56833.75933    51.63043       44.64199   61.59042   73.9085   70.0      0.061   -22.2769  0.99945 
    -8.2728  0.02432  0.86391     13.73215  1.20321  0.50773  26.48223  0.31333     0.01159   9692.29964   6510.84307  0.05273          2768.0535      20.0213  0.05835   56731.8062  14.84005  0.64415   286286.46255  47.01945  18.73322  56839.28193    51.74529       44.74917   55.43138  78.01453   67.5    0.06988  -22.34136  0.99562 
   -8.11476  0.01041  0.72891       13.558  1.11041   0.7908  25.30792  0.31678     0.01254   9269.52633   6638.24074  0.00791          2099.0809     18.73005  0.00298  56731.96424  12.97175  0.26342   419426.87906  46.96632   18.8174  56836.52063    51.57723       44.55167   55.43138  86.22659   66.5    0.06632  -22.29633  0.99856 
   -8.52082  0.01174  1.08107     13.74075  1.76565  1.02686  29.25009  0.29747     0.01014   9062.22227   6015.55724  0.03192         4223.63063      19.1737  0.00829  56731.55818  14.32926  0.34338   632305.48722  46.64712  18.75175  56836.52063    51.57338        44.5783   59.53741  78.01453   70.0    0.06108   -22.2972  0.99794 
   -6.43312  0.02892  0.76799     14.02002  1.79574   0.7295  39.22431  0.17526     0.01204   8505.83663   6393.45681   0.0758         4268.52752     16.90414    4e-05  56733.64588  16.92843  1.13435     89686.6961  47.79965  18.79963  56836.52063    51.56746        44.5648   55.43138  80.06755   70.0    0.05671  -22.19392  0.99674 
   -7.07471  0.00122  1.19713     14.07415  1.79748  0.49434  25.36978  0.27822     0.01466   8966.46911    6332.4053  0.16732         5469.38141     17.90995  0.00045  56733.00429  12.16709  0.03099    170002.8821  47.13677  18.69787  56836.52063    51.60322       44.60273   59.53741  78.01453   67.0    0.06397  -22.25821  0.99978 
   -7.61764  0.02798  1.29163     13.67466   1.6388  1.14643  22.24334  0.26289     0.01056   8082.98076   6490.89494  0.44419         3929.18877     17.66005  0.00025  56732.46136   8.66903  0.62245  1135809.78058  46.20579  18.67217  56839.28193    51.62969       44.63982   59.53741  75.96152   68.5    0.06521  -22.22002  0.99404 
   -8.83253  0.00399  1.35413     13.64272  1.66778  1.09101   20.6763  0.28648     0.01316   9004.24904   6390.48081   0.2388         5636.93628      20.0043  0.05611  56731.24647   9.99988  0.08246  1471777.60786  46.05982  18.71484  56836.52063    51.60236       44.59792   59.53741  78.01453   67.0    0.07121  -22.38726  0.99915 
   -6.78929  0.07953  1.19729     14.06257  1.77529  0.50049  27.46529  0.31836     0.01172   9762.83425   6998.69072  0.59048          2316.2665     17.99505  0.00055  56733.28971  15.61576  2.18425   177155.09363  47.11336  18.69602  56833.75933    51.59574       44.58958   59.53741  78.01453   66.5    0.06789  -22.20567  0.98429 
   -6.48791  0.01005   0.9716     13.93645  1.72484  0.66167  33.15212  0.27458     0.01213   9872.58967   6267.60068  0.05744          5637.8439      18.1725  0.00083  56733.59109  19.27528  0.33306   202601.83728  47.22398  18.77058  56836.52063    51.56557       44.55942   57.48439  80.06755   67.5    0.06385  -22.32358  0.99833 
   -8.60696  0.00194  0.91915     13.93206  1.51821  0.36584  22.80368  0.33446     0.01082   9578.88275   6520.62132  0.07281         5264.33401     20.63815  0.24148  56731.47204  12.48136  0.04423   162851.06458  47.31161  18.70732  56836.52063     51.7499       44.76342   57.48439  75.96152   67.0    0.06974  -22.56267  0.99976 
   -7.16159  0.00237  0.92819      13.7296  1.52645  0.98467  27.89044  0.29551     0.01613   9794.16865   6088.41858  0.02266         5205.03027     18.99128  0.00545  56732.91741  15.95944  0.06609    424201.9367  46.88968   18.8982  56830.99802    51.52678       44.49395   51.32535  90.33262   68.0    0.06258  -22.30701  0.99964 
   -5.46979  0.03245  0.83047     13.95827  1.98957  0.99713  29.78654   0.2833     0.01262   9149.69317   6484.99442  0.05089         3736.29928     18.25476    0.001  56734.60921  14.87511  0.96645   154412.32497  47.54028  18.76903  56836.52063    51.66643       44.66755   55.43138  80.06755   68.5    0.06147   -22.2451   0.9972 
   -8.62015  0.00213  1.63298     13.94589   1.9275  0.64007  19.34749  0.30089     0.01581   9132.18028   6285.44538  0.21241         4786.62753     16.02032    1e-05  56731.45885     9.625  0.04118     612335.499  46.34089  18.72116  56839.28193    51.66002       44.69547   53.37836  71.85549   65.0    0.07158  -22.26269   0.9995 
   -7.66404  0.03394  1.47151     13.88838   1.8362  0.75569   23.9819  0.23702     0.01172   8448.82146   6474.55806  0.31604         4667.11242     18.34619  0.00123  56732.41496  10.21181  0.81403   617308.48314  46.40674  18.79519  56836.52063    51.55466       44.54544   61.59042  78.01453   67.5    0.06981  -22.23279  0.99148 
   -8.59368  0.00535  1.19222     13.85262  1.50708  0.49102  18.82696  0.33158      0.0128   9005.53433   6123.16114  0.06399         4533.25652     18.92234  0.00465  56731.48532   9.10807  0.10066    392117.3301  46.70085  18.67798  56836.52063    51.64329       44.66823   59.53741   73.9085   65.5    0.07642  -22.30933  0.99906 
   -6.79129  0.00652   1.0933     13.86288  1.94346  1.02656   33.1514  0.30734     0.01173  10065.55432   5855.84173   0.0836         5590.67807     18.42212  0.00147  56733.28771   20.0357  0.21602   405611.87423  46.87183  18.72925  56836.52063    51.63887       44.64006   59.53741  78.01453   70.5    0.06456  -22.30156  0.99885 
   -6.75426  0.06098  1.26277     13.88526  2.04594  1.04689   29.4415  0.27999     0.01049   9591.61312   6454.11525  0.08722         2548.35797     17.70617  0.00028  56733.32474  16.15736  1.79534   513848.77629  46.66626  18.82855  56839.28193    51.58841       44.55642   53.37836  90.33262   67.5    0.06709  -22.25335  0.98835 
   -7.82858  0.09273  1.35274     13.87312  1.94159  0.86215  23.73482   0.2919     0.01154   8755.39095   6308.80367  0.24343         4696.01735     19.75592  0.03167  56732.25042  10.85336  2.20086   591778.15864  46.52242  18.74561  56836.52063    51.56137       44.58255   61.59042   73.9085   68.0    0.06557   -22.2903  0.98231 
   -6.98815   0.0058  0.92925     14.01312  1.61817  0.48991   28.0822  0.32176     0.01241   9611.48709   6701.39119  0.06968         2426.02176      16.7071    3e-05  56733.09085  15.47531  0.16281   122143.57471  47.45473  18.73475  56836.52063     51.5577       44.58037   63.64343  71.85549   66.5    0.06359  -22.26007  0.99918 
   -6.10837  0.18411  0.77738      13.9188  1.44429  0.69596  27.38835  0.27362     0.01309   8795.71374   6550.32693  0.24929         4976.35499     19.33653  0.01206  56733.97063  12.63966  5.04247   117796.77881   47.5761  18.77363  56836.52063    51.58161       44.58057   59.53741  78.01453   70.0    0.05765  -22.16595  0.97961 
   -6.64591  0.14779  0.96441     13.73695  1.49325  0.95125  25.77379  0.26873     0.01025   8439.09602    6347.3373  0.26166         5823.64456     18.91629  0.00458  56733.43309  10.94958    3.809   433090.48074  46.83788  18.75613  56839.28193    51.60142       44.57966   57.48439  84.17357   68.0      0.063  -22.27586  0.97718 
   -7.58276   0.0015  1.10428     13.82582  2.02416  1.56154  29.90646  0.28342     0.01005   8688.00969   6018.86256  0.20003         4371.62164      19.2983  0.01104  56732.49624  13.46582  0.04496   511182.00554  46.78036  18.74858  56836.52063    51.58917        44.5784   57.48439  82.12056   71.5    0.05986  -22.23188  0.99977 
   -7.49313  0.02831  1.55819     14.19589  2.01138  0.36714  20.19798  0.33111     0.01541   9256.06128   6397.53401  0.74379         2511.69109     16.72744    3e-05  56732.58587  10.32256  0.57176   183977.52214  46.92234  18.72796  56836.52063    51.59116       44.60438   59.53741   73.9085   68.0    0.06679  -22.26575  0.99412 
   -6.38061  0.01769  0.91829     13.67676  1.57014  1.49222  27.88631  0.30165     0.01387   9772.76112   6459.96288  0.12448           4357.764      19.2259  0.00935  56733.69839   15.8874  0.49335   544754.34791  46.80262  18.80576  56836.52063    51.57927       44.57058   53.37836  84.17357   67.5    0.06467  -22.31314  0.99747 
   -5.68722  0.00248   0.8291     13.70379  1.69189  1.22587  37.06504  0.27233     0.01405  10631.39606   6101.83942  0.66903         2905.26592     20.71555  0.28858  56734.39178  24.99034   0.0919   422489.09948  47.03419  18.83144  56836.52063    51.57667       44.55354   51.32535  90.33262   71.0    0.05247  -22.53867  0.99966 
   -7.83329  0.10258  1.33084     13.76231  1.88472  1.26922  25.36617  0.28648     0.01036   9204.48715   6441.90518  0.14052         4512.94382     19.16371   0.0081  56732.24571   12.8198  2.60214   926191.83476  46.32914  18.68697  56842.04324    51.71749       44.72919   53.37836  78.01453   65.5    0.07233  -22.26071  0.97891 
   -6.82879   0.0839   1.2311     13.80252  1.85436  1.45833  26.41261  0.26543     0.01592   9418.11465   6201.13416  0.14275         4038.17682     19.09132  0.00686  56733.25021  13.97547    2.216   647979.07104  46.54489  18.81352  56836.52063    51.57392        44.5484   51.32535   88.2796   67.5    0.06113  -22.23932  0.98424 
   -6.86099  0.01845  1.17571     14.18806  1.95041  0.41621  30.73395  0.28159     0.01244   9566.23584    5796.4776  0.10027         4118.34704     16.72919    3e-05  56733.21801  16.77752  0.56715   105299.38699  47.39594   18.7089  56833.75933    51.62535       44.65513   59.53741  71.85549   69.5    0.06233  -22.27632  0.99655 
   -7.90968  0.01769  1.03271     13.87623  1.53783  0.48595  14.18524   0.3367     0.01128   6903.76184   6837.03057  0.52055         5052.65693      20.4877  0.17078  56732.16932   4.03307  0.25091   269288.80512  46.99758  18.84004  56833.75933    51.56126       44.55334   53.37836  84.17357   69.5     0.0633  -22.40699   0.9983 
   -6.51692   0.0101  0.81328     13.79184  1.65342  1.26649  52.78177  0.16309     0.01096     9537.531   5999.68879  0.07207         2997.11591     18.18382  0.00085  56733.56208  28.64066  0.53294   264849.99084  47.24375  18.69207  56833.75933    51.57729       44.60135   59.53741  71.85549   70.0    0.05679  -22.21887  0.99803 
   -6.61754  0.01069  0.92802     14.19407  1.85686  0.42378  36.01685  0.28845     0.01145  10028.30394    6204.7409  0.00098         4082.15578     18.31275  0.00114  56733.46146  21.60667  0.38512    60752.59466  47.81895  18.74486  56839.28193    51.87976       44.89982   53.37836  75.96152   69.5    0.06304  -22.24084  0.99844 
   -8.80799  0.02033  0.95199     13.65314  1.65766  1.43274  31.44891  0.32147     0.01061   10162.6715   6570.81994  0.00014         2039.51651     20.31316  0.11426  56731.27101   19.3753  0.63948    689125.3957  46.69278  18.77671  56839.28193    51.62382       44.61663   53.37836  84.17357   68.0    0.06554  -22.35178  0.99674 
   -7.52442  0.11178  0.84003     13.98025  1.38566  0.37403  24.06106  0.33753     0.01009   9046.11179   6446.80713  0.05623          3590.8828     19.91801    0.046  56732.55458  11.74535  2.68945    99440.26498  47.56435  18.73895  56836.52063    51.63203       44.64376   57.48439  75.96152   67.5    0.06663  -22.30142  0.98619 
   -6.31523  0.00785  0.98673     13.89119  1.94395  1.04086  30.03275   0.2741     0.01427   9548.68807   6613.39441  0.03024         2035.99011     19.89129  0.04325  56733.76377  16.33464  0.23577   290076.74686  47.10662   18.8107  56836.52063    51.62264       44.61808   61.59042  78.01453   67.0    0.05731  -22.29574  0.99899 
   -7.97081  0.02643  1.39414     14.27569  2.08051  0.34263  12.63023  0.32319     0.01781    7074.5831   6367.58123  0.21759         4875.84383      19.5996   0.0221  56732.10819   3.77086  0.33376   105491.58541  47.27518  18.75316  56836.52063    51.65895       44.66375   57.48439  78.01453   68.0    0.06678  -22.21635  0.99739 
   -7.85648  0.05272  1.35724     13.82561  1.97325  1.00483  15.02117   0.2827     0.01176   6752.97045   6488.75511   0.3204         5840.67442     18.00728  0.00056  56732.22252   4.08621  0.79194   753498.16567  46.42163  18.77956  56836.52063     51.5712       44.56318   59.53741  80.06755   68.0    0.06379  -22.25696  0.99367 
   -6.22404  0.00817  0.94912     14.10545  1.68098  0.42225  29.83192  0.31723     0.01272  10046.87346   6488.47146  0.09662         3926.26822      17.2481   0.0001  56733.85496  17.96265   0.2436     86522.0631  47.60264  18.83534  56836.52063    51.55769       44.53366   55.43138  86.22659   67.5    0.06464  -22.29186  0.99879 
   -8.07972  0.00932  0.94711     13.83158  1.47564  0.52027  28.51241   0.2601     0.01034   9113.00498   7004.04205  0.21984         2837.26876     20.40984  0.14275  56731.99928  14.12486  0.26583   266959.02199  47.05858  18.73672  56836.52063    51.57898       44.59211   59.53741   73.9085   67.5    0.06223  -22.41497   0.9984 
   -6.80519  0.00396  0.95052     13.81534  1.72459  1.01286  27.33261   0.3061      0.0166   9621.43343   6011.03038  0.03272         3406.12877     19.02155  0.00584  56733.27381  15.09342  0.10819   338648.00568  47.01986  18.85206  56836.52063    51.56289       44.54505   55.43138  84.17357   69.0    0.05896  -22.28884  0.99948 
   -5.99564  0.03318  1.32918     14.11752  1.87427  0.42623  20.77303  0.33082     0.02025  10328.29682   6614.38836  0.04091         3484.10844     19.66893  0.02592  56734.08336  13.21857  0.68915   178969.02513  47.04173  18.71961  56836.52063    51.62854        44.6457   59.53741   73.9085   62.5    0.07113  -22.38451  0.99429 
   -8.14974  0.01182  1.27217     14.05743  1.57143  0.30796  19.18909  0.32873     0.01002   8058.49645   6252.66521  0.41899         5232.17156     19.10209  0.00703  56731.92926   7.43343  0.22681   181276.55233  46.99771  18.79127  56839.28193    51.67129       44.65926   57.48439  82.12056   69.0    0.06901  -22.32182  0.99774 
   -7.58906  0.00445  0.89189     13.92839  1.33721  0.45655  30.36341  0.23589     0.01539   9575.59395   6618.41585  0.10948         2008.11961     19.00127  0.00557  56732.48994  16.60769   0.1352    137359.6493  47.35656  18.69113  56839.28193    51.79123       44.81122   53.37836  75.96152   65.5    0.06043   -22.2754  0.99916 
   -7.76681  0.08055  1.30154     13.98153  1.66235  0.46259  22.16291  0.31808     0.01123   9006.62734   6433.25988  0.33639         4686.83469     19.54697  0.01957  56732.31219  10.72453  1.78512   284703.37296  46.80626  18.74947  56836.52063    51.59076       44.59515   59.53741  78.01453   68.5    0.07027  -22.29481  0.98317 
   -7.42262   0.0015  1.07115     13.77742  1.75957  1.01203  28.27425  0.31669     0.01061   9408.58496   6402.56084  0.30533         2240.51993     16.46995    2e-05  56732.65638  14.93024  0.04236   522494.60161  46.73647  18.72873  56836.52063    51.66894        44.6826   61.59042  75.96152   68.5     0.0639  -22.25618  0.99975 
    -6.5934  0.03279  0.91627     13.99713  1.89384  0.77456  41.29772  0.24042     0.01084  10109.90577   5962.91425  0.01115         4800.07096     16.34433    1e-05   56733.4856  25.17952  1.35396   149604.48542   47.4472  18.80033  56836.52063    51.57741       44.56266   57.48439  82.12056   68.0    0.05651  -22.24983  0.99483 
   -7.92165  0.00135  1.25622     13.53704  1.43418  1.18324    19.246  0.31115      0.0102   8030.06802   6131.04794  0.65198         4245.37501      18.3621  0.00128  56732.15735   7.40297  0.02591  1772006.13769  45.97885  18.89632  56833.75933    51.52095       44.48613   53.37836  90.33262   69.0    0.06757  -22.25172  0.99971 
   -7.16797  0.22256  1.28833     13.91972  1.90071  0.99653  24.02878  0.24786     0.01442   8895.61264   6137.51819  0.12298          3821.4049     16.31934    1e-05  56732.91103  11.34255  5.34777   423982.81492  46.70036  18.67698  56833.75933    51.53789       44.57109   63.64343  67.74946   66.5    0.06717   -22.1858  0.96084 
   -7.37218  0.00674  1.04067     13.62488  1.56877   1.2732   22.5334  0.33763     0.01687   9847.32689   6089.90698  0.01423         3578.56384     19.76764  0.03254  56732.70682  13.03439  0.15186   887655.86997  46.48153  18.62074  56839.28193    51.67553       44.71037   57.48439  69.80248   66.5    0.06597  -22.39093  0.99899 
   -6.61717  0.00112  1.07427     13.77259  1.75491  1.20495  31.50929  0.30464     0.01246   9783.32342   6185.39044  0.20076         5212.07362     17.16723    8e-05  56733.46183  17.99031  0.03514   535938.78778  46.72176  18.79436  56836.52063    51.59597       44.60246   59.53741  75.96152   69.0    0.06094  -22.26587  0.99979 
   -5.53471  0.00809   0.9919      14.1453  1.85528  0.49376  34.11825  0.26465     0.01697  10664.01869   6437.73764  0.36553         2134.29052     19.85574  0.03985  56734.54429  23.14492  0.27585    86808.44908  47.60576  18.70611  56839.28193    51.62172       44.61028   61.59042  80.06755   67.5    0.05979  -22.31062  0.99872 
   -7.09844  0.09566  1.19356      13.8518  1.61191  0.69772  22.74659  0.31691     0.01305   9328.96758   6769.53485  0.23677         4108.86158     18.00049  0.00056  56732.98056  11.80893  2.17599   421941.71396  46.69725  18.71766  56839.28193    51.60185       44.59117   61.59042  80.06755   65.5    0.06854  -22.25877  0.98202 
    -5.8687   0.0015  0.98659     13.93674  1.87728  0.95074  35.57172  0.19158     0.01523   9019.00848   6271.56139  0.10768         3575.31254     19.57067  0.02067   56734.2103  17.26035  0.05321   227059.60921  47.19796  18.66378  56836.52063     51.6187       44.63924   61.59042  71.85549   67.5    0.05655  -22.20984  0.99976 
   -7.16818  0.01325  1.28082     14.05786   1.7182  0.42152  22.34849  0.30255      0.0107   8621.86683   6459.68098  0.61359         3237.47412     19.26902  0.01032  56732.91082    9.9101  0.29618   200514.37879   46.9868   18.8224  56836.52063    51.56806       44.55565   55.43138  84.17357   67.5    0.06944  -22.22405   0.9974 
   -7.28702  0.12901  1.10043      14.0827   1.7442  0.45601   25.3428  0.32962     0.01275    9933.9163   6319.98833  0.09583         2587.20508     19.09806  0.00696  56732.79198  14.91842  3.26937   134012.69962  47.30017  18.72795  56839.28193     51.6195       44.62129   57.48439  78.01453   67.0    0.06843  -22.29243  0.97972 
   -6.80997  0.00185  1.17278     13.78911  1.96464  1.30966  27.20801  0.29872     0.01273   9439.75237   5945.37623   0.0331         5136.88158     17.47007  0.00016  56733.26903  14.46256  0.05042   662680.69249  46.60239  18.80664  56836.52063    51.57091       44.54212   55.43138  86.22659   67.0    0.06293  -22.31945   0.9997 
   -6.49894  0.08195  1.19967     13.67714  1.53585  1.31235  24.43756  0.26797     0.01003   7738.49946   6814.64179  0.73535         4753.32842     18.53885  0.00192  56733.58006   8.72968  2.00268   907859.02323  46.33905  18.72556  56839.28193    51.73544       44.74719   53.37836  78.01453   71.0    0.05805  -22.17856  0.98204 
   -7.79399  0.01132  1.09093     13.66051  1.46094  1.05033  27.51282  0.20763     0.01408   8678.45588   6003.31656  0.20088          2216.6376     18.08256  0.00067  56732.28501  12.36082  0.31143   770931.47263  46.47087  18.74392  56839.28193      51.624       44.62874   59.53741  75.96152   66.0    0.06355  -22.22725  0.99747 
   -7.20331  0.00802  1.08335     13.78385   1.6101  0.90258  27.97151  0.26974     0.01275   8988.45061   6051.28166  0.16991         5598.48313     16.35698    1e-05  56732.87569  13.48071  0.22446   474785.31551  46.72967   18.7916  56833.75933    51.57032       44.55431   55.43138  84.17357   69.0    0.06167  -22.25154  0.99845 
   -7.98854  0.01578  1.10894     13.66606  1.43668  0.84534  19.47398  0.31958     0.01243   8388.27647   6447.74953  0.26155         5101.21957     19.89747  0.04387  56732.09046   8.17386  0.30723   763614.65439  46.45351  18.70126  56839.28193    51.80527       44.84471   55.43138  71.85549   67.0    0.06884  -22.28832  0.99735 
    -6.4601  0.05473  0.80957     13.81999  1.51827  0.80335  16.31955  0.32488     0.01303   6651.85472   6679.16245  0.36711          5547.0406     18.60527  0.00224   56733.6189   4.30746  0.89313   211685.39887  47.30799  18.71116  56836.52063    51.60647        44.6148   59.53741  75.96152   70.5    0.05592   -22.1935  0.99627 
   -7.63655  0.02919  1.27965     13.57373  1.50119  1.15224  20.88824  0.30251     0.01036   8471.27222   6487.99226  0.59504         3740.13541     16.62682    2e-05  56732.44245   8.94183  0.60977  1625449.95541  46.02013  18.79532  56830.99802    51.52707       44.54102   61.59042   73.9085   68.0    0.06867  -22.25459  0.99344 
    -7.1497    0.137  1.27976     13.57096  1.48082  1.24025  16.13397  0.33142     0.01568   8395.33476   6425.78772  0.68802           3751.806     20.16269   0.0808   56732.9293   6.78335  2.21039   1624226.2433  46.01444  18.74199  56836.52063    51.72535       44.74566   57.48439   73.9085   68.5    0.06992  -22.31693  0.97615 
   -7.63895  0.00223  1.32084     13.95952  2.07696  0.80102  22.50693   0.3239     0.01454   8934.36305   5978.35284  0.26604          2590.1221     18.76949  0.00327  56732.44005  10.71693  0.05012   405427.16377  46.73666  18.74178  56836.52063    51.65623       44.66558   59.53741  75.96152   67.5     0.0621  -22.24499  0.99965 
   -6.09748  0.03762  0.75383     14.07355  1.62544  0.47277  37.29197  0.30864     0.01058  10137.39152   5855.64432  0.08739         2523.54698     18.85496  0.00398  56733.98152  22.86098  1.40282    61127.61166  47.93903   18.7666  56836.52063    51.59149        44.5817   57.48439  82.12056   71.5    0.06171  -22.24149  0.99545 
   -6.12607    0.015  0.89624     13.83893  1.76282  1.36869  42.79845  0.18478     0.01262   9167.10017   6406.65036  0.15062         3950.02984     17.37384  0.00013  56733.95293  21.45454    0.642   276062.03537   47.1692  18.66914  56839.28193    51.62665       44.64123   61.59042   73.9085   69.5    0.05021   -22.1644  0.99739 
   -5.18764  0.01047  0.78857     14.37108  1.78131  0.30304  51.31288   0.1984     0.01353  10624.66303   6044.36702   0.0465         3599.45568     17.87127  0.00041  56734.89136  34.55285  0.53726    18624.04405  48.45583  18.73073  56836.52063    51.61312       44.61845   55.43138  78.01453   70.0    0.05545  -22.24326  0.99835 
   -5.96818  0.01849  1.06762     13.86392  1.98207  1.53741  29.73306  0.28891     0.01715  10071.05454   6157.29628  0.04689            5110.54     16.04904    1e-05  56734.11082   17.9894  0.54975   392585.55886  46.91519  18.90389  56833.75933    51.68236       44.69056   45.16631  84.17357   68.5    0.05878  -22.27158  0.99732 
    -6.9181  0.08053  0.72669      13.7161  1.72545  0.97761  33.96328  0.32648     0.01088  11104.47929   6357.92691  0.00916         2725.70508     20.74752  0.31064   56733.1609  24.98234  2.73511   312762.20465  47.28784  18.72566  56842.04324    51.66699         44.662   51.32535  84.17357   69.0    0.06502   -22.6729  0.99242 
   -8.59937  0.10373  1.20466     13.66678  1.33918  0.80448   21.0464  0.23359     0.01679   8602.81809   5963.06841  0.35973         2415.04277     18.65261   0.0025  56731.47963   9.29151  2.18305    837202.4034  46.31113  18.80181  56833.75933    51.55936       44.55719   59.53741  78.01453   66.5    0.06721   -22.2036   0.9758 
   -7.00023  0.07413  0.98197     13.84671  1.87607  1.35965   25.3241  0.28352     0.01483   9000.77437   6414.31641  0.06172         2304.95897     17.42069  0.00015  56733.07877  12.23829   1.8773   340275.01413  47.02607  18.80425  56836.52063    51.55416       44.55457   59.53741  78.01453   66.5    0.06081  -22.20958  0.99165 
   -6.38397  0.00118  0.94225     13.71098  1.65776  1.27087  25.77035   0.3283     0.01404    9408.5133   6330.30168  0.05712         4397.21935     19.12828  0.00746  56733.69503  13.60785   0.0304   517253.50356  46.82633  18.76344  56833.75933    51.55126       44.56547   65.69645  71.85549   69.0    0.06202  -22.30364  0.99985 
   -7.06963  0.00537  1.05629     13.90236  1.86688  0.96874   34.5411  0.21844     0.01401   9258.97894   6211.51634  0.07321         4440.54155     17.27617   0.0001  56733.00937  17.66402  0.18533   303236.76337  47.01062  18.75337  56836.52063    51.54701       44.55891   61.59042   73.9085   68.0    0.05502  -22.22892  0.99903 
   -7.05268  0.00942  0.98818     13.72052  1.84879  1.34254   30.9596  0.33492     0.01016  10241.78755   6463.07699  0.02257         3578.77783     20.18346  0.08476  56733.02632  19.37198   0.2915   607220.43464  46.76271  18.76734  56836.52063    51.57634       44.58234   59.53741  75.96152   67.0    0.06646  -22.39956  0.99864 
   -6.22095  0.00886  0.79644     13.76503  1.63361  1.35138  46.68391  0.19496     0.01084   9402.89871   6223.01218  0.05845         3942.08268     18.22298  0.00093  56733.85805  24.62169  0.41364   283922.90424  47.22649  18.74386  56836.52063    51.59154       44.59585   59.53741  78.01453   71.5    0.05358  -22.21346  0.99851 
   -8.29496   0.1344  1.48586     13.65185  1.74551  1.27306  21.39909  0.28315     0.01041   8650.38614   6012.47284  0.56061         3009.67032     17.67047  0.00026  56731.78404   9.55198  2.87609  1778253.65107  45.91682  18.76705  56836.52063    51.58902       44.58251   57.48439  80.06755   67.5    0.07061  -22.23263  0.96753 
   -8.64487  0.01908   1.4671     14.02622  1.72727  0.40719  18.88609  0.31107     0.01223   8530.41914   6528.61158  0.28303         4760.83564     18.60113  0.00222  56731.43413   8.19804  0.36042   305956.29576  46.68763  18.87683  56833.75933    51.55069       44.53314   53.37836  84.17357   66.0    0.07393  -22.25594  0.99585 
   -7.73241  0.04581  1.35455     13.99091  2.02823  0.71401  24.00056  0.30289     0.01393   9100.80375   6245.07697  0.30954         2733.27556      18.8942  0.00435  56732.34659   11.8579   1.0995   360324.24142  46.75568  18.76779  56836.52063    51.58785       44.58875   57.48439  78.01453   69.0    0.06259  -22.23952  0.99164 
   -6.90718  0.00773  1.10258     13.96889  2.12221  0.91848  37.63087  0.25503     0.01178    9964.8931   5936.74829  0.06054         3941.10558     19.35752  0.01265  56733.17182  22.29034  0.29074   276464.18144  47.06918   18.7817  56839.28193    51.59004       44.57419   57.48439  82.12056   69.0    0.06048  -22.30454  0.99863 
   -7.03498  0.04184  0.87034     13.74042  1.60948  1.08635  33.66476  0.30754     0.01081  10230.87828   6187.38036  0.01783         2729.49764     16.72886    3e-05  56733.04402   21.0198   1.4086   374144.98008  47.02311  18.74018  56836.52063    51.56904       44.57978   61.59042  75.96152   67.5    0.06711  -22.29634  0.99377 
    -8.1529  0.04559   1.3617     13.77405  1.87499  1.09244   23.0617  0.29155     0.01293   9109.20729   6271.06758  0.17285          4545.8575      19.6642  0.02564   56731.9261   11.4151  1.05133   913869.70311  46.31279  18.71725  56836.52063    51.60022        44.5994   55.43138  80.06755   67.0    0.06806  -22.29888  0.99089 
   -5.87118  0.00247  0.87303     14.16088  1.52593  0.35448  27.25089  0.29603     0.01872   9721.38158   6404.97424    0.492         2016.16163     18.52928  0.00188  56734.20782  15.36257   0.0672     51480.3924  47.85868  18.84595  56836.52063    51.69801       44.67699   55.43138  84.17357   68.0    0.06033  -22.22923  0.99967 
   -5.88658  0.00118  0.89767     14.03926   1.9397  0.77526  40.28224  0.22825     0.01468   9993.05421   6305.50743  0.01297         5597.18904     16.58685    2e-05  56734.19242  23.99591   0.0475   121136.76705  47.56707  18.74978  56833.75933    51.57098       44.58718   59.53741   73.9085   69.5    0.05853  -22.22494  0.99983 
   -6.03201   0.0184   0.8233     13.77676  1.71307  1.00027  26.09222  0.25539     0.01162   8457.57725   6532.84777  0.17221         3369.72296     20.23939  0.09641  56734.04699  11.13346   0.4801   301430.49869  47.19232  18.78756  56836.52063    51.57219        44.5706   55.43138  80.06755   68.0    0.06197  -22.37669  0.99826 
   -5.20817    0.012  0.72678     13.83995  1.62055  1.01185  37.82665  0.24956     0.01184    9468.7608   6667.76173   0.1838         4716.66126      18.3983  0.00139  56734.87083  20.23072  0.45399   166102.49853  47.53533  18.75484  56839.28193    51.58691       44.57297   59.53741  82.12056   69.5    0.05356   -22.2287  0.99863 
     -7.864  0.15928  1.36721     13.99057  1.99909  0.56339  21.06099  0.32989     0.01014   9035.79204   6536.87076  0.27842         4761.20776     20.26801  0.10298    56732.215  10.25742   3.3545   362391.54126  46.73883  18.73151  56836.52063    51.69546       44.72507   57.48439  71.85549   67.0    0.07542  -22.39565   0.9738 
   -7.29711  0.00802  1.08097     13.89684  1.59477  0.71395  24.23993  0.29574     0.02232   9523.36398   5867.84847   0.0755         3437.64741     18.80319  0.00353  56732.78189  13.11413  0.19443   278258.45215  46.95947  18.82009  56836.52063    51.59315       44.56638   51.32535  90.33262   67.0    0.05918  -22.19798  0.99864 
   -8.08386  0.25339   1.4643      13.8735  1.76446  0.71443  20.51789  0.25249      0.0105   8099.11201   6276.67628  0.40477         4602.93489     16.59247    2e-05  56731.99514    8.0285  5.19908   629070.52312   46.3855  18.81507  56836.52063    51.57243       44.54997   57.48439  84.17357   69.0    0.06938  -22.26484  0.94541 
   -7.09127   0.0147  1.27083     14.07521  1.77176  0.37354  19.88465  0.30375     0.01225   8602.92188   6561.86977  0.42091         4607.97761     20.33141  0.11916  56732.98773   8.77884   0.2923   187923.01504   47.0351  18.76755  56836.52063     51.5776       44.55879   59.53741  82.12056   67.5    0.07112  -22.42808  0.99758 
   -7.72238  0.05185  0.77227     13.59913  1.72661  1.40527  22.64612  0.32673      0.0163   9877.19326   7222.44723  0.11583         4030.33632     20.92314  0.46545  56732.35662  13.17917  1.17422   605737.41359  46.94822  18.75766  56836.52063    51.56483        44.5735   61.59042  75.96152   66.0    0.06398   -22.7732   0.9963 
   -7.43732  0.02419  1.17752     13.72931  1.79224  1.56205  29.16637  0.28959     0.01013    9043.0083   6371.94909  0.22685          4522.8382     18.66361  0.00256  56732.64168  14.22773   0.7055   802658.40818  46.47577  18.67138  56836.52063     51.6106       44.64296   61.59042  69.80248   69.0    0.06518  -22.22744  0.99511 
   -6.57613  0.14715  0.85173      13.7157  1.71071    1.492  22.08202  0.33006     0.01081   8197.74639   6463.19635  0.29985         5327.68813       20.339  0.12126  56733.50287   8.85227  3.24932   426772.05619  47.01122  18.74527  56833.75933    51.54922       44.57147   61.59042   73.9085   71.0    0.06378  -22.37368  0.98754 
   -7.90647  0.01528  0.87871     13.87497  1.48865  0.49211  31.61721  0.30418      0.0111  10274.16835   6184.06226   0.0324         3776.67274     20.30356  0.11176  56732.17253  19.90875  0.48318   189829.73429  47.27558  18.80641  56839.28193    51.59624       44.56936   55.43138  86.22659   69.0     0.0687   -22.4602  0.99753 
   -7.95865  0.09642  1.04361     13.68005  1.57903  1.15641  24.38404  0.28783     0.01145   8803.94666     6145.228  0.10361         5736.84417     18.34415  0.00123  56732.12035  11.27425  2.35102   696934.53303  46.58697  18.68594  56833.75933    51.57259       44.59945   61.59042  71.85549   67.5    0.06607  -22.28924  0.98468 
   -6.58175  0.01707  0.99798     13.91732  1.68684  0.70282  30.20135  0.33056     0.01186  10032.23492   6387.91521   0.1351          4325.3949     18.83659  0.00381  56733.49725  18.13213  0.51548    228289.3566  47.13919  18.75672  56839.28193     51.5934       44.58068   59.53741  80.06755   68.5    0.06589  -22.23364  0.99719 
   -7.18723  0.00493  1.05381     13.64635  1.51328  0.93045  24.89244  0.30636     0.01142   9324.22105   6154.97525  0.46375         4390.37122      20.4547  0.15828  56732.89177  12.90981  0.12274   795354.80506  46.50268  18.74102  56836.52063    51.61887       44.62621   59.53741  75.96152   68.0    0.06901  -22.44859  0.99911 
   -6.83308  0.03178  0.81294     13.75516  1.88659  1.19798   26.1378  0.31526     0.01018   8827.94587   6516.06939  0.19498         5051.88474     20.60261   0.2225  56733.24592   12.1511  0.83064     357509.667  47.17112  18.70437  56839.28193    51.62542       44.62828   57.48439  78.01453   69.5    0.06282  -22.51192  0.99747 
   -6.19639  0.11102  0.77327     13.94476  1.59949  0.69587  38.02499   0.2551     0.01036    9781.6707   6076.76332  0.05058         4161.61187     18.25358    0.001  56733.88261  21.70313   4.2215   114534.04313  47.63724  18.71532  56842.04324    51.62571       44.61318   63.64343  80.06755   70.0    0.05792  -22.22949  0.98541 
   -6.55309  0.04379  1.09438     13.70383  1.59448  1.05835   23.5061  0.31855     0.01117   8766.79387   6737.66863  0.29724         5809.88627     18.81722  0.00365  56733.52591  10.77679  1.02938   693590.52908  46.55202  18.79018  56836.52063     51.6286       44.62136   47.25994  88.23899   68.5      0.064  -22.31068  0.99266 
   -7.04638  0.00275   1.0657     14.02849  1.63993  0.51269  29.63193  0.24726     0.01428   9298.75909   6203.44256  0.12318         5116.83846     18.09856   0.0007  56733.03262    15.284  0.08147   151681.78894  47.24747  18.77748  56836.52063    51.57719       44.57428   57.48439  80.06755   68.0    0.06202  -22.23296  0.99947 
   -7.36284  0.00641  0.98731      13.8407  1.62196  0.68298  29.75835  0.32643     0.01139  10184.13706   5994.05332  0.01325         2482.54502     18.34617  0.00123  56732.71616   18.4113   0.1908   305746.62101  47.00462   18.7379  56836.52063    51.56992       44.58446   59.53741  75.96152   67.5    0.06888  -22.33829  0.99892 
   -6.19008  0.01013   1.0893     13.82785  1.73003  0.78976  28.42926  0.26645     0.01104     9350.754   6035.98622  0.61825         2166.29013     19.33852  0.01211  56733.88892  14.82812  0.28806   421174.15232  46.80814  18.70699  56833.75933    51.60641       44.63175   61.59042  71.85549   68.0    0.06594  -22.33537  0.99819 
   -7.04932  0.00202  1.04084     13.96291  1.66809  0.54693  25.25444  0.33854     0.01484   9762.64539   6088.13778  0.07116             3515.8      17.2652   0.0001  56733.02968   14.3582  0.05104   199057.19176  47.15732   18.8342  56833.75933     51.5362       44.53461   59.53741  78.01453   68.0    0.06571  -22.31124  0.99969 
   -6.08969  0.11256  0.90301     13.95144  1.64736  0.58483  31.14429   0.3384     0.01098  10463.70417   6221.66387  0.12833         3762.99512     17.06707    6e-05  56733.98931   20.3412  3.50557    155993.1362  47.38115  18.72116  56836.52063    51.60535       44.59392   57.48439  82.12056   68.5    0.06881  -22.34264  0.98403 
   -6.41863  0.01368  0.98883     13.91788  1.56204  0.60081  31.90737  0.27168     0.01183   9742.46231   6312.87833  0.14744         4303.57882     16.26639    1e-05  56733.66037  18.06574   0.4365   207005.64115  47.15631  18.70217  56836.52063    51.74231       44.77395   59.53741  71.85549   67.5    0.06812  -22.26149  0.99738 
   -7.18607  0.00514  0.89538     13.81018  1.81055  0.79264   37.2258   0.2547     0.01065  10994.01025   6724.48304  0.06188         3488.17746     20.69885   0.2777  56732.89293  26.84006  0.19128   323063.76634  47.11335  18.73126  56836.52063     51.6086       44.60042   55.43138  82.12056   66.5    0.06636   -22.6418  0.99924 
    -5.3342   0.0576  0.86154     14.12709   2.1257  0.77693  37.48296  0.32346     0.01396  11081.24311    6483.5654  0.05137          5985.9381     18.37514  0.00132   56734.7448  27.45604  2.15917    81598.78248  47.81411  18.76192  56839.28193    51.61843        44.6091   49.27234  86.22659   70.5    0.06056  -22.21578    0.994 
   -6.66164  0.00563  1.29637     13.81672  2.00445  1.40927  26.42754  0.28606     0.01065   8737.87032   6223.15989  0.21343         5005.23391     17.69647  0.00028  56733.41736  12.03636   0.1489   727495.99634  46.48355  18.75532  56836.52063    51.55662        44.5721   59.53741   73.9085   69.0    0.06387  -22.21446  0.99894 
   -6.99382  0.01261  0.96367     13.64766  1.56347  1.38812  32.03033    0.303     0.01062   9824.03993   6213.22055  0.04562         5599.86711     16.54812    2e-05  56733.08518  18.44034  0.40391   683032.65419  46.66064  18.76955  56836.52063    51.57717       44.56646   59.53741  80.06755   68.5    0.06399  -22.27911   0.9977 
