 texplosion  fnickel    Pspin  log(Bfield)      Mns  thetaPB  mejecta    kappa  kappagamma     vejecta  temperature    alpha  cutoff_wavelength  log(nhhost)      A_V         MJD0  kenergy  mnickel             TSD   log(L0)  Peak_mag     Peak_MJD  log(E_rad)  log(Peak_lum)  Rise_Time    E_fold  tau_1  delta_m15     r_peak     frac 
   -7.88283  0.01084  5.41857     14.10249  1.93678  0.95477   4.1299  0.17488     0.01228  7029.71007   5970.39629  0.22683         2893.54077     19.05767  0.00634  58774.63279  1.21742  0.04476   3293702.47336  44.57047  19.27163  58832.93642    50.74262       44.01732   36.80121  38.84572   42.0    0.22979  -20.69936  0.99394 
   -8.62402  0.00301   5.0009     14.01252  1.90162  1.04108  3.34758    0.224     0.01046  6654.12995   5855.46563  0.05617         3442.66201     19.25742  0.01005  58773.89161  0.88418  0.01008   4168693.69637  44.52987   19.2867  58832.93642    50.74296        44.0035   38.84572  39.53838   42.0    0.22354  -20.66865  0.99879 
   -8.10336  0.02845  5.12473     14.07426  1.71824  0.94975  4.48219  0.25763     0.01679  7974.83881    5673.7512  0.11223         2606.87025     18.28634  0.00107  58774.41227  1.70044  0.12754   2976545.40488  44.61088  19.28974  58835.43195    50.73107       43.99001   38.84572  39.72693   41.0    0.22048  -20.71092  0.98185 
   -8.25232  0.00346  4.54283     14.17765  1.73936  0.81229  4.17482  0.26963     0.01159  6887.83764   6375.15825  0.06098          3437.5244     19.56975  0.02063   58774.2633  1.18149  0.01445   1470829.19461  45.02702   19.2527  58835.43195    50.70973       43.95463   40.89023  40.95751   39.5    0.22244  -20.68754  0.99841 
    -7.8933  0.17825  4.81942     13.96695  1.87608  1.46835  3.23715  0.29855     0.01071  7035.06518   5906.88374  0.01434         4418.91946     19.74443  0.03084  58774.62233  0.95571  0.57703   4711568.63695  44.50294  19.25905  58835.43195    50.71388       43.97443   38.84572  40.42806   41.0    0.21955  -20.72212  0.93889 
   -7.56088  0.08707  5.26366     14.18601  1.95182  0.88088   4.7167  0.22741     0.01051  7515.44727    6226.2444  0.14814         2033.79036     17.52887  0.00019  58774.95474  1.58919  0.41069   2132063.74448  44.78791  19.29307  58832.93642    50.70595       43.96008   38.84572  41.23772   39.5    0.22937  -20.72365  0.95092 
   -8.82373  0.01529  4.95727     14.01714  1.85685  1.02526  2.44741  0.33487     0.01605  6861.61938     6418.604  0.00487         3720.24198     17.83976  0.00038  58773.69189  0.68736  0.03742   3915673.21669  44.55433  19.28861  58835.43195    50.71745       43.98701   38.84572  39.53838   41.5    0.23112  -20.68152  0.99546 
   -7.94691  0.02346  4.58469     14.07403  1.52809  0.81175  4.82824  0.24093     0.01377  7553.89052   5575.70807  0.04828         2650.35133     16.40442    1e-05  58774.56872  1.64345  0.11325   2120890.53462  44.80386  19.23598  58832.93642    50.70514       43.97601   38.84572  39.72693   40.5    0.21854  -20.67871  0.98465 
   -9.70372  0.00127  5.52029     14.48024  2.18642  0.25143  3.31109  0.27724     0.01452  7675.74841   5151.00235  1.62337         2279.38545     16.18693    1e-05  58772.81191   1.1637  0.00421    677622.81926  45.29367  19.28877  58835.43195    50.68424       43.92409   40.93449   42.8905   44.5    0.20325  -20.70123  0.99948 
   -7.69012  0.00447  4.76332     13.90618  1.60785   1.3144  3.59409  0.25142     0.01505  7522.27033   5572.23078  0.16583         3427.56814     16.83034    4e-05  58774.82551  1.21315  0.01606   5218255.76588  44.40175  19.30915  58835.43195    50.69816       43.93266   40.89023  41.65102   40.5    0.23728  -20.70709  0.99777 
   -7.09951  0.01096   4.6845     13.89351  1.84383  1.02177  3.45944  0.28525     0.01108  7586.70711   5692.90195  1.35328         2390.56505     19.98898  0.05416  58775.41612  1.18779   0.0379   6135300.05759   44.4054  19.28016  58835.43195    50.70003       43.93715   40.89023  42.47029   43.0    0.21214  -20.75553  0.99575 
   -8.21465  0.03783    4.459     13.94627  1.44788  1.00031  4.70628  0.29863      0.0175  8574.41616    5344.4168  0.08941         4415.78604     18.95345  0.00499  58774.30097  2.06402  0.17802   3423674.70651  44.59661  19.27901  58832.93642    50.71551        43.9705   38.84572  40.42806   39.5     0.2178  -20.75762  0.97537 
    -9.1637  0.00366  4.66024      13.9109  1.68492  1.04557  3.64462  0.28794     0.01055  7077.12603   5571.88837  0.43743         3970.83449     19.40079  0.01398  58773.35193  1.08891  0.01335   5121761.16554  44.44919  19.27128  58832.93642     50.6491       43.86482   43.31874  45.71266   42.0     0.2246  -20.70155  0.99833 
    -8.0011  0.00135  3.71801     13.69218  1.47677  0.95674  2.45409  0.28204     0.01391  7501.36156   6027.32399  0.00884          3406.9438     20.14867  0.07823  58774.51453  0.82375  0.00332   7823443.80289  44.40414  19.30752  58835.43195    50.67976       43.88966     44.946  45.77987   44.0    0.23139  -20.78476  0.99967 
   -8.71647  0.00209  4.74116     14.13847  1.67741  0.68286  3.53109  0.29721     0.01474   7319.1846   5804.85355  0.12711         5189.30394     17.86919  0.00041  58773.79916   1.1284  0.00738   1850481.45913  44.87443  19.27056  58832.93642    50.67311       43.91953   40.93449   42.8905   40.5    0.22535  -20.73412  0.99905 
    -7.0988  0.00772  5.13225     13.98123  1.83614  1.29077  4.09082  0.21238     0.01425  7564.10225   5923.22482  0.27724         3104.68336     20.03684  0.06047  58775.41683  1.39622  0.03156   4896331.61908  44.42227  19.28026  58832.93642    50.74692       44.02925   36.80121  38.84572   41.0    0.22535  -20.76954  0.99583 
   -8.05369  0.06178  5.40417     14.13535  1.95874  0.85102  3.71634  0.30665     0.01491  8000.12753   5711.41579  0.00187         4039.49545     18.17973  0.00084  58774.46193  1.41885   0.2296   2848006.30839  44.64082  19.25093  58832.93642    50.72193       43.97217   38.84572  41.37728   40.5    0.22489  -20.72855  0.97029 
   -9.21917  0.06237  4.58722     13.89472  1.50665   0.9413  2.41723  0.32519      0.0211  7230.13251    5597.2549  0.17428         3104.05096     17.07327    7e-05  58773.29645  0.75377  0.15076    4780681.5486  44.44427   19.2803  58832.93642    50.86471       44.14428   36.80121  38.84572   42.5    0.21864   -20.6733  0.97874 
   -7.63267  0.03831  4.69638     14.22348  1.62625  0.41708  3.92746  0.22088     0.01275  7704.91411   5930.72667  0.19298         3513.23313     17.57591  0.00021  58774.88295  1.39083  0.15045   1190058.36059  45.06094  19.25917  58835.43195    50.69419       43.94617   38.84572  40.82535   41.5    0.22846    -20.742  0.98011 
   -7.83043  0.00252  4.88743     14.17953  1.70335  0.62325  4.29659  0.26998     0.01263  7621.53417   5816.94087   1.6803         2305.09727     16.48944    2e-05   58774.6852   1.4888  0.01084   1652780.39251  44.90377  19.23127  58832.93642    50.70291       43.96183   38.84572  41.37728   41.0    0.22047  -20.70556  0.99855 
  -10.05707  0.29679   4.1007     13.76101  1.25997  1.14661   4.9248  0.27894     0.01008  7809.86925   5667.75057  0.27617         2464.93394      16.4455    2e-05  58772.45856  1.79186  1.46165   5913852.30675  44.37162  19.20589  58832.93642    50.72511       43.95431   38.84572   44.5148   43.0    0.21141   -20.6645   0.8205 
   -9.44392  0.00162  3.67726     13.53534  1.51186   1.0825  3.97089  0.28056     0.01104  8475.56043   5140.57543  0.70518         3688.71553     16.15448    1e-05   58773.0717  1.70158  0.00642  16132111.87582  44.10962  19.27505  58835.43195    50.71574        43.9796   38.84572  40.42806   45.0    0.21124  -20.74858  0.99935 
   -8.15283  0.18414    4.273     14.01508  1.37584  0.59582  4.34718  0.30483     0.01116  7851.92359   5775.50363  1.23638         3149.38784     16.95395    5e-05  58774.36279  1.59877  0.80051   2176165.34241  44.80826  19.27825  58835.43195    50.75661       44.02942   38.84572  38.84572   42.5     0.2108  -20.72699   0.8976 
   -6.98117  0.03687  4.94128     14.06734   1.7256  1.17566  4.76932  0.17914     0.01131   6732.5058   6171.11276  0.12206         5809.55156     17.33117  0.00012  58775.53445  1.28955  0.17587   2869178.34413  44.66035   19.2252  58832.93642    50.71425       43.98169   38.84572  40.42806   40.5    0.21932  -20.69375  0.97719 
   -7.85036  0.01224  4.51844       14.042  1.80947  1.29136  4.09617  0.32489     0.01029   7333.9734   6256.85557  0.00736         3818.81991     17.02408    6e-05  58774.66527  1.31427  0.05015   2827081.56887  44.76508  19.27681  58835.43195    50.70145       43.95537   40.89023  40.01568   39.5    0.22437  -20.71635  0.99485 
    -7.6845  0.00973  5.19392     13.92594  2.00391  1.46249  4.46143  0.32694     0.01377  9205.49966   5299.33942  0.30695         2336.04583     19.08439  0.00675  58774.83112  2.25526   0.0434   7059813.01311  44.29094  19.26616  58832.93642    50.71641       43.98994   36.80121  39.72693   40.0    0.22765  -20.79531  0.99477 
   -6.86704  0.11273  5.52595      14.1206  1.90345  0.94512  3.50341  0.19965     0.01568  7292.60767   6145.35337  0.03685         4922.59237     17.96432  0.00051  58775.64859  1.11143  0.39493   3097256.52023   44.5726  19.24651  58835.43195    50.70167       43.96988   38.84572  39.19321   41.0    0.23106  -20.71163   0.9458 
    -7.7749   0.0017  4.16034     13.80417  1.55303  1.37547  3.09614  0.25604     0.01073  6976.29668   6292.79504  0.09134         2550.81097     18.67798  0.00265  58774.74072  0.89887  0.00526   6150693.84379  44.43284  19.27014  58835.43195    50.68965       43.90933   44.50878  43.40522   41.0    0.23657  -20.70917  0.99941 
   -7.76965  0.00605  5.64321     14.03734   2.0042  1.28134  3.61609  0.32039      0.0138  7435.69752   5987.83878  1.57004         3247.64314     19.65099  0.02487  58774.74597  1.19264  0.02189   4990337.67081   44.3696  19.29378  58835.43195    50.72271       43.97412   38.84572  41.23772   42.0    0.22274  -20.72899  0.99692 
   -7.34021  0.03651  5.26068     14.08875  1.63283  0.64042  3.57627   0.2351      0.0236   8213.5219      5464.88  0.99649         2940.03116     16.98072    5e-05  58775.17541  1.43919  0.13056   2788261.20346  44.59437  19.27239  58835.43195    50.72489       43.96488   40.89023  41.61902   43.0    0.21887  -20.72511  0.97842 
   -7.71232  0.00246  4.33507     13.93954  1.36455  0.78226   6.6727  0.16419     0.01094  8199.83523   5807.43782  0.35203         2691.49014     17.98998  0.00054   58774.8033  2.67633   0.0164   3145645.37673  44.63213  19.26978  58832.93642    50.73927        43.9604     42.979  44.93501   41.0    0.22279  -20.72436  0.99758 
   -7.86249  0.05318  5.05747     13.96977  1.78159  1.27214  4.51436  0.21341     0.01021  7255.54865   5713.86815  0.68994         2260.65703     17.71971  0.00029  58774.65314  1.41763  0.24006   4863565.95873  44.42483  19.23171  58832.93642    50.71955       43.98095   38.84572  40.89023   41.5    0.21602  -20.68136  0.96867 
   -9.27761   0.0731  4.28525     13.99541  1.33071  0.63083  6.54986  0.20428      0.0103  8229.74721   5419.54302  1.20619         2671.80505      18.5229  0.00185  58773.23802  2.64626   0.4788   2317582.56299  44.76394   19.3071  58835.43195    50.66206       43.90435   40.93449   42.8905   42.0    0.21271  -20.71697  0.93286 
   -6.88279  0.05948  5.33798     14.13642  1.94392  1.01741  3.83159  0.32924      0.0163  8173.98937   5968.45922  0.15322         2563.54037     16.23593    1e-05  58775.63284  1.52712  0.22789   2744178.35381  44.66436  19.29227  58835.43195    50.68708       43.92672   40.89023  42.47029   39.0    0.23683  -20.75312  0.97117 
   -8.88672  0.00135  4.96043     13.81686    1.732  1.31525  6.30954  0.16322     0.01472  9164.57684   5236.39373  0.51256         2400.40043     20.12872  0.07472  58773.62891  3.16118  0.00854   9197579.56013  44.15268   19.2891  58835.43195    50.67342       43.89268   42.50907  44.15733   42.5    0.22045  -20.82884  0.99881 
   -8.35849   0.1819  4.38105     13.75291   1.4418  1.25707   3.8465    0.205     0.01305  7694.75472   5626.36603  0.06378         2827.27707     19.19522  0.00871  58774.15713  1.35857  0.69966   8018021.46785  44.24053  19.29188  58835.43195    50.74198       43.98719   38.84572  41.37728   42.5    0.23296  -20.73087  0.90979 
   -9.08899  0.00187  4.77541     14.00431  1.78555  1.25879  6.24279  0.32359     0.01113  8801.03984     5593.918  0.06436         4950.17805     17.73249   0.0003  58773.42664  2.88452  0.01168   3706713.39887  44.59361  19.27487  58832.93642    50.70496       43.96027   38.84572  41.37728   41.0    0.21705  -20.74317  0.99862 
   -8.00067  0.00911  4.37739     14.19691   1.5445  0.38347  3.55064  0.24418     0.01097  7135.78206   6082.82149  0.28457         3414.45802     16.49491    2e-05  58774.51495  1.07849  0.03234   1109735.64536  45.12998  19.27133  58835.43195    50.72084       43.97728   38.84572  40.89023   42.5     0.2244  -20.68836  0.99591 
   -7.85364  0.00255  5.13306     14.16383  1.91289  0.91121  4.01569  0.26139      0.0128  7289.93592   5951.50351  0.09563         2005.02657     17.81031  0.00036  58774.66198  1.27302  0.01022   2200849.93208  44.78719  19.24444  58832.93642     50.6912       43.94934   40.89023  40.01568   39.5      0.227  -20.70063  0.99874 
   -9.15977  0.01498  4.47854     13.79747  1.71544  1.05365  4.37039  0.30504      0.0125  8894.28846    5488.6773   0.7011         2338.96457     16.41534    1e-05  58773.35586  2.06239  0.06546   8119289.23028  44.29143  19.28217  58832.93642      50.702       43.95336   40.89023  42.06019   42.5    0.22529  -20.76505  0.99244 
   -7.97931  0.07381  5.52213     14.02252  1.79121  1.21461   4.1356  0.25801     0.01665  7599.66618   5858.89652  1.11327         3104.25466       17.454  0.00016  58774.53632   1.4248  0.30524   4572295.42796  44.37764  19.30089  58832.93642    50.68824       43.93095   40.93449  42.42604   42.5    0.20708  -20.70868  0.95367 
  -10.02531  0.03114  4.73641     13.90324  1.67648  1.37313  4.30847  0.24901     0.01105  7257.18183   5658.74264  0.03562         3994.48277     18.12266  0.00074  58772.49031  1.35359  0.13416   5453058.14619  44.40571  19.26581  58832.93642    50.68581       43.91268   40.93449  44.01337   41.5    0.21837  -20.67751  0.98291 
    -7.7214  0.02634  5.48476     14.15323  1.77573  0.91335  4.42303  0.26447     0.02321   8195.5648   5131.88499  0.23984         3540.97712     17.66599  0.00026  58774.79423  1.77217  0.11649   2449350.17275  44.65086  19.27648  58832.93642    50.66815       43.90681   42.46427  42.48359   40.5    0.20576  -20.71179  0.98199 
  -10.63734   0.1284  3.77472     13.85165    1.349  0.66954  3.38344  0.32291     0.01135  7400.07026    5261.9378  0.00036         5919.48145     18.88439  0.00426  58771.87828  1.10524  0.43443   3534233.16342  44.69679  19.25504  58832.93642    50.69355       43.93756   40.89023  41.65102   42.5    0.21483  -20.69858  0.95192 
    -7.8857  0.13858  4.95785     13.92614  1.67846  1.49613   5.6873  0.27209     0.01172  8824.97025   5224.03676  1.80013         2062.28089     17.92348  0.00047  58774.62992  2.64216  0.78814   5383133.70721  44.37213  19.26103  58832.93642    50.73527       44.01387   38.84572  38.07179   40.0    0.21686   -20.7523  0.89968 
   -8.46096  0.04171  4.86152     13.96275  1.75199  0.79999  3.59742   0.2462     0.01324  7662.93094   5426.30265  0.05792         4441.17936      16.8403    4e-05  58774.05466  1.26011  0.15005   4564369.12186  44.47945  19.27289  58832.93642    50.72563       43.98951   38.84572  39.72693   42.5    0.21954  -20.71325  0.98071 
   -7.96936  0.02033  4.50637     14.08887   1.6231  0.65929  4.13704  0.26697     0.01168  7688.14344   5779.09356  0.15123           2769.333     18.20392  0.00089  58774.54627  1.45868  0.08412   2032707.61777  44.86346  19.30253  58835.43195    50.71573       43.97173   38.84572  40.89023   40.5    0.22211  -20.74022  0.98977 
  -10.29469   0.0031  4.77364      13.9162  1.78488  1.37851  5.20233  0.30976     0.01153  8421.73033   5637.33458  0.22937         2547.96741     18.67229  0.00261  58772.22094  2.20104  0.01615   5555546.87601  44.41803  19.29559  58832.93642    50.71111       43.96879   38.84572  40.89023   42.0    0.21986  -20.74682  0.99807 
   -6.84588  0.01493  4.31817     14.12084  1.44046  0.54577  4.69011  0.33795     0.01368  8473.41986   5512.25935   1.0914         3192.94606     16.65947    3e-05  58775.66974  2.00876  0.07003   1429662.25972  45.00151    19.273  58835.43195    50.73197        43.9991   38.84572  38.84572   40.5    0.22002  -20.75127  0.99067 
   -7.69658  0.01011  4.17742     13.90186  1.41369  1.13323  4.99208  0.21288     0.01129  7514.62027    6205.3656  0.21649         2375.24835     17.57105  0.00021  58774.81905   1.6816  0.05048   3599762.39457  44.62111  19.29256  58835.43195    50.67784       43.90888   40.93449  44.01337   39.5    0.22888  -20.71705  0.99355 
   -8.78826  0.05043  4.16534     13.82248  1.33661  1.04396  5.16756  0.27611     0.01226  8244.79515   5570.19461  0.72771         3204.50741     17.83734  0.00038  58773.72737  2.09543  0.26059   4877005.74745   44.4674  19.25523  58832.93642    50.74146       44.01446   36.80121   40.1163   41.5    0.21935  -20.72904  0.96456 
   -9.35761  0.08785  5.19695     13.94442  1.76468  1.29208    3.691  0.31813     0.01793  8202.74506   5019.08685  0.09603         2573.75548     17.76689  0.00032  58773.15801  1.48146  0.32424   5716607.80663  44.32688  19.25653  58835.43195    50.69449       43.94542   40.89023  40.95751   40.5    0.22405  -20.71967  0.95503 
   -7.56752  0.01122  5.05172     14.20663  1.93347  0.74303  3.18744  0.25495     0.01266  6703.52232   5871.81628  0.29138         2384.49678     16.44502    2e-05   58774.9481  0.85443  0.03575   1769159.71541  44.90054  19.28736  58835.43195    50.70084       43.94843   40.89023  40.95751   41.0    0.22413  -20.69642  0.99581 
   -9.00756  0.00103  5.01478     14.06503  1.86054   1.3042  3.81923  0.31112     0.01236  6969.86513   6121.31076  0.02121         4146.93954     18.26831  0.00103  58773.50807  1.10675  0.00394   3220356.13041  44.63008  19.27907  58832.93642    50.69634       43.93051   40.89023  42.47029   40.5    0.21836  -20.63678  0.99952 
   -8.65843  0.09222  4.61147     13.91109   1.7212  0.79225   2.7752  0.30693     0.01399  7453.42402   4996.27417  0.29392         2317.81844     17.31612  0.00012  58773.85719  0.91967  0.25594    5118642.7977  44.46784  19.28512  58835.43195    50.69647       43.95899   38.84572  41.23772   43.0    0.21729  -20.69008  0.96968 
   -9.07457  0.00204  4.82516     13.85471  1.88205  1.15123  3.57799  0.26453     0.01081  7619.00578   5723.21398  1.39717         2088.27572     18.27583  0.00105  58773.44105  1.23897  0.00732   7944035.13229  44.27641   19.3134  58832.93642    50.79167       44.07676   36.80121  38.40822   43.0    0.22645  -20.70279  0.99915 
   -8.77617  0.03817  4.42603     13.96901  1.46915   0.8146  2.73024  0.32127     0.01914  7179.53796   5800.10027  0.20474         2550.55857     17.39993  0.00014  58773.73945   0.8395  0.10422    3082328.5533    44.655  19.28628  58835.43195    50.69264       43.94192   38.84572  42.06019   41.5    0.22225  -20.68225  0.98585 
    -8.2314  0.13904  4.84501     13.91195  1.77585  1.24683  2.69733  0.32786     0.01279  6974.92435   5842.33525  0.09822           5262.911     17.17998    8e-05  58774.28423  0.78278  0.37505   5806354.32461  44.38376  19.24202  58835.43195      50.731       43.98555   38.84572  40.89023   41.5    0.22106  -20.68498  0.95511 
   -8.64234  0.10028  5.35929      14.0159  1.83962  1.10933  3.42452    0.308     0.01988  8205.63974   5481.26091   0.2405         2397.53313     18.63911  0.00242  58773.87329  1.37547   0.3434   4560020.81057  44.41639  19.27259  58835.43195     50.7079       43.98056   38.84572  39.72693   41.0    0.22268  -20.75455  0.95267 
   -9.08536  0.02809  4.71379     13.98129  1.71002  0.72635  4.82741  0.25658     0.01024  7977.72253   5446.98828  0.35119         3930.94333     16.08721    1e-05  58773.43026  1.83273  0.13558   3845700.03772  44.57013  19.28266  58835.43195    50.69057       43.94317   40.89023  40.95751   42.5    0.21437  -20.72923  0.98299 
   -7.61178  0.02175   4.2309     13.83361  1.60154   0.7329  2.44202  0.29755     0.01522  7683.25237   5661.29007  0.34378         3208.79856       16.465    2e-05  58774.90384  0.85994   0.0531    5727828.0662  44.46253  19.32171  58835.43195    50.72771       43.97784   38.84572  40.89023   43.5    0.23346  -20.72395  0.99385 
   -9.24896  0.02541  4.60354     13.97266  1.68271  1.04112  4.60732  0.26947     0.01236  8015.00483   5572.94143  0.06877         2656.68257     19.78944  0.03421  58773.26666  1.76556  0.11706    3755742.0317  44.59398   19.2391  58832.93642    50.70829       43.96836   38.84572  41.23772   40.5    0.21894  -20.77806  0.98601 
   -7.93144  0.00119   4.5446     13.94289  1.87934  1.40647   3.2148  0.21025     0.01415  6998.51681   6269.31296  0.16461         3350.61881     20.61085  0.22677  58774.58418  0.93928  0.00384   4688533.77034  44.55682  19.27715  58832.93642    50.76548        44.0469   35.96452  39.24491   42.5    0.22815  -20.89143  0.99962 
   -9.73504  0.02167  4.39246     14.08845   1.7329  0.47812  3.07829  0.33245     0.01097  7494.34039   5875.71667  0.20196         3519.03585      18.5524  0.00198  58772.78059  1.03135   0.0667   2065895.03144   44.9071  19.26154  58835.43195    50.69056       43.94256   40.89023  40.95751   43.0       0.22  -20.70012  0.99275 
   -8.32378   0.0011  4.61067     14.07423  1.89973  0.60408  2.91932  0.32396     0.01192  7635.40532   6005.81557  0.08956         2201.81146     19.72272  0.02934  58774.19185  1.01525   0.0032   2664287.28416  44.79443  19.27533  58832.93642    50.69482       43.93296   42.93475  41.65102   42.0    0.23316  -20.75475  0.99967 
   -6.95329  0.00119    4.289     14.07748   1.6732  0.78756  5.17782  0.22475     0.01055  7621.81467   6166.03428  1.09621         2489.06498      20.4539  0.15799  58775.56234  1.79428  0.00616   2000399.39391  44.92656  19.27356  58835.43195     50.7245       43.98494   38.84572  40.42806   41.0    0.22103  -20.87292  0.99935 
   -8.59802  0.16344  4.82346      13.9174  1.59992  1.06902  4.80588  0.22962     0.01112  7961.16581    5555.6741  0.12727         4722.94753     18.16919  0.00082   58773.9176  1.81699  0.78545   5056360.80659  44.40239  19.27144  58832.93642    50.68375       43.92733   40.89023  42.43189   41.0    0.22661  -20.73995  0.89775 
   -7.49145  0.00696  4.28735     14.11747  1.51463  0.65787  4.50989  0.25982     0.01102  7253.30104   5672.34623  0.23433         2393.23097     17.11271    7e-05  58775.02418  1.41535  0.03139    1505100.1362  45.00721  19.30726  58835.43195    50.70885        43.9575   38.84572  41.37728   40.0    0.21981  -20.68572  0.99619 
   -9.22481  0.01374  5.51644      14.2071  2.12663  0.59186  4.88491  0.26746     0.01202  8270.78921   4991.71783  0.47651         3589.12239     19.94808  0.04929  58773.29081  1.99332  0.06712    2315429.1988  44.74859  19.29309  58835.43195    50.72286       43.98853   38.84572  39.72693   42.0     0.2187  -20.78663  0.99164 
   -7.95793  0.03067  4.47762     13.78551  1.58688  1.30304  4.81081  0.18107     0.01003  7788.69197   5866.27593  0.05433         2526.92341     17.70565  0.00028   58774.5577   1.7409  0.14757   7932837.11804  44.26786  19.27204  58835.43195    50.70057       43.94219   40.89023  41.65102   42.0    0.22858  -20.73771  0.98142 
   -6.06786  0.00663  4.93255     14.20779  1.77095  0.66133   3.5685  0.18695     0.01195  6661.99473   5722.34755  0.36747         2969.84414     16.75489    3e-05  58776.44776  0.94476  0.02366   1536701.20417  44.94432  19.25638  58832.93642     50.7024       43.95522   38.84572  42.06019   41.0    0.22922  -20.69372  0.99698 
   -7.63356  0.00374  5.21622     13.99038  1.80705  1.47674  2.77806  0.33599     0.01953  7201.43107   5931.52752  0.58555         3055.70269     16.54812    2e-05  58774.88207  0.85942   0.0104   4772485.80114  44.41236  19.25463  58832.93642    50.70591       43.96691   38.84572  41.23772   41.5    0.21507  -20.70143  0.99855 
   -6.92086  0.01806  5.13325     14.05758  1.90146  1.37679  3.99412  0.30245     0.01315   7662.7749   6282.89655  0.28685         3553.28526       19.301  0.01111  58775.59477  1.39901  0.07212   3568848.26625  44.57462  19.23559  58832.93642    50.73184       43.99281   38.84572  39.72693   39.5    0.22823  -20.74386  0.99111 
   -7.39017  0.06086   5.5541     14.08367  2.04463  0.86277  2.93829  0.33299     0.01687  7885.17365   5804.30752  1.54949         2379.00618     18.02347  0.00059  58775.12546  1.08979  0.17881    3983895.4268  44.48992  19.26001  58832.93642    50.74116       44.01442   36.80121   40.1163   41.5    0.22661  -20.73993  0.97655 
   -9.43825  0.00778  4.88526     14.04606  1.78867  0.89999  3.09814  0.33137     0.01496    7184.601   5798.00223  0.17388         2993.82776     19.30423  0.01119  58773.07738  0.95397   0.0241    3206205.1255  44.63761  19.29369  58832.93642    50.72039       43.97799   38.84572  40.42806   41.5    0.22111  -20.70059    0.997 
   -8.33933  0.00482  4.25309     13.93264  1.47327  0.98737  3.35084  0.26296     0.01426  7024.97712   5908.66587  0.06854         4093.72269     17.30071  0.00011   58774.1763  0.98644  0.01616    3374679.5647  44.65149  19.25392  58832.93642    50.69407       43.95015   40.89023  40.01568   40.5    0.22655  -20.70842  0.99797 
   -7.12286  0.10935  5.40895     14.26332  1.97917  0.77385  4.95345  0.25724     0.01085  7752.57009   6472.85675  0.19179         2756.03955     16.54112    2e-05  58775.39277  1.77593  0.54166   1599153.86037  44.89521   19.3509  58835.43195    50.67483       43.90088   43.37197  44.05762   39.5     0.2227  -20.70954  0.93438 
   -7.89313  0.12771  5.02732     14.03466  1.82975  0.88081  5.03613   0.2434      0.0104  8480.76152   5392.72091  0.12109         2403.92749     16.41014    1e-05  58774.62249   2.1607  0.64315    3660714.8148    44.565   19.2795  58832.93642    50.67488       43.87522   40.93449  48.09692   40.0    0.23316  -20.77774   0.9235 
   -8.93162  0.03109  4.79333     13.74654  1.80044    1.482  3.45735  0.24522     0.01856  8739.89213   5188.83379  0.05276         5964.39682      17.7144  0.00029    58773.584  1.57537  0.10748  12341830.92087  44.07157  19.27663  58832.93642    50.66062       43.89795   40.93449  43.26451   42.5    0.23521   -20.8192  0.98666 
   -8.15421  0.06267  4.21464     13.97514  1.45024  0.84084  4.36364  0.25746      0.0115  7533.77167   5929.87715  0.02241         3023.49661     18.34863  0.00124  58774.36142  1.47741  0.27347   2682253.45251  44.75226  19.28309  58835.43195    50.73518       44.00349   38.84572  38.84572   40.0    0.22657  -20.71543  0.96659 
   -7.02456  0.02615  5.27809     14.22177  2.00193  0.78182  2.84241  0.32327     0.01824  7151.99828     6427.666  0.11279         5513.05826     20.13157  0.07521  58775.49106   0.8673  0.07433   1865011.52255  44.85466  19.26252  58835.43195    50.72923        44.0048   38.84572  38.84572   40.5     0.2273  -20.77848  0.99102 
   -7.50487  0.00803  4.97409     13.85528  1.95058   1.5356   2.9879  0.30961     0.01471  8189.27241   5797.23341   0.4827         2266.87598     18.55213  0.00198  58775.01076  1.19532  0.02399   8726442.08794  44.22475  19.24816  58832.93642    50.68078       43.92203   42.46427  41.73473   41.5    0.23514  -20.77148   0.9972 
   -7.91048  0.00578  4.77925     14.13469  1.69266  0.76004  3.73351   0.3282     0.01617  7737.14111   5387.77593  0.34944         3233.03293      19.6148  0.02288  58774.60514  1.33323  0.02157     1930698.578  44.85298   19.2573  58832.93642    50.74299       44.02301    34.7567  38.66183   39.5    0.22692   -20.7436  0.99723 
   -6.85759  0.00632  4.47433     14.17636  1.58255   0.5495  3.30273  0.29436     0.01298  7040.85239   6054.11415  1.71691         2328.77334      19.2556  0.01001  58775.65804  0.97668  0.02086   1305893.49866  45.05084  19.24937  58832.93642    50.75437       44.04944   36.80121  36.80121   41.5    0.21978  -20.70933  0.99739 
   -6.22901  0.00667  4.49089     14.07528   1.7176  1.11401  4.55982  0.32029     0.01151  7778.48238   6172.42889  0.17275         3868.43079     16.72186    3e-05  58776.28662  1.64575  0.03042   2274253.81929  44.84226  19.28816  58832.93642    50.65674        43.8993   42.46427  41.36071   39.0    0.22445  -20.74386  0.99667 
   -9.76936  0.01409  4.79708      14.0762  1.65773  0.58144  5.67368  0.21145      0.0122  8399.64192   5486.46196  0.24756         3404.93637     16.75122    3e-05  58772.74626  2.38789  0.07995   2493960.91964  44.72952  19.28663  58832.93642    50.67851       43.90441   40.93449  44.01337   42.5    0.21394  -20.75694   0.9891 
   -9.44347  0.03034  4.07988     13.85626  1.37472    1.199  4.17108   0.2612     0.01324  7251.87696   5759.25921  0.06169         2292.38356        18.52  0.00184  58773.07215  1.30851  0.12653    4119172.2851  44.57096  19.29029  58835.43195    50.68172       43.92381   40.93449  42.38763   41.0    0.21659   -20.6952  0.98404 
   -9.22936  0.02087   5.0233      13.8534  1.89609  1.56808  2.84605  0.33416     0.01861   7942.0588    5084.6076  0.00237         4744.62176     19.59933  0.02208  58773.28627  1.07087  0.05939   8726795.88513  44.20387  19.30078  58832.93642    50.70536       43.96885   38.84572  40.42806   42.5    0.21818  -20.75578  0.99266 
   -9.82611   0.0104  4.06788      13.6521  1.54374  1.52105  4.57162  0.25963     0.01479    9127.187   5442.29252  0.29096         2018.93404     20.25634  0.10025  58772.68952  2.27181  0.04756  11774116.08638  44.16776  19.30726  58832.93642    50.66434       43.88951   42.46427  43.40522   43.0    0.21924  -20.87014  0.99466 
   -8.21769  0.02291  4.78566     14.01269  1.70963  0.94809  4.05546  0.27395     0.01466  8094.72693   5818.49381  0.23156         2038.35776     19.13876  0.00765  58774.29794  1.58515  0.09289   3429402.76662  44.60664  19.25035  58835.43195    50.70019       43.96131   38.84572  40.01568   40.0    0.23679  -20.77547  0.98824 
    -7.6592   0.1309  5.04855     13.95156  1.71732  1.18218  4.75524  0.28448     0.01176  8311.82683   6203.47817   0.4305         2941.67383      16.5177    2e-05  58774.85643  1.95971  0.62246   5080229.59074  44.39148  19.29023  58835.43195    50.71789       43.92989   42.46427  44.91579   41.0    0.23074  -20.71224  0.91859 
   -8.84985  0.05174  4.99184     13.96739  1.74486  1.10702  5.83544  0.21658     0.01011  8086.08631   5710.54728  0.02497         5325.67944     17.49599  0.00017  58773.66577  2.27603   0.3019   4691461.61275  44.44278  19.28803  58832.93642     50.6844       43.93871   40.89023  40.82535   41.5    0.21998  -20.72428  0.96058 
   -6.60292  0.00365  5.14774     14.20714  1.71532  0.58216  4.81961  0.21461      0.0163  8457.68836   5738.76126  0.21401         2188.75293     16.16633    1e-05  58775.91271  2.05656  0.01759   1625982.28454  44.86884  19.26653  58832.93642     50.7293        43.9863   38.84572  40.42806   40.0    0.23798  -20.75345  0.99741 
   -7.27851  0.10195  3.71881     13.80296  1.44446  1.40751  3.70445   0.2514     0.01609  7899.62315   6738.70768  0.27121         2366.29907     20.69925  0.27796  58775.23711    1.379  0.37767   4596368.17272  44.62533  19.24495  58832.93642    50.71342       43.97755   38.84572  40.42806   40.5     0.2293  -20.98333  0.96399 
   -8.55546  0.02152  5.47488     13.96066  1.97952  1.32777  3.06153  0.29134     0.02076  8163.44486   5740.43702  0.00051         3564.33625     19.40011  0.01396  58773.96016  1.21706  0.06588   6604099.61169  44.26884  19.27583  58835.43195    50.69783       43.95619   38.84572  41.37728   42.0    0.22903  -20.76725  0.99106 
    -7.1674  0.00459  4.63697     14.15271  1.70728  0.75925  4.55169  0.28072     0.01172  7812.82978   6077.45553   0.1249         4371.72879     18.38859  0.00136  58775.34822  1.65736   0.0209   1687186.69862  44.94152  19.29591  58832.93642    50.75097        44.0352   36.80121  38.40822   39.0    0.24105  -20.75581  0.99752 
    -7.7393   0.0064  5.10806     14.09885   1.7483  0.76114   2.8976  0.24077     0.01987  7068.82343   5471.58237  0.19974         2841.83321     19.14487  0.00776  58774.77632  0.86369  0.01853   2686791.30663  44.66572  19.30108  58835.43195    50.69173       43.93178   40.89023  41.65102   43.0     0.2156  -20.69329  0.99738 
   -8.58499  0.01048  5.17447     14.15577   1.9349  1.11488  3.36046    0.325     0.01805   7195.7344   5638.06039  0.11616         2054.84222     18.85109  0.00394  58773.93063  1.03795  0.03522   2347864.45909   44.7571  19.30428  58835.43195    50.74096       44.00969   38.84572  38.84572   40.0    0.21542  -20.69574  0.99571 
   -9.01288  0.03794  4.56351     13.90374  1.57296  1.26452   6.0687   0.2057     0.01077  8157.27127   5430.14796  0.04452         4268.63624     19.31799  0.01155  58773.50275  2.40887  0.23026   4738590.48583  44.47132  19.27583  58832.93642    50.75645       44.04008   36.80121  38.84572   40.5    0.22153   -20.7696  0.97056 
   -8.05657  0.01354  4.98526     14.00055  1.76567  1.34716  3.21594  0.33944     0.01929  7802.56292   5902.72305  0.02389         3261.96355     16.84558    4e-05  58774.45905  1.16791  0.04355   4064469.17986  44.51138  19.25751  58832.93642    50.72515       44.00077   38.84572  38.07179   39.5    0.23439  -20.73654   0.9943 
   -9.09944  0.04528  4.64283     13.96841  1.62732  0.77376  4.60785  0.20516     0.01025  7612.05644   6002.93393  0.08333         2569.24374     17.42439  0.00015  58773.41618  1.59268  0.20864   3767405.84542  44.57071  19.28256  58832.93642    50.74578       44.02334   36.80121  38.84572   42.0    0.22316   -20.7014  0.97317 
   -7.54491  0.11791  5.39497     14.21406  1.98158  0.85461  4.24728   0.2516     0.01119  7251.22293   6118.13951  0.10593         3042.78558     17.60533  0.00022  58774.97071  1.33217   0.5008     1998379.832   44.8012  19.32159  58835.44141    50.69552       43.94119   40.89023  40.95751   40.0    0.22275  -20.69069  0.93931 
   -8.09505  0.02566  5.23532     14.04531  1.84526   1.1832  6.04067  0.22424     0.01133  8199.27724   5550.43409  0.41474         3128.66261     19.61715  0.02301  58774.42058   2.4225  0.15503   3811953.01671  44.51587  19.30441  58832.93642     50.6989       43.91855     42.979  44.93501   40.5    0.22031  -20.75027  0.97934 
   -7.95252  0.01184  4.74204      13.9454  1.77343  0.95376  2.09978  0.31382      0.0148  6445.83755   6158.40016  0.23987          4792.1703     19.84372  0.03877  58774.56311  0.52043  0.02487   4761685.45317  44.48797   19.2782  58832.93642    50.70387       43.97053   38.84572  39.72693   43.0    0.23237  -20.70721    0.997 
   -8.25918  0.02034  4.58566     13.97908  1.46799  1.07066  6.61865  0.16841     0.01243  7677.60388   5789.63459  0.27761         3406.95877     19.44315  0.01541  58774.25644  2.32728  0.13464    3156382.1176  44.61358  19.28646  58832.93642    50.71988       43.97801   40.89023  40.82535   41.0    0.20897  -20.70972   0.9807 
   -8.52958  0.25398  4.67967     13.89085  1.51654  1.09932  4.04739  0.30268     0.01537  8298.38767   5141.87794  0.01114         5820.39589     19.31366  0.01144  58773.98605  1.66261  1.02795   5098051.98531  44.40187  19.27514  58835.43195    50.68017       43.91377   40.93449  43.26451   41.0    0.22311  -20.75053  0.86831 
   -9.07156  0.00838  4.38173     13.87083  1.46169  1.01956  2.87763  0.31912     0.01949  7541.71628   5887.39079  0.09985          2748.9261     16.88071    4e-05  58773.44406  0.97634  0.02411   4723983.27343   44.4761  19.29429  58832.93642    50.68652       43.93849   38.84572  42.06019   41.5    0.22044  -20.71175  0.99672 
   -7.66609  0.08235  4.81879     14.32494  1.66646  0.28062  3.66966  0.32356     0.01448  8093.33457   5787.29669  2.00094         3215.02528     17.60258  0.00022  58774.84954  1.43386  0.30218    804654.39654  45.21915  19.26792  58832.93642     50.7799       44.05925   36.80121  38.84572   44.0    0.21762  -20.74581  0.95933 
  -10.84245  0.00943  4.96977     13.88173  1.84949  1.17877  4.85536  0.30725     0.01389  8827.49074   4833.63626  0.01399         5764.91209     19.33014  0.01188  58771.67318  2.25696  0.04579   7312584.38932  44.27915  19.25392  58832.93642     50.7137       43.97326   38.84572  40.42806   41.0    0.21578  -20.75168  0.99425 
   -7.73601  0.00359  4.71862     13.98889  1.78752  1.17148  4.93972  0.33523     0.01053  8257.21096    5454.4814  1.02282         2809.90574     19.34368  0.01226  58774.77961  2.00907  0.01771   3889673.41689  44.58355  19.27662  58835.43195    50.73987       44.00293   38.84572  40.42806   40.5     0.2228  -20.75419  0.99795 
   -8.99033  0.04957  4.77469     14.01471   1.5614  0.87037  4.65868  0.32661     0.01963  8912.56142   5387.68896  0.39819         2755.04261     19.05675  0.00633   58773.5253  2.20747  0.23095   3088814.71704  44.61468  19.30917  58832.93642    50.71074       43.96527   38.84572  40.42806   40.5    0.21863  -20.75978  0.96741 
   -8.60521   0.1081  4.90541     14.19941   1.6063  0.55029   6.3333  0.14403     0.01087  7678.40113   5834.12802   0.0155         5251.13492     19.92528  0.04677  58773.91042   2.2274  0.68461   1432779.21279  44.93714  19.29792  58835.43195    50.68756       43.92977   38.84572  41.61902   42.0    0.21249  -20.75197  0.90821 
   -8.46912   0.0362  4.05935     13.79617  1.35437  1.01954  4.28085  0.23372     0.01135  7565.23792   5572.85425   0.1782         3387.06314     16.06597    1e-05   58774.0465  1.46151  0.15497   5298116.56406  44.45955  19.29851  58835.43195    50.66283       43.88793   42.46427  44.20213   41.0    0.22449  -20.71706  0.97996 
   -8.95354  0.05168  5.03972     14.23338  1.83092  0.57656   3.8765  0.27759     0.01343  7531.56863   5727.53164  0.00716         4845.64812     18.72569  0.00295  58773.56209  1.31171  0.20035   1474140.21141  44.95816  19.27919  58835.43195    50.72407       43.99599   38.84572  38.84572   40.5    0.22934  -20.72312  0.97498 
   -8.00621  0.01627  4.93065     13.97812  1.70142  1.49467  4.33922  0.23102     0.01696  7834.06768   5422.62178  0.01696         3369.87864     18.71941  0.00291  58774.50942   1.5886  0.07061   4248124.47966  44.48565  19.25659  58832.93642     50.7055       43.95132   38.84572  42.86986   40.0     0.2276  -20.75585  0.99049 
   -7.03321  0.11215  5.21592       14.077  2.00519  1.40839  4.15732  0.30743     0.01071  7699.19814   5741.77313   0.0206         2780.02803     18.07498  0.00066  58775.48242  1.47005  0.46626   3553390.66386   44.5857  19.28614  58835.43195    50.67372       43.90169   42.46427  43.40522   39.5    0.22434  -20.71752  0.94759 
   -7.79141  0.10352  3.44553     13.67253  1.10706  1.50106  4.63566  0.29569     0.01091  7845.45193   5580.44602  0.31368         2835.85938     18.05641  0.00063  58774.72421  1.70206   0.4799   5513715.64547  44.49706  19.25946  58832.93642    50.71043       43.97334   38.84572  39.72693   40.5    0.21895  -20.71962  0.94269 
   -7.48306  0.25574  4.72051     14.11455  1.65907  1.45004    5.465  0.22152     0.01047  7168.49073   5478.13851  0.29775         2506.78758     19.37907   0.0133  58775.03256  1.67522  1.39761   2025647.47988  44.83417  19.25961  58832.93642    50.72363       43.97805   38.84572  41.37728   41.0    0.20435  -20.67279  0.84911 
   -8.50864  0.02072  4.71121     13.92103  1.71836  1.11298  4.45439  0.25616     0.01176  8176.92968   5795.53228  0.02457          2994.0905     17.13004    7e-05  58774.00698  1.77663   0.0923   5094832.91186  44.45056  19.29332  58832.93642    50.86907       44.16208   35.96452   36.6847   40.5    0.23074  -20.76429  0.98866 
   -9.35223  0.14665  5.53985     14.30384  2.17599  0.64578  3.39801  0.24353     0.01042  6585.49195   6492.17741  0.01248         3376.74541     17.13342    8e-05  58773.16339  0.87908  0.49833   1530327.30744  44.93472  19.29175  58832.93642     50.7004        43.9537   40.89023  41.37728   41.5    0.22128  -20.67434  0.94396 
   -8.07797  0.01072  4.75098     14.15438  1.70107  0.57596  3.93477  0.31931     0.01431  8233.82711   5472.37942  0.10642         3350.87415     16.17569    1e-05  58774.43766  1.59129  0.04217   1751237.96095  44.90266  19.25828  58832.93642    50.73912       44.01153   38.84572  38.84572   40.0    0.23521  -20.74981  0.99464 
   -9.81649    0.065  5.48207     14.07806  2.01731  0.90929  4.99058  0.24297     0.01124  8086.11171   5663.09107  0.04745         4986.35501     18.44234  0.00154  58772.69913  1.94651   0.3244   3929628.16924  44.50138  19.26975  58835.43195    50.78251        44.0479   38.84572  38.84572   42.0     0.2182  -20.73992   0.9587 
   -7.94896  0.00229  4.79047     14.25313  1.70324  0.56855  5.05559  0.20692     0.01148  7335.76223   5711.05432  0.29889         2657.41768     19.20661  0.00894  58774.56667  1.62289  0.01159   1131340.41733  45.08577  19.26447  58832.93642    50.69196       43.93972   38.84572  42.86986   40.5    0.21727  -20.71843  0.99852 
   -8.98267   0.0154  4.27964     13.80755  1.57916  1.06765  4.19757  0.31363     0.01166  8446.50058   5452.11824  0.10534         3333.83392     16.09385    1e-05  58773.53295   1.7864  0.06466   6515509.53259  44.39051  19.29868  58835.44141    50.71032        43.9716   38.84572  41.37728   41.0    0.22838  -20.74772  0.99243 
    -7.6134  0.02387  5.33566      14.1548  1.81485  1.01889  5.50395  0.18021     0.01406   7385.3101   5815.36115   0.1344         3624.44057     16.78106    3e-05  58774.90223  1.79077  0.13138    2351942.6558  44.70188  19.28691  58835.43195    50.69372        43.9156   42.46427  44.20213   40.5    0.21104  -20.68203   0.9815 
   -9.09184   0.0021  4.79072     14.10132    1.852  0.81763  3.83749  0.29528     0.01024  7091.03058     6098.327  0.12318         2220.50044      17.8255  0.00037  58773.42379  1.15105  0.00806   2475235.27825  44.78207  19.25528  58832.93642     50.7214       43.98061   38.84572  40.89023   41.0     0.2102  -20.68634  0.99909 
   -9.45007   0.0172  5.23255     14.07163  1.91038  0.96902  5.16364  0.24767     0.01203  8099.09216   5908.74839   0.3708         2101.77861     19.02393  0.00587  58773.06556  2.02048  0.08883   3492286.34112  44.56943  19.24373  58832.93642    50.75885       44.05881    34.7567  36.80121   41.5    0.22064   -20.7462   0.9886 
   -8.87368  0.00468  4.67027     13.83425  1.68113  1.54036  4.80417  0.22217     0.01067  7989.72386   5478.02828  0.62722         2261.19791     16.14004    1e-05  58773.64195   1.8294  0.02249   7304818.49465  44.29215  19.27812  58832.93642    50.70291       43.95987   38.84572  41.37728   41.5    0.23238  -20.74453  0.99715 
   -8.26272  0.02638  4.61612     14.07732  1.69371  0.79883  4.88363  0.26501     0.01046  7885.17607   6076.49334  0.24409         2473.68897     17.52299  0.00019   58774.2529  1.81131  0.12882   2347286.38921  44.79856  19.25623  58835.43195    50.70162       43.96802   38.84572  38.84572   40.0    0.22575  -20.74343  0.98475 
   -6.99208  0.09631  4.94689      14.1773  1.71436  0.94112  5.23205  0.24035     0.01264  7512.07138   5988.17933  0.17846         4730.60204     17.64715  0.00025  58775.52355  1.76124  0.50389   1721811.61897   44.8783  19.28923  58832.93642    50.71504       43.98831   38.84572  38.84572   40.0    0.21944  -20.70651  0.93693 
   -7.83713  0.03733   5.0322     14.03814  1.73202  0.79903  3.60975  0.22104     0.01722  7913.25297   5765.96986  0.16648         2116.19981     18.69248  0.00274  58774.67849  1.34839  0.13475   3416744.15889  44.57027  19.28881  58832.93642    50.70657       43.96958   38.84572  40.42806   41.5    0.23284  -20.75764  0.98142 
   -8.41366  0.07424  4.05499     13.81213  1.48258  1.15809  2.62366  0.27022     0.01409  6733.05231   6119.52975  0.10308         2282.66089     20.17763  0.08363  58774.10196  0.70951  0.19478   5377215.96578  44.49333  19.29913  58832.93642    50.71921       43.97792   38.84572  39.72693   43.0    0.21495  -20.72856  0.97818 
   -9.16439   0.0012  4.61029     13.78149   1.5664  1.56615  5.31685  0.18577     0.01125  7901.16812   5075.69858  0.34925         3185.53913     18.91252  0.00454  58773.35124     1.98  0.00635   8456508.74156   44.2091  19.29854  58832.93642    50.71191       43.96497   38.84572  41.37728   42.0    0.22485  -20.73325  0.99912 
   -7.85015  0.06535  5.00898     14.28135  1.78883  0.52437  4.67464   0.2832     0.01278  8375.12065   5968.57279  0.13006         3451.08533     17.80488  0.00035  58774.66548  1.95595   0.3055   1140723.31756  45.06473  19.26965  58832.93642    50.68114       43.90704   40.93449  44.93501   40.0    0.22717   -20.7651  0.96165 
   -9.75783  0.03756  4.28499     14.06468  1.50765  0.57489  3.98243  0.29533     0.01205  7699.45916   5666.77617  0.24175         2445.28008      17.1859    9e-05   58772.7578   1.4083  0.14959   1908381.52173  44.90258  19.29293  58832.93642    50.67267       43.90184   40.93449  44.01337   41.0    0.22473  -20.71573  0.98167 
   -8.74788  0.02504  4.89607     13.97728  1.84047  1.05287  3.51019  0.33531     0.01045  6879.52833   5368.05123   2.7595         2452.87394     16.68563    3e-05  58773.76774    0.991   0.0879   4548578.25126   44.4962  19.31361  58835.43195     50.7065       43.95608   41.32746  41.37728   44.0    0.19354  -20.67615  0.98948 
   -8.93681   0.1334  4.34114     13.73028  1.44901  1.14793  5.10576  0.22631     0.01178  8626.62079   5393.70721  0.13442         4143.01826     16.76863    3e-05  58773.57881  2.26657  0.68111   8780614.58802  44.21118  19.30824  58835.43195    50.67942       43.90493   40.89023  44.05762   42.5    0.22113  -20.76143  0.91309 
   -7.60339  0.00277  4.84033     13.93009  1.70852  1.39019  4.26123  0.32918     0.01342  7984.48333   5686.84627  3.48869         2383.57979     17.29458  0.00011  58774.91223  1.62053   0.0118   5128781.92577   44.4217  19.29848  58832.93642    50.71883       43.96402   41.32746  42.06019   41.5    0.20584  -20.73192  0.99845 
    -8.5261  0.00802  4.24745     13.82152  1.44377  0.94879  4.73714  0.23379     0.01247  8327.60731   5215.75711  0.11725         3699.22941     17.15938    8e-05  58773.98953  1.95967  0.03799   5502186.27106  44.43155  19.28031  58835.43195    50.67047       43.90531   42.46427  42.48359   40.5     0.2323  -20.75949  0.99499 
   -7.93131  0.19417  4.74485     14.06607   1.7862  0.86326   3.4313  0.30711     0.01081  7271.92131   5942.91895  0.01769         3039.49429     18.29089  0.00109  58774.58432  1.08239  0.66625   2754599.84168  44.72827  19.28396  58832.93642     50.7073       43.95477   38.84572  42.86986   40.5    0.22661  -20.71445  0.92734 
   -8.77942  0.00564  5.49475     14.40975  2.10891  0.38502  2.51013  0.33929     0.01635  7114.27884   5578.45335  0.19308         3593.41447     19.13675  0.00761  58773.73621  0.75785  0.01415    895929.81673  45.16073  19.25085  58832.93642    50.71594       43.98171   38.84572  40.42806   42.0    0.22092  -20.70967  0.99823 
   -8.90182  0.08207  4.07256     13.99399  1.38279  0.80491  4.68557  0.24903     0.01069  7218.84362   5974.14628  0.04498         4695.45272      19.1954  0.00871   58773.6138  1.45655  0.38456   2189451.39156  44.84953  19.28269  58835.43195    50.68544       43.91401   43.41622  44.01337   41.0    0.21791    -20.692  0.95374 
   -8.02747  0.23065  4.40654     13.82195  1.38062   1.5029  4.49991  0.21565     0.01105  7410.70753   5477.33809  0.21117         2757.46124     18.25729    0.001  58774.48815  1.47418  1.03793   5651886.07684  44.36853  19.27117  58835.43195      50.649       43.88626   40.89023  42.93475   41.5    0.22031   -20.6919  0.86566 
   -7.87809  0.04301  4.78785     13.95341  1.64036  1.23264  3.40879  0.24028     0.01462  6929.91463   5383.38474  0.09885         5551.71827     17.11339    7e-05  58774.63753  0.97652  0.14662   4327268.97402  44.48729  19.26914  58835.43195    50.71675       43.98324   38.84572  39.72693   41.0    0.22871  -20.70416  0.98046 
   -8.60756  0.03127   5.2782     14.08141  1.86228  1.33127  4.96021   0.3169     0.01733  8610.51497   5894.97805  0.26957          2139.1339     18.36657  0.00129  58773.90806  2.19374  0.15513   3311457.35529   44.5739  19.29397  58832.93642    50.65987       43.88877   42.46427  43.40522   40.5    0.21618  -20.74002  0.97943 
   -7.43031  0.05841  5.76144     14.09488  2.06232  1.02281  3.32151  0.20944     0.01646  7449.45009   4163.19969  0.04065         2727.14292     16.90078    4e-05  58775.08531  1.09954    0.194   4106573.10512  44.44866  19.29994  58835.43195    50.68519       43.92059   40.89023  42.43189   41.5    0.23294  -20.71951  0.97334 
   -8.04778  0.01492  4.59691     14.33423  1.63174  0.42898  5.34665  0.27043     0.01265  8364.25273   5578.90433   0.1152         2362.25503     17.98608  0.00054  58774.46784  2.23133  0.07975    686964.75448  45.31963  19.25172  58832.93642    50.76338        44.0526   36.80121  38.40822   39.5    0.22955  -20.75852  0.99009 
   -8.26698  0.00137  4.53789     13.94703   1.5393  0.99508  4.20628  0.26245     0.01395  7582.04042   5934.06967  0.40134         3286.93477     19.63433  0.02394  58774.24865  1.44244  0.00577   3756608.12051  44.56767  19.34786  58835.43195    50.70048       43.95715   38.84572  40.89023   41.0    0.22159  -20.73308  0.99922 
   -6.47546  0.02308  5.54126      14.2411  1.92076  0.96384  7.58823  0.16107     0.01191  7947.92388   5803.72893  0.20013         3618.44929      17.1868    9e-05  58776.04016   2.8594  0.17516   1804327.50009  44.80879  19.28992  58832.93642    50.70046       43.95275   38.84572  42.06019   40.0    0.20965  -20.70777  0.97581 
   -7.34891  0.02376  5.23542     14.15607  1.77995  0.95562  4.70487  0.24773     0.01763  7878.40435   5857.73892  0.39468         2542.41008     16.94713    5e-05  58775.16671  1.74201  0.11178   2207955.83963  44.73736  19.29697  58835.43195    50.69394       43.93765   40.89023  40.95751   40.5    0.22153  -20.70706  0.98435 
