 texplosion  fnickel    Pspin  log(Bfield)      Mns  thetaPB   mejecta    kappa  kappagamma      vejecta  temperature    alpha  cutoff_wavelength  log(nhhost)      A_V         MJD0  kenergy  mnickel             TSD   log(L0)  Peak_mag     Peak_MJD  log(E_rad)  log(Peak_lum)  Rise_Time    E_fold  tau_1  delta_m15     r_peak     frac 
  -10.52656  0.03129  3.12984     14.04232  1.67083  0.67957   4.29646  0.21008     0.05187    8570.6766   8103.28426  0.78413         3526.01264     19.26602  0.01025  56228.56944  1.88264  0.13444   1250691.44357  45.40358  19.19169    56289.061    51.18851        44.4174   34.39608   44.7149   48.5    0.16064  -21.59665  0.99255 
  -11.43774   0.0062  3.45532     14.10914  1.96631   0.5899   3.79736  0.26634     0.01944   8125.56127   3104.43409   1.3921         3162.54307     19.61722  0.02301  56227.65826   1.4956  0.02354   1318767.01805  45.36535  19.21426    56289.076    51.14059       44.39191   30.95647   44.7149   46.0    0.19833  -21.58776  0.99873 
   -9.64737  0.49945  3.86402     14.03078  1.86251  1.10196   8.52003  0.11256     0.21295   8827.86223   6485.54833   0.9229         3250.53368     18.26494  0.00102  56229.44863  3.96077  4.25529   2240990.83252  45.01442  19.19281      56287.9     51.1436       44.40376   39.55549  39.55549   76.0    0.14033  -21.57501   0.7651 
  -14.78925  0.45545  2.34653     13.66452  1.46766  0.43741   3.16427  0.23922     0.01829   8132.83082   9443.98054  1.94494         2652.11771     16.83568    4e-05  56224.30675  1.24849  1.44118   3517685.05456  45.14836  19.18791      56287.9    51.19196       44.39341   36.11588  48.15451   47.5    0.15455  -21.59697   0.9422 
  -13.19949  0.01148  3.01354      13.7646  1.57831  1.06269   8.71025  0.10924     0.01268   8578.23033   9994.40548  0.83562         3338.75894     19.01593  0.00576  56225.89651  3.82343  0.09997     3935117.166  44.91393  19.20687    56289.076    51.21028       44.43038   34.39608   46.4347   38.0    0.18675  -21.59055  0.99432 
  -12.07932  0.02411  2.76863       13.874  1.64435  0.96321   5.19377  0.29724     0.01454   9113.82032   3810.36476  0.99318         2976.52152     16.99333    5e-05  56227.01668  2.57342  0.12521   2090912.37994  45.27997  19.21543  56290.17891    51.27295       44.53403   37.83568  41.27529   42.5    0.20234  -21.60219  0.99444 
  -12.23787  0.10176  3.06571     13.70307  1.76226  1.19119   5.59098  0.09197     0.01255   6900.56709   4709.80124  1.39833         3457.79888     20.44391   0.1544  56226.85813  1.58813  0.56894   6036725.54492  44.76105  19.20549      56291.8    51.26799       44.52654   34.39608  42.99509   58.0    0.16295  -21.66967  0.97183 
   -9.59419   0.0766  2.55455     13.89751  1.51711  1.35621   6.96829   0.2241     0.05497   9050.92321    6161.4295  0.97711         3339.98053     17.25855   0.0001  56229.50181  3.40517  0.53379   1473833.96247  45.46678  19.17924  56287.89226    51.12719       44.42181   34.39608  37.83568   51.5    0.14289   -21.6127  0.97788 
  -12.68608  0.25122  3.11947      13.5902  1.70143  1.18596   2.03786  0.27442     0.05573    8618.6145   4966.94769  0.87246         3218.46191     16.02946    1e-05  56226.40992  0.90298  0.51195  10148274.51715   44.5051  19.19725    56290.061    51.14502       44.41489   37.83568  41.27529   60.0    0.15128  -21.58401  0.97136 
  -11.42264  0.02369  3.93196     14.25701  2.17652  0.48556   9.05148  0.08629     0.01144   8050.69268   4443.41385  0.93679         3305.46646     17.11624    7e-05  56227.67336  3.49956  0.21442    956709.15289  45.43661  19.20729  56292.46556    51.22677       44.43238   34.39608  49.87431   51.0    0.17247  -21.53924  0.98728 
  -10.27371  0.04895  2.75575     14.16493   1.8268   0.6197   5.50716  0.32851     0.01314   9233.21216    8379.5603   0.6391         3220.81533     18.75104  0.00313  56228.82229  2.80066   0.2696    602735.16078  45.86993  19.20521    56291.061    51.17933       44.41783   36.11588   44.7149   37.0    0.21065  -21.58404  0.99001 
   -9.95665  0.47025  2.84862     14.28945  1.93876  0.56895   5.70059  0.27016     0.01132   8029.41864     9279.752  1.15399           3558.549     20.14802  0.07812  56229.13935  2.19238  2.68069    385222.20036  46.06139  19.21537      56290.9    51.12302       44.37899   39.55549  41.27529   39.0    0.18999  -21.64808  0.91095 
   -8.52007   0.0196  2.73111     14.20781  1.96285  0.81796   8.00292   0.2532      0.0148   9988.02374   5907.96588  0.65022         3192.10217     16.10304    1e-05  56230.57593   4.7625  0.15686    522107.55044  45.97129  19.20037      56287.9    51.12342       44.38235   37.83568  41.27529   40.0      0.202  -21.61946  0.99488 
   -6.56113  0.32001  2.78787     14.10582  1.78175  1.37298  10.07627  0.13079     0.11733   8490.71341   8564.49675  1.10745         3424.75194     18.06293  0.00064  56232.53487  4.33327  3.22451    789884.76992  45.73158  19.18559    56289.076    51.13683        44.4034   37.83568  39.55549   52.0    0.14768  -21.57263   0.8872 
  -10.85454   0.1162  3.47437     13.99063  1.75281  0.65501   2.59545  0.31619      0.3027   8571.04621   4471.06871  1.37337         3171.50444     18.17963  0.00084  56228.24146  1.13739   0.3016   2051331.88714  45.11879  19.19325  56287.89226    51.14428       44.40937   39.55549  39.55549   75.0    0.13871  -21.58499  0.98071 
  -13.75242  0.00339  3.18518     14.24408  1.96812  0.29489   4.02556  0.24289     0.01179   7701.27837   8819.91513   1.0186         3401.09328     17.82951  0.00038  56225.34358  1.42423  0.01365    602520.70898  45.77666  19.21269    56290.075    51.13374       44.39809   36.11588  41.27529   43.0    0.18905  -21.56029  0.99936 
  -11.22756  0.41692  3.59537     13.91582  1.93647  1.04385   5.91596  0.18788     0.01336   8761.72441   9842.14614   1.3597         3045.96245     16.02987    1e-05  56227.86844  2.70914  2.46648   3425102.27882  44.90969  19.21069    56290.061    51.31347       44.42307   36.11588  55.03372   37.5    0.18843  -21.60743  0.87143 
   -9.95537  0.03688  2.71313     14.03524  1.91898  1.17435    5.6141  0.30904     0.01432   8772.86322   7933.53528   0.7547         3318.25191     19.77043  0.03275  56229.14063  2.57745  0.20707   1115167.83154  45.63764  19.20113    56289.076    51.27721       44.40254   36.11588  51.59411   39.0    0.19668  -21.60577  0.99309 
  -10.77285  0.32528  2.24382     13.76353  1.18979   0.6611   4.97676  0.28895     0.01066   8258.13399   9180.88731  1.33811         3434.05414     19.56311  0.02032  56228.32315  2.02459  1.61884   1652713.50576  45.42414  19.21114    56290.061     51.2593        44.3954   36.11588  51.59411   39.0    0.20215  -21.60757  0.92801 
   -9.66856  0.01754  3.57499     14.53485  1.93339  0.26804   6.88783  0.15038     0.01507   8171.67147   7663.55384  1.39428         3383.06981     18.68722   0.0027  56229.42744  2.74367  0.12081    195427.17068  46.15763  19.18646    56290.061    51.28522        44.5591   34.39608  41.27529   43.0    0.18888  -21.55648  0.99299 
  -15.08419  0.01944  2.58725     13.44469  1.63153  1.32942   3.99385  0.18639     0.01289   8176.94663   3936.64688  0.72355         3306.43463     18.88428  0.00426  56224.01181  1.59295  0.07765  13082714.65472  44.53907    19.227  56290.17891    51.14312       44.38126   34.39608   44.7149   53.0    0.18151  -21.57276  0.99669 
   -13.5583  0.17464  2.05581     13.42471  1.05096  1.37449   5.05224  0.21954      0.0124   8276.10096   3546.44914  0.97098         3118.60914       19.742  0.03067   56225.5377  2.06425  0.88234   5833673.61937  44.89852  19.21576      56291.8    51.14815       44.35861   40.13287  45.85732   46.5    0.19796  -21.58932  0.95866 
  -10.50413  0.00852  3.28337     14.12939  2.11243  1.10264   9.74281  0.13194     0.28117   8968.77648   3762.81564  0.73695          3273.9744     19.33358  0.01198  56228.59187  4.67496  0.08305   1165354.36671  45.49453  19.20952    56290.061     51.1884       44.45494   34.39608  41.27529   53.5    0.15766  -21.61002  0.99647 
  -14.39093  0.02598  2.96861     13.77722  1.70003  0.78273   3.09905  0.25395      0.0198   7574.70197   4041.74434  0.93881         3469.72026     19.71817  0.02903  56224.70507  1.06069   0.0805   3880871.97746  44.96527  19.19338    56290.061     51.2983       44.49833   32.67627   44.7149   52.5    0.18308  -21.57706  0.99594 
   -9.75395  0.00464  2.85601     13.87755  1.57534   1.0014   7.22095  0.16369      0.0174   8721.85672   6530.87231  1.23021         3090.87647      19.8176   0.0365  56229.34205  3.27672  0.03348   2097071.88823  45.23309  19.20395  56290.17891    51.13054       44.39643   36.11588  39.55549   45.5    0.17817  -21.62388  0.99831 
   -8.51173  0.10044   2.6826     14.44038  1.62526  0.29032   4.18786  0.28782     0.02013   8297.06234   8241.62356  1.29569          3213.8888     20.01297  0.05724  56230.58427  1.71976  0.42063    142918.99024  46.46757  19.20219      56287.9    51.17006       44.40136   32.67627   46.4347   39.0    0.20665   -21.6149  0.98254 
  -11.47278  0.16397  2.97997     14.25269  1.64998  0.41349   8.07591  0.13871     0.01935   8601.62608   7858.50317  0.70353         3230.97274     19.20558  0.00892  56227.62322  3.56434  1.32419    424943.08415  45.90957  19.19189      56287.9    51.11158       44.37114   39.55549  39.55549   45.5    0.16737  -21.59716  0.93637 
  -11.73852  0.29334  3.12576     14.40967  1.77723  0.27857   8.00641  0.12056     0.01007   8100.42084    6387.5955  1.08583         3165.93407     20.22938  0.09421  56227.35748  3.13386  2.34862    244421.32028  46.14054  19.17837    56287.061    51.12589       44.38501   37.83568  39.55549   47.5    0.19316  -21.64362  0.89342 
  -10.07556   0.1203   2.9807     13.58178  1.42556  1.35198   4.70968  0.11329     0.36508   7769.50346   9441.86702  1.45288         3321.67759     18.96801  0.00516  56229.02044  1.69592  0.56657   8069882.70126  44.56733  19.19992  56290.17891    51.24858       44.39042   37.83568  56.75352   76.0    0.13256  -21.55573  0.96368 
   -13.1989  0.15875  3.01827     13.65382  1.77253  0.97751   7.60144  0.08251     0.01036   7693.75701   6731.05417  1.33279         3323.68138      20.3104  0.11353   56225.8971  2.68411  1.20675   7383940.16858  44.68963  19.19832    56289.061    51.33852       44.55968   32.67627  42.99509   59.0    0.15063  -21.68409  0.94269 
  -13.56212  0.00487  2.90508     13.91606   1.9043  1.15923   4.74271  0.28993       0.013   7611.62405   6756.99721  1.13157         3492.58854     20.16919  0.08202  56225.53388  1.63911  0.02311   2196615.98192  45.28051  19.20294    56290.061     51.1097        44.3682   30.95647  42.99509   45.5    0.18059  -21.64041  0.99909 
  -13.97133  0.09203  2.94803     13.97011  1.75205  0.42702   3.26882    0.288     0.01511   7923.92331   6894.41627  1.17012         3420.22261     17.33841  0.00012  56225.12467  1.22433  0.30082   1622596.00963  45.36312  19.20084    56289.061    51.18777       44.41922   37.83568   44.7149   49.0    0.19078  -21.57383  0.98564 
  -12.78897  0.01091  3.28249      13.7842  2.00451   1.3063   3.67703  0.28304     0.01294   7978.07537   6895.02436  1.27484         3141.39793     16.42166    1e-05  56226.30703  1.39611   0.0401   5417839.05915  44.80462  19.19447    56287.075    51.20903       44.44371   32.67627   44.7149   46.0    0.19802  -21.55707  0.99808 
   -3.89166  0.22129  1.74326     14.19388  1.80638  1.30006   7.71843  0.29472     0.02556  10572.12652   3422.44673  1.95206         2269.48295      16.3218    1e-05  56235.20434  5.14613  1.70803    208736.85899  46.72333  19.19797  56290.17891     51.1495       44.43465   30.95647  41.27529   41.0    0.15488  -21.62093  0.97539 
   -7.80873  0.26356  2.83102     14.11221  1.80043   1.3313  11.66678  0.09036     0.03635   7683.93456    6777.9078    0.952         3752.46358     18.56937  0.00206  56231.28727  4.10909  3.07488    799204.85596  45.71768  19.20076    56290.061    51.13124       44.39865   32.67627  41.27529   58.5    0.15304  -21.53734  0.89037 
  -12.61781  0.03169  2.79359     13.69866  1.44308  1.21411   2.81141  0.33311     0.03241   7794.52852   8778.00487  0.94115         3597.67601     18.47306  0.00165  56226.47819   1.0189  0.08908   4188956.76748   44.9137  19.20696    56287.075    51.15343       44.42495   30.95647  41.27529   43.0    0.17987  -21.56757  0.99504 
   -7.04043  0.00468  3.16944     14.11519  2.01888  1.30488   6.17343  0.23781     0.05913  10011.29902   9119.95333  0.72469         3302.28187     17.71759  0.00029  56232.05557  3.69092  0.02891   1107930.11845  45.52748  19.20354    56289.076    51.27281       44.41255   37.83568  53.31392   38.5     0.1683  -21.62235  0.99878 
   -9.67761   0.0065  2.93956     14.26955  1.68783  0.47274   5.10527  0.24219      0.3218   9304.12257   3058.73208  1.00025         2862.13551     16.00838    1e-05  56229.41839  2.63631   0.0332    391383.31859  45.96701  19.21769    56289.076    51.15513       44.42438   32.67627  41.27529   54.0    0.16352   -21.5859  0.99841 
  -14.88772  0.00346  2.69076     13.76919  1.50471  0.52926   5.69503  0.14255     0.01664   8647.57898   4710.25048  0.72365         3101.43661     16.47628    2e-05  56224.20828  2.54046  0.01969   2928434.55884  45.11991   19.2167    56289.076    51.19451       44.39712   32.67627   44.7149   55.5     0.1653  -21.60586  0.99899 
  -10.02114  0.01037  2.93472     13.91913  1.55382  0.90942  10.48087   0.0988     0.04333   8271.19594   4243.67355  1.10571         3297.46181     18.03101   0.0006  56229.07486  4.27722  0.10871   1803389.13737  45.26902  19.22067    56290.061    51.12911       44.38839   36.11588  41.27529   59.0    0.15201  -21.56974  0.99411 
  -11.74891  0.30276  2.90869     13.83627   1.5779  1.06333   4.29654  0.29893     0.02103   8813.31798   6459.69802  0.99224         3181.50364     16.83174    4e-05  56227.34709  1.99079  1.30081   2634785.87018  45.11879  19.18681      56287.9    51.12455       44.41553   37.83568  37.83568   44.5    0.19583  -21.60621  0.93598 
   -9.12777  0.44773  2.87053     14.13243  1.60552  0.65519   4.82583   0.2469     0.01434   7402.56587   4168.54619  1.41219         3590.01206     18.87888   0.0042  56229.96823  1.57748  2.16067    667583.38269  45.73403   19.1889      56291.8     51.1597       44.40218   36.11588  42.99509   45.0    0.18834  -21.55265  0.90378 
  -11.69371  0.23152   3.6493     14.06206  2.19315  1.48443   4.75893  0.28291     0.02817   8352.24013   3533.42089  1.19608         3144.17354     17.42873  0.00015  56227.40229  1.98035  1.10177   2037856.54009  45.17632  19.21167    56290.061    51.16032       44.40418   39.55549  42.99509   47.0    0.15824  -21.57875  0.94767 
  -11.33737  0.11184  3.59763     13.83965  1.82975  1.50434   7.84197  0.09389     0.10182   8104.39982   7632.65804  0.97939         3663.26773     17.11683    7e-05  56227.75863  3.07252  0.87704   4601998.10316  44.75626  19.19545      56287.9    51.23667       44.39616   34.39608  49.87431   73.0    0.14279  -21.58152  0.94594 
  -10.71351  0.34517   3.0492     13.82499  1.65222  1.48251   3.67855  0.27137     0.02468    8307.9883   7787.54018  0.97401         3130.81272     19.44087  0.01533  56228.38249  1.51459  1.26971   3193523.72542  45.01427  19.18966    56289.061     51.1735       44.41213   36.11588   44.7149   43.0    0.18496  -21.57526  0.93598 
   -6.86009   0.0034  2.26823     14.07639  1.75614  1.35943   7.00465   0.2552     0.08478   9493.28513   9045.25178  1.19015         2665.56807     19.29087  0.01085  56232.23591  3.76571  0.02379    590155.55898  46.03106  19.22302    56289.076    51.22629       44.42392   41.27529  48.15451   40.5    0.15366  -21.58576  0.99937 
   -9.77994  0.00422  2.96428     14.10546  1.50348   0.4906    6.9938   0.1298     0.02004   8075.80476    6018.6035  1.09035         3445.98707     17.82915  0.00037  56229.31606   2.7209  0.02949    754807.75933  45.62427  19.19286    56289.061    51.12949       44.38552   39.55549  41.27529   48.5    0.17355  -21.54795  0.99827 
   -5.57368  0.00911  2.52562     14.17393  1.81168  0.97405   6.58782  0.20599      0.0164   8800.88624   3038.25067  0.73398          3744.7029     18.66995   0.0026  56233.52232  3.04384  0.06004    481684.97766  46.03943  19.19505      56287.9    51.14787        44.3969   32.67627  42.99509   38.5    0.20303  -21.55987  0.99811 
  -10.29894  0.00699  2.19649     13.96171  1.52406  1.05899   5.24207  0.32356     0.02185   9275.51359   6435.76329  0.46819         3315.49055     19.61491  0.02289  56228.79706  2.69033  0.03667    814439.09156  45.85753  19.20193    56289.076    51.14976       44.38532   39.55549  42.99509   40.0    0.19794   -21.6066  0.99887 
    -8.5503  0.00103  1.92655       14.055  1.54757   0.8513   6.15451  0.29585     0.01302   8746.70952   9888.25047  0.77632         3226.09088     19.92527  0.04677   56230.5457  2.80873  0.00632     414023.3596  46.27191  19.20509      56290.9    51.17297       44.42963   32.67627  42.99509   33.5     0.1968  -21.60855  0.99985 
   -7.29458  0.00407  2.25426     14.48452  1.75102  0.36009   7.44828  0.21309     0.01535   8914.31021   5808.98582  0.75694         3594.28002     20.05614  0.06322  56231.80142  3.53068  0.03028     88730.84334  46.85805  19.19149    56289.061    51.15967       44.42412   37.83568  39.55549   40.5     0.1902  -21.65231   0.9992 
  -11.11352  0.00307  2.60333      14.5156  1.71252  0.22634   6.65773  0.30204     0.01104   8981.77347    5114.9832  1.06379         3081.59281     18.43696  0.00152  56227.98248  3.20389  0.02046    100301.35904  46.67012   19.2112  56292.46556    51.22334       44.39332   34.39608  51.59411   43.0    0.18718  -21.59457  0.99925 
   -9.41328  0.06858  3.21751     13.87074  1.66011  1.35619   8.50883  0.11539     0.16986   8472.84557   8472.67182  1.18303         3386.44882     18.35934  0.00127  56229.68272  3.64381  0.58356   2894140.68792  45.01242  19.20582    56289.076    51.10495       44.37226   32.67627  42.99509   56.0    0.15702  -21.58553  0.96646 
   -8.89824  0.00586  3.01352     13.95696  1.71524  1.32281   4.23312  0.27978     0.03629   7705.94647   7198.98396  1.56986         3460.20037     17.45122  0.00016  56230.19776  1.49948  0.02479   1763445.68506  45.29866  19.16567    56287.061     51.2599       44.41672   34.39608  51.59411   48.0    0.14967   -21.5651  0.99878 
   -9.57917   0.2146  2.61739     14.06459  1.89738   1.4554   6.91822  0.23707     0.01698   9363.96669   9807.35749  0.68934         3089.56416     19.93837  0.04821  56229.51683  3.61861  1.48467    896452.53435  45.75874  19.24008    56289.076    51.17798       44.40306   34.39608   44.7149   33.5    0.19434  -21.63955   0.9551 
   -8.59166  0.19178  2.61316     13.93695  1.63656  1.42572   6.23071   0.2597     0.01329   8675.08468   8670.08691  1.18157         3292.35163     17.39281  0.00014  56230.50434  2.79713  1.19492   1387349.58991  45.50626  19.19734    56290.061    51.13829       44.36715   41.85268  44.13751   38.0    0.20036  -21.58594  0.95486 
  -11.51797  0.04139  2.88143     14.16493  1.64626   0.5807   10.8526  0.10784     0.04102   8607.60564   4857.64347  0.95744         3110.85956     18.79562  0.00347  56227.57803  4.79652  0.44923    593838.59268  45.79246  19.18945    56289.061    51.16722       44.39705   37.83568   44.7149   56.5    0.15086   -21.5713  0.97894 
   -9.32543  0.01426  3.39667     13.92776  1.78151  1.03821   3.19937  0.27127     0.04964   9284.49466   7128.58974  0.80012          3187.6844     18.08395  0.00067  56229.77057  1.64516  0.04564   2661949.86115  45.03233  19.20641    56290.061    51.18552       44.41347   34.39608   44.7149   46.0    0.18406  -21.59223  0.99727 
    -8.2207  0.00155  2.87267     13.92538   1.7148  1.43645   3.94151  0.30355     0.04026    9119.8638   6785.58009  2.02317         2574.98155     20.08854  0.06812   56230.8753  1.95554  0.00612   1852853.33948  45.31865  19.18378    56290.061    51.13684        44.4143   36.11588  37.83568   44.0    0.17378   -21.6407  0.99973 
   -8.84265  0.01011  2.04216     14.01874  1.44612  0.92129    6.0797  0.26115     0.02141   8749.28167   9721.42385  0.58784         3706.61286     16.39704    1e-05  56230.25335  2.77622  0.06146    513711.12274  46.09815  19.21217      56290.9    51.22361       44.43897   32.67627   46.4347   34.5    0.18639  -21.56888  0.99823 
  -13.44725  0.01053  3.45781     13.82246  2.08861  1.01667   2.92331  0.24578     0.01769   7205.37063   7018.35094   1.0471         3563.76247     19.74013  0.03054  56225.64875  0.90535  0.03079   5252398.58332  44.79074  19.21228    56289.061     51.1536       44.40661   37.83568  41.27529   51.0    0.18809  -21.56508  0.99845 
   -9.03506  0.00443  2.74306     14.41712  1.71634  0.35751    5.0367  0.27699     0.02504   8334.80911    4039.1794  0.95096         3423.23436     16.72038    3e-05  56230.06094   2.0872   0.0223    175653.51277  46.38232  19.19722    56287.061    51.14787       44.40447   29.23666  42.99509   44.0    0.17785  -21.56702  0.99909 
   -8.49785  0.01138  2.92442     14.07255  1.56645  0.66655   7.57067  0.13956     0.04292   9278.15839   9335.44777  1.29989         2803.08008     18.67901  0.00265  56230.59815  3.88763  0.08616    890670.07597  45.58197  19.18572    56290.075    51.13713        44.4006   36.11588  41.27529   42.0    0.17113  -21.58407  0.99543 
  -12.45838  0.00407  3.06712     13.77343  1.74196  0.97763   6.04583  0.16792      0.0137   9221.18579   3885.19344  1.86807         2389.09109     17.41191  0.00014  56226.63762   3.0666  0.02461   4319684.76389  44.90097  19.19069  56290.17891    51.15822       44.40231   39.55549  41.27529   47.0    0.19288  -21.61717  0.99873 
   -8.59527  0.01122  3.29457     14.13911   1.9245   0.7922    8.8929  0.10857     0.01812   7689.10665    6161.5919  1.45151         3351.89793     20.07133  0.06547  56230.50073  3.13633  0.09977    1022150.6165  45.50805  19.19757      56287.9    51.19475        44.4629   36.11588  39.55549   51.0     0.1623  -21.58986  0.99507 
   -6.15004  0.15432  2.53108     14.71745  1.76834  0.21184   6.40371  0.26462     0.01352   9183.47868   9278.70756  1.45327         2919.68046     19.03915  0.00608  56232.94596  3.22161  0.98822     38645.51659   47.1227  19.20352    56289.076     51.1488       44.37305   42.99509  42.99509   35.0    0.20129  -21.57858  0.96852 
   -8.39827  0.18185  2.90022     13.87255  1.57272  1.37396   3.22396  0.30657     0.18258   8457.50816   7444.90586  0.86691         3542.70671     19.29609  0.01099  56230.69773  1.37563  0.58628   2209172.87337   45.1964  19.18804    56289.061    51.14846       44.40449   37.83568  41.27529   55.5    0.15866  -21.59059  0.97037 
   -6.47729  0.01093  2.36055     14.22386  1.92112  0.87557   9.20171  0.21678     0.01466   9113.98701    9300.9081  1.24484         2980.77587     19.35945  0.01271  56232.61871  4.55945  0.10055    354547.76132   46.2567   19.2004    56290.061    51.13765       44.41309   36.11588  39.55549   36.0    0.16646  -21.59899  0.99747 
  -12.73209  0.23685  2.96215     13.82065  1.50686  0.74708   3.72568  0.19798     0.02336   8043.77905   4983.84679  0.78505         3397.65527      18.6607  0.00254  56226.36391  1.43798  0.88242   2804142.91561   45.0559  19.19423    56289.076     51.1957       44.38784   37.83568  51.59411   50.0    0.17921  -21.54783  0.95009 
  -14.40413  0.00173  2.88051     13.82624  1.68642  0.93906   5.07974  0.20882     0.01743   8651.58371   6406.92027  1.27558         2237.02095     19.69968  0.02782  56224.69187  2.26809  0.00877   2892326.11781  45.11562  19.18938    56290.061    51.11849       44.37734   39.55549  39.55549   46.5    0.18714  -21.59542  0.99959 
   -8.83196  0.01063  3.12996     14.32718  1.77387  0.43418   5.19682  0.18295     0.19642   8585.90462   7524.39025  0.68641         3712.86512     17.86754  0.00041  56230.26404  2.28527  0.05523    357641.01565  45.97324  19.19972    56291.075    51.14464       44.37224   39.55549  42.99509   53.0    0.17403  -21.57802  0.99721 
  -13.85912  0.00155  2.42065     13.69464  1.53347  0.51035   6.68984  0.08249      0.0101   7223.09876   9713.96646  1.58342         3164.69259     20.47557  0.16607  56225.23688  2.08204  0.01039   3404708.47925  45.15458  19.19283    56290.061     51.1223       44.39183   36.11588  39.55549   53.0    0.14574  -21.72481  0.99957 
  -15.96625  0.05057  2.86497     13.65485  1.63629  1.10266   6.89637  0.15768     0.01308   8855.83254   9294.69269  0.83747         2710.77528     17.52036  0.00018  56223.12975  3.22631  0.34872   6112518.77635  44.78224  19.20559    56289.076    51.28198       44.57554   32.67627  39.55549   40.5    0.17942  -21.61267   0.9829 
  -13.63897  0.25149  3.01945     13.84761  1.61899   0.7829   6.57266  0.15282     0.01235    8606.4017   6731.10988  1.09394          2724.8029     18.23232  0.00095  56225.45703   2.9041  1.65298   2765056.60015  45.07653   19.1919  56290.17891    51.13603       44.36036   39.55549   44.7149   47.5    0.18877  -21.57786  0.91609 
   -9.06693  0.02308  3.08257     14.34402  1.87989  0.49555  10.47547  0.12508     0.02541   8721.34298   6871.31542  1.14329         3149.31514     18.70985  0.00285  56230.02907    4.753  0.24172    340204.62465  46.03341  19.21027    56290.061    51.16665       44.39181   34.39608   46.4347   49.0     0.1507  -21.57905  0.98929 
  -11.44266  0.00216  3.28939     13.87894  1.73431  1.06985   7.71612  0.12939     0.01603    8113.6134   5839.95658  1.27888         3423.51283     16.66752    3e-05  56227.65334  3.03008  0.01666   3042958.66066  44.99045  19.20831    56289.076     51.1594       44.40903   39.55549  41.27529   48.5    0.16481  -21.58824  0.99902 
   -9.92006  0.00672  2.56944     13.76502  1.33871   1.3388   4.63392  0.22076     0.06286    8403.1443   7205.44137  0.97966         3120.31078       17.386  0.00014  56229.17594  1.95191  0.03114   2421851.33624  45.19171  19.20576      56287.9    51.17616       44.41436   39.55549  41.27529   52.0    0.16035    -21.534  0.99838 
  -11.40358  0.01974  2.08823     14.23495  1.53262  0.38785   9.93146  0.14939     0.01126   9054.73432   5050.67317  1.37772         2230.94785     20.42167  0.14669  56227.69242  4.85726  0.19609    210332.67134  46.49182  19.21397      56287.9    51.15288        44.4191   39.55549  39.55549   43.5    0.18231  -21.75445  0.99456 
   -8.89574  0.21829  2.71616     14.13262  1.74531  0.92702   9.77426  0.15488     0.01284   8492.12164   5137.93705  1.24418         3165.77606     18.99787  0.00553  56230.20026  4.20478  2.13367    649183.01401  45.83044   19.1959    56289.076    51.23998       44.42554   32.67627   46.4347   45.5    0.16326  -21.56039  0.92376 
  -12.22868  0.33762  3.03237     13.73299  1.46325  1.13132   6.41573  0.14255      0.0147   7548.85981   7946.06119  1.30873         3389.50054     18.01715  0.00058  56226.86732   2.1809  2.16608   4272802.53483  44.83989  19.21077    56289.076    51.17194       44.41254   39.55549  42.99509   49.5     0.1619  -21.55371  0.87699 
     -8.102  0.00449  2.90483      13.9886  1.73901   0.9449   6.00008  0.19631     0.02455   9256.38065   7281.82076  1.59382         2725.38262     20.25093  0.09901    56230.994  3.06667  0.02696   1436035.68976  45.42574  19.20738      56290.9    51.15233       44.39935   37.83568  41.27529   43.0    0.18504  -21.68819  0.99879 
    -7.6918    0.018  2.40296     14.63241     1.59  0.17979  12.61582  0.08222     0.09587   7226.05323   5639.70086  1.21781         3660.75929     20.41771  0.14536   56231.4042  3.92957  0.22713     46332.42069  47.04286  19.20002      56287.9    51.14806       44.43445   34.39608  39.55549   57.5    0.15178  -21.69194  0.99213 
   -9.38685  0.12147  3.02686     14.23024  1.85004  0.61603   7.56095  0.17063      0.0113   8071.48207   6867.40065  0.82881         3721.22084     16.27399    1e-05  56229.70915   2.9384  0.91847    545129.30633  45.83754  19.20455    56291.075    51.19005       44.42004   36.11588   44.7149   43.0    0.18567  -21.55844  0.96092 
   -9.88633  0.21023  2.89322     13.92301  1.47908  1.01224   9.65708  0.10659     0.02057   8644.13685   8520.33201  0.91488         3422.61187     18.61258  0.00228  56229.20967  4.30444  2.03023   1638905.59864  45.30152  19.21869      56287.9     51.1999       44.46375   36.11588  41.27529   46.0    0.16505  -21.57824  0.89663 
  -12.20019  0.10692  2.70766     13.58878  1.48363  1.31148    4.4629  0.22435     0.01079   7715.19775   9956.49363  1.39364         3372.47124     18.94984  0.00495  56226.89581  1.58467  0.47717   6710584.20638  44.74822  19.20726      56287.9    51.30612       44.37832   36.11588  61.91294   39.0    0.19897  -21.56887  0.97611 
  -10.85612  0.00135  3.15746     13.82788  1.63415  0.70916   4.81352  0.12793     0.01468   7993.50043   9304.53206  1.24068         3507.35725     18.63915  0.00242  56228.23988  1.83469  0.00652   3342172.78515  44.95943  19.20875  56290.17891    51.23533       44.43696   41.27529   46.4347   43.0    0.19558  -21.57424  0.99961 
  -13.99077  0.00957  3.32031     14.19443  1.76564   0.3814  10.92861   0.0758      0.0388   8266.67975    3080.0583  0.80391         3500.54964     18.56499  0.00204  56225.10523  4.45507  0.10462    738277.07967  45.60517  19.19888    56289.061    51.17605       44.43205   39.55549  41.27529   71.0    0.13464  -21.59551  0.99388 
   -8.98867  0.01089  2.46332     14.04001  1.54178  0.60636   4.12375   0.2389     0.24076   9206.58655    6896.1835  0.69263           3273.921     20.51903  0.18355  56230.10733  2.08505  0.04489     722537.1462  45.81497  19.19475      56287.9    51.12588       44.36961   41.27529  41.27529   58.5    0.16607  -21.78264  0.99827 
   -5.84903  0.01574  1.93048     14.05823  1.56239  1.07357   8.14681  0.24782     0.01133   8494.20691    8225.4763  1.42302         3355.08756     16.38677    1e-05  56233.24697  3.50639  0.12821    413498.34655  46.27483  19.19946  56287.89226    51.12091        44.3928   37.83568  39.55549   39.0    0.17043  -21.56499  0.99707 
  -13.68656  0.08138  3.34806     13.98137  1.82274  0.60924   5.16789  0.15348     0.02538   9238.61469   9307.97251  0.59426          2856.8224      17.1922    9e-05  56225.40944   2.6312  0.42054   2067245.40721  45.16459  19.20403    56291.075    51.16774       44.41822   29.23666   44.7149   41.0    0.17149  -21.60851  0.97638 
   -9.03522  0.00714  3.26074     14.23704  1.82235  0.52342   5.48656  0.15268     0.06286   8281.74658   6493.87061  0.84592          3664.3174     19.79944  0.03501  56230.06078  2.24477  0.03917    603932.35396  45.72186  19.19672  56287.89226    51.22075       44.43069   29.23666   46.4347   56.0      0.173  -21.59541  0.99793 
   -7.75792  0.00161  2.09286     14.07025  1.65967  1.01539   5.75069  0.28753     0.01257   8092.93885   4197.06722  0.62078         4016.74227     16.45953    2e-05  56231.33808  2.24678  0.00923    488434.33708  46.15858  19.21528    56289.061    51.09966       44.35543   36.11588  41.27529   40.5    0.19876  -21.55127  0.99977 
   -11.3218  0.15173  3.41858      13.9297  1.79686  1.08998    7.6509  0.11672     0.17545   8071.44901   4918.11422  1.04693         3287.89957     18.32225  0.00117   56227.7742  2.97333  1.16091    2695346.0999  45.02505   19.2003  56290.17891    51.14641       44.38484   37.83568  42.99509   71.5    0.14568  -21.56432  0.93502 
  -10.74062  0.26646  3.90395     14.48941   2.0765   0.3087   6.52167  0.14143     0.49439   9069.41516   6945.39081  1.01463         2973.31375     18.73369  0.00301  56228.35538  3.19996  1.73778    308551.70117  45.91384  19.18638    56289.061    51.10437       44.37135   39.55549  39.55549   69.5    0.14832  -21.60391  0.90142 
  -11.93158  0.06905  3.21976      13.7631  1.68587  1.30116   9.03339  0.08368     0.27256    8555.4683   6757.19566  0.78781         3281.18031     19.68021   0.0266  56227.16442  3.94426  0.62374   4831477.15354  44.79594   19.1825    56289.076    51.12676       44.37795   39.55549  41.27529   79.0     0.1388  -21.60954   0.9644 
   -8.31588  0.00141  2.95238     14.03272  1.84877  0.91335   4.82401   0.2513     0.01152   7734.90704   7455.05796  1.41319         3555.66967     20.12889  0.07475  56230.78012  1.72165  0.00679   1287052.51986  45.48579  19.20562    56289.061    51.12771       44.38753   39.55549  39.55549   41.5    0.20523  -21.63774  0.99971 
   -6.30956  0.10999  2.38616      14.1738  1.83841  1.08115  10.49801  0.15185     0.01147   8220.52538   7812.23685  1.30469         3533.33841     19.82777  0.03737  56232.78644  4.23188  1.15469    436574.37658  46.13783  19.22731      56290.9     51.2652       44.38185   36.11588  53.31392   42.0    0.16126  -21.58702  0.96927 
  -13.98329  0.07131  3.08711     13.81766  1.81473  1.00074   4.37812  0.23943     0.01266   7794.53332   7309.87287  0.98404         3541.79737     19.64406  0.02448  56225.11271   1.5867  0.31222   3718823.98291  44.97815  19.18494    56290.061    51.19425        44.3922   41.27529  48.15451   45.5    0.19726  -21.59037  0.98499 
  -10.94058  0.00698  3.19733     13.88966  1.73777  1.52736   3.57041  0.27415     0.09694     8178.176   5770.93221  1.09605         3439.03289     17.99915  0.00055  56228.15542  1.42449  0.02491   2742040.45569  45.06119  19.20832    56289.076    51.15095       44.38757   39.55549  42.99509   57.0    0.15043  -21.58035  0.99864 
  -11.88491  0.08225  3.08528     13.88364  1.67105  1.17817   6.82708  0.14404     0.04236    9061.5406   4517.81988  0.38917         3561.84321     16.51185    2e-05  56227.21109    3.344  0.56154   2524166.48396  45.11113  19.19476    56289.061    51.12168       44.39327   37.83568  39.55549   54.0    0.16522  -21.59365  0.97051 
  -12.24039  0.00305  2.12743     14.01829  1.49383  0.46895   4.66137   0.3074     0.01277   7730.46085   6788.30134  1.23366         3336.54661     20.64579  0.24577  56226.85561   1.6617   0.0142    577108.55994  46.02618  19.21978    56287.061    51.25015       44.48789   36.11588  42.99509   47.0    0.17147  -21.81063  0.99957 
   -8.90362  0.01409  2.03494     14.29258  1.85778  0.53518  10.15643  0.20758     0.01136   9452.06089   7675.42933  0.88648         2961.32831     20.52457  0.18591  56230.19238  5.41279  0.14308    185674.47559  46.65198   19.1987    56291.075    51.17905       44.37419   36.11588  49.87431   40.0    0.17819  -21.80266  0.99719 
  -11.84869  0.00174  2.95045     14.32528  1.82979  0.31728    4.2834   0.3034     0.01326   7969.87759   6496.28629   0.9213         3451.66999      19.6756  0.02632  56227.24731    1.623  0.00747    330694.63989  46.07204  19.21637    56290.061    51.19543       44.38752   37.83568  49.87431   44.5    0.19512  -21.59364  0.99968 
   -9.43982  0.49546  2.76724     13.86748  1.54382   1.3676   3.70444  0.33329     0.02225   8174.09932   7623.24774  1.05541         3252.36291     16.26319    1e-05  56229.65618  1.47649  1.83539   2020918.40401   45.2678  19.23002    56290.061    51.15175       44.39375   37.83568  42.99509   42.5    0.18889  -21.55106    0.918 
  -11.88681  0.00133  2.82656     14.04164  1.91897  1.20088   9.64311  0.15066     0.03318   8490.53283   8933.05856  0.37631          3758.2607     16.87551    4e-05  56227.20919  4.14681  0.01285   1175197.55799  45.57929  19.21727    56289.076    51.12087       44.40322   36.11588  37.83568   43.5    0.14422  -21.58985  0.99953 
   -10.6642  0.26358  2.74435     13.96212   1.6538  1.18705   6.41043  0.22702     0.02528   9281.11641   8819.22978  0.81594         2832.08563     19.26429  0.01021   56228.4318  3.29393  1.68969   1377012.46769  45.47151  19.19457    56289.061    51.16292       44.42785   36.11588  39.55549   39.0    0.16426  -21.61687  0.93224 
   -11.7326  0.00212  3.18202     13.95558  1.85991  0.83383   5.40135  0.23698     0.01339   8393.80473   3291.83973  1.21757         3021.91469     18.59029  0.00216   56227.3634  2.27011  0.01144   2145652.62049  45.20137  19.20302  56290.17891    51.12268       44.39028   36.11588  39.55549   45.0    0.19062  -21.57234  0.99943 
  -12.65346  0.04031  3.36863     14.32444  1.90139  0.36563   3.97923  0.28775      0.0221   8557.58341   8266.70963  1.11526         3170.69453     17.70731  0.00028  56226.44254  1.73832   0.1604    449686.21939   45.8401  19.19691    56290.068    51.22805       44.39865   32.67627  48.15451   41.0    0.19432  -21.58186  0.99149 
  -12.23225  0.03133  3.00044     14.42723  1.90887   0.3045   5.92159  0.25694     0.01156   8432.46284   3200.29738  0.87903         3308.42098     16.26446    1e-05  56226.86375  2.51174  0.18552    223098.41513  46.24676  19.21542  56290.17891    51.23722       44.35615   39.55549  56.75352   43.5    0.19307  -21.59005   0.9923 
  -13.12109  0.00216  3.38498     14.02683  2.04114  0.54356   2.95726  0.29616     0.02104   8575.18126   5349.54663  0.91497         3091.11634     16.28792    1e-05  56225.97491  1.29719   0.0064   1919329.17238  45.23646  19.19698    56289.061    51.13971       44.39361   39.55549  41.27529   47.5    0.19823    -21.583  0.99968 
    -8.2414  0.00151  2.55995     13.95013  1.58038  1.18249    7.9357  0.16301     0.01218   7920.09385   3770.22291  1.09331         3503.89568     18.86225  0.00405   56230.8546  2.96943  0.01196   1209962.52113  45.56837  19.21446  56290.17891    51.15047       44.42332   36.11588  39.55549   43.0    0.17761  -21.55534  0.99952 
   -8.06824  0.35725  2.73337     14.19656  1.41967  0.46796   6.75988  0.16147     0.02143   9405.02466   9568.04312  2.23382         2306.13423     16.06239    1e-05  56231.02776  3.56686  2.41495    398371.58779  45.94735  19.20589      56287.9    51.18674       44.38696   36.11588  49.87431   36.5    0.17839  -21.57362  0.88511 
  -13.40706  0.00974  3.11217     13.77131  1.65701  1.25293   2.96735  0.28549      0.2593    8402.2712   8982.94656  1.13137         2873.50437     18.82411  0.00371  56225.68894  1.24965  0.02891   4272072.34882  44.87141  19.19404    56290.061    51.15522       44.39718   32.67627   44.7149   60.0    0.13905  -21.58665  0.99837 
   -8.55781  0.06306  2.02163      13.8828  1.36455  1.53278  10.48209   0.1512     0.01282   9110.61203   4287.41615  1.00667         2823.27769     17.18399    8e-05  56230.53819  5.19004  0.66099    888395.52017  45.84382   19.2057      56291.8    51.18677       44.38917   41.27529   46.4347   41.5    0.18452  -21.56719  0.97997 
   -9.23229  0.02345  2.75057     13.84389  1.49763  1.37681   9.98772   0.0985     0.02563   7974.86167   3350.84363  0.80616         3707.35971     17.14589    8e-05  56229.86371  3.78913  0.23419   2159169.58946  45.23112  19.21616    56289.061    51.17349       44.43893   32.67627  41.27529   53.5    0.15602  -21.55066  0.98834 
  -10.34399  0.07738  2.75011     14.38171  1.65187  0.31216   7.52583  0.19028     0.01147   8972.39966   4674.18204  0.59346          3559.2103        17.43  0.00015  56228.75201  3.61409  0.58232    200015.00477  46.30706  19.21072    56290.061    51.15464       44.42293   32.67627  41.27529   41.5    0.20452  -21.60397  0.97532 
   -9.99084  0.00967  2.73595     13.93252  1.65654  1.30868    5.7835   0.2155     0.10483   9110.30517   8861.51127  0.42412          3269.3186     16.62928    2e-05  56229.10516  2.86341  0.05592   1571087.34742  45.41763  19.20684    56289.061    51.16566       44.41422   39.55549  41.27529   44.5    0.16723  -21.58749  0.99762 
  -11.61989  0.01198  2.91665     13.70895  1.53714  0.86403   3.36489  0.19682     0.02196   8063.47851   4406.65958  0.88628          3353.9089     17.80494  0.00035  56227.47611   1.3051  0.04031   4638831.85839  44.85938   19.2092    56291.068    51.14139       44.39211   36.11588  42.99509   52.0    0.18766  -21.54974  0.99771 
   -5.87546  0.00425   2.3809     14.18571  1.60227  0.74922   7.54134  0.15316     0.03315   7460.99862   7492.38869  1.32998         3616.35233      16.1697    1e-05  56233.22054   2.5042  0.03208    358612.27249  46.16547  19.20531      56287.9    51.17103       44.40927   34.39608  42.99509   47.0    0.16246  -21.51868  0.99892 
   -8.67646  0.00122  3.22365     14.06063  2.08351  1.54226   4.86684  0.24882     0.01647   7437.17122   6435.52916  1.21112         3713.98288      19.7667  0.03247  56230.41954   1.6058  0.00591   1520727.30642  45.38889  19.17982      56287.9    51.14778       44.40885   37.83568  41.27529   44.0    0.18715  -21.58925  0.99975 
  -12.34559  0.00109  3.54754     14.25211  2.04451  0.40834   6.57186  0.14615     0.01397   8396.35302   8699.85132  0.85268         3387.42403     19.40964  0.01427  56226.75041  2.76374  0.00715    748227.52928  45.60555  19.22635      56287.9    51.17204       44.41466   34.39608   44.7149   42.0    0.18145  -21.60877  0.99961 
  -12.49865  0.00866  2.48704     13.79073  1.36981  0.69347   5.39303  0.16479     0.01364   8005.12257   4585.45516   0.9028         3425.01935     20.16992  0.08216  56226.59735  2.06156  0.04671   2062480.29107  45.29975  19.20163    56289.061    51.11216       44.40116   32.67627  39.55549   47.5    0.18958  -21.64865  0.99776 
   -15.7729  0.22734  3.41536     14.13118  2.08445   0.3866   3.46413  0.28979     0.01895   8347.74464   8899.30553  1.16392         3067.91725      16.6148    2e-05   56223.3231  1.43999  0.78752   1234011.75439  45.42964  19.18828    56289.076    51.21573       44.42051   34.39608   46.4347   44.0    0.17547   -21.5876  0.96205 
  -11.60414  0.04338  2.73033     13.58304  1.39716  1.53013   2.48373  0.32225     0.03336   8331.85452   3577.68928  0.92628         3332.97015     18.01957  0.00058  56227.49186  1.02852  0.10775   6597977.22348  44.72225   19.2114      56291.8    51.14863        44.3973   32.67627   44.7149   48.5    0.18772  -21.58296  0.99392 
   -9.07352  0.00535  2.51226     13.81619  1.48842  1.45131   6.12344  0.24729     0.01741   9471.81833   4596.07052  1.38327         2675.22591     19.69661  0.02763  56230.02248   3.2771  0.03277   2033678.79206  45.33316  19.21939    56289.061    51.16332       44.41156   36.11588  42.99509   41.5    0.20535  -21.62996  0.99861 
  -11.00718  0.01896   3.1462     13.67613  1.61193  1.31451   3.16502  0.21858     0.05305   8368.93608   5846.61902  1.38939          3255.7557     19.78719  0.03403  56228.08882  1.32234     0.06   6583812.59847  44.66214  19.21777    56289.076    51.19284       44.45122   37.83568  41.27529   60.0    0.14752  -21.62729  0.99634 
  -11.08756  0.09666    3.401     13.95759  1.93279  0.97043   5.24139  0.22286     0.01445   8357.45074    8575.7889  1.12295         3346.26492     18.22997  0.00094  56228.00844  2.18384  0.50662   2523702.49005  45.08978  19.18462      56287.9     51.2186       44.43399   32.67627  42.99509   40.5    0.19302   -21.5902  0.97371 
  -11.78956  0.17833  3.33809     13.88376  1.81904  1.43164   5.24402  0.22461     0.02342   8562.83568    5716.4254  1.01727         3306.04669     16.40554    1e-05  56227.30644  2.29365  0.93518   3214654.24852  44.97456  19.21051  56290.17891    51.28838       44.47902   41.27529  48.15451   47.5    0.17729  -21.59826  0.95025 
  -10.46089  0.06265  2.79825     14.08293   1.6697  0.66081   8.20807  0.18318     0.01025   8857.74636   6435.41889  0.86961           3335.976     17.72141  0.00029  56228.63511  3.84162  0.51421    828645.22069  45.67934  19.19917      56290.9    51.17613       44.39841   42.99509  42.99509   42.0    0.19981  -21.59651  0.97772 
  -11.27822  0.03588  3.08644     13.97785  1.62042  0.64389   3.11152  0.27581     0.03855   7937.71528   8519.13062  1.34921         3403.92892     19.89357  0.04348  56227.81778  1.16947  0.11165   1587270.59866  45.29891  19.20002      56287.9    51.14884       44.40911   34.39608  41.27529   46.5    0.17166  -21.62327  0.99364 
   -9.02657  0.01358  2.25625     14.16901  1.71586  0.57416   7.80369  0.18451     0.01464    9512.1686   5202.42503  0.80077         2932.39076     20.59845  0.22038  56230.06943  4.21198  0.10601    372438.96743   46.2255  19.21514    56289.061    51.21336       44.40517   34.39608   46.4347   41.5        0.2  -21.82277   0.9971 
   -13.2682  0.10907  2.88025     13.60394   1.5933  1.09851   3.27728  0.24331     0.01665   7352.17736   8147.80655  1.33218          3425.7744      16.1077    1e-05   56225.8278  1.05675  0.35747   7604794.35397   44.6712   19.2157    56289.061    51.20492       44.40917   34.39608  48.15451   48.5    0.17245  -21.55685  0.98135 
   -9.79152  0.25592  3.52721     13.90681  1.81379   0.9736   2.88425  0.20237     0.18701   7285.60704   7387.13597  1.28667         3731.91334     19.80168  0.03519  56229.30448  0.91325  0.73814   3218481.41354  44.92492  19.20941    56289.076    51.18119       44.45053   32.67627  41.27529   76.5    0.15012   -21.5983  0.95523 
   -7.55055  0.02178  2.73268     13.86578   1.4844  1.39798   5.93449  0.18032     0.18976   8448.27153   7732.21449  1.03782         3360.34644     17.82449  0.00037  56231.54545  2.52666  0.12924   1909826.40828  45.28622  19.20908  56290.17891    51.19993       44.38605   36.11588  48.15451   51.5    0.16916  -21.55008  0.99354 
   -9.01316  0.39103  3.03119     14.07041  1.82098  1.08605   5.59703  0.25401     0.01825   8805.64586   4113.45155   1.1635         3024.98687     17.49414  0.00017  56230.08284  2.58885  2.18863   1123383.52902   45.5154  19.18752    56290.061    51.13371       44.38717   39.55549  39.55549   43.5    0.19258  -21.56385  0.90964 
  -11.02927  0.00369  2.83669     13.77612  1.69031  1.55559   4.01757  0.30693     0.01346    8301.4755   4343.66513  0.89477         3343.64209     16.13589    1e-05  56228.06673  1.65159  0.01483   3541391.84091  45.04201  19.18937    56289.061    51.11342       44.37093   36.11588  41.27529   43.0    0.21338  -21.57259  0.99933 
   -8.95048  0.02516  2.88412     14.12798  1.81868  0.80734   8.60659  0.16629     0.01783   8739.54892     4972.975   0.8752         3409.70797     19.21567  0.00913  56230.14552  3.92136  0.21656    779170.39361  45.71694  19.21546      56291.8    51.15106       44.37019   37.83568   46.4347   44.5    0.16317   -21.6121  0.99116 
  -14.20353   0.1344  3.06759     13.64013  1.95004  1.37529   2.84853  0.33404     0.01843   8212.95714   9589.58301  0.98663         2959.00244     18.64945  0.00248  56224.89247  1.14616  0.38285   8937157.24401  44.63409  19.18897      56287.9    51.24914       44.38644   36.11588  53.31392   40.5    0.17659  -21.56929  0.98315 
   -9.86149  0.05915  3.81649     14.45615  2.01067    0.292   2.70804  0.25809     0.32037   8051.44574     9690.289  0.96069         3679.77959     17.71259  0.00029  56229.23451   1.0472  0.16019    332796.69734  45.88668  19.20867    56289.076    51.15742       44.42149   37.83568  39.55549   55.0    0.15991  -21.56287  0.98994 
  -10.79117   0.2079  3.45671     13.86384  1.73033  1.20943  10.27381  0.07933     0.01353   8775.39442   9442.80105  0.75535         3420.72928     18.12217  0.00074  56228.30483  4.71945  2.13597    3594159.4363  44.87405  19.23191      56290.9    51.19251       44.41608   30.95647  48.15451   42.0     0.1711  -21.59513  0.87795 
  -17.15685  0.18622  2.72356     13.46219  1.74283  1.50715   3.30353   0.1828     0.01377   6572.18154   6139.59073  1.17061         3544.37025      20.0858  0.06769  56221.93915  0.85119   0.6152  14287743.01512  44.48486  19.21852    56289.076    51.13907        44.3799   36.11588  42.99509   62.5    0.15062  -21.58435  0.97413 
  -13.59299   0.0359  2.70186     13.95105  1.53854  0.59994   4.75052  0.27454     0.01351   8073.44231   8700.26318  1.13955         3243.47642     16.89726    4e-05  56225.50301  1.84708  0.17052   1306601.40778  45.47649  19.19916      56287.9    51.12562        44.4296   29.23666  37.83568   41.0    0.19089  -21.57479  0.99199 
   -7.27054  0.01956  2.74767     14.04367  1.60331  0.92207   5.88133  0.19011     0.03613    8092.6041   3811.97413  1.26788          3482.4637     19.27703  0.01051  56231.82546  2.29763  0.11502    919228.11322  45.63251  19.21726    56290.061    51.16492       44.43882   32.67627  41.27529   48.5     0.1678  -21.56429  0.99484 
  -14.08764  0.00411  2.63772     13.54953  1.36346  1.49399   2.76198  0.30496     0.02612   7576.28742   5698.82215  0.95137         3593.25221     18.25202  0.00099  56225.00836  0.94572  0.01136   7012311.23527  44.71517  19.20976    56289.076    51.17657       44.46269   32.67627  39.55549   50.0    0.17392   -21.5585  0.99938 
  -10.17927  0.07732  2.82418     14.07821  1.69955  0.81329   9.93488  0.12681     0.01514   8915.79568    5323.2043  0.47977         3506.12013     16.38944    1e-05  56228.91673  4.71097  0.76813     878028.1403  45.65389  19.18955    56289.076    51.17967       44.46212   30.95647  41.27529   44.0    0.17842  -21.58649  0.96748 
  -10.99735  0.15941  2.74065     14.04242  1.63816  0.72177   6.38464  0.20983     0.01394    8524.0566   5207.58216  1.17055         3242.14212      20.0225  0.05851  56228.09865   2.7673  1.01779    939813.52712  45.63445  19.20807    56290.061    51.11716       44.37694   39.55549  41.27529   44.0    0.18937  -21.64747  0.95741 
   -9.20078  0.01385  2.73307     14.20396  1.98855  0.88897   9.50456   0.1964     0.28831   9415.65891   6348.72278  0.57298         3394.27366     16.48869    2e-05  56229.89522  5.02644  0.13168     539171.4921  45.96235  19.19543    56289.076    51.22111       44.37665   36.11588  49.87431   52.0     0.1446  -21.61768  0.99578 
   -6.22137  0.06354  2.36006      14.3464  1.67093  0.50572   7.40071  0.22305     0.01331   8441.21807   9227.55152  1.38685         3360.49986     16.96332    5e-05  56232.87463  3.14565  0.47024    175317.29906  46.50213  19.19065    56290.061    51.12983       44.35746   36.11588   46.4347   37.0    0.17942  -21.55731   0.9856 
  -11.81123  0.04882  2.74278     13.67268  1.32415  0.73438    6.8364   0.0842     0.01992   8268.08095   5394.59663  1.26657         3165.57565     16.46594    2e-05  56227.28477  2.78782  0.33379   4176183.99797  44.89362  19.18999    56289.076    51.11506       44.38332   36.11588  41.27529   61.0    0.14348  -21.56984  0.97936 
   -9.84464  0.00507  2.84878     14.22486  1.78728  0.48876   4.67686   0.3075     0.01356   8927.16282   6276.84421  0.62217         3533.26889     16.84972    4e-05  56229.25136  2.22336  0.02372    478190.90515  45.93212    19.193      56287.9     51.1175       44.42108   34.39608  37.83568   40.0    0.22412  -21.58038  0.99902 
