 texplosion  fnickel    Pspin  log(Bfield)      Mns  thetaPB   mejecta    kappa  kappagamma      vejecta  temperature    alpha  cutoff_wavelength  log(nhhost)      A_V         MJD0   kenergy  mnickel            TSD   log(L0)  Peak_mag     Peak_MJD  log(E_rad)  log(Peak_lum)  Rise_Time    E_fold  tau_1  delta_m15     r_peak     frac 
   -2.98964  0.02546  0.93298      14.7535  1.96149   0.7229  14.54673  0.08508     0.16832  17081.76966   7858.19127   0.2072         3654.72712     17.63145  0.00024  56920.31036  25.31968  0.37036     4933.49866  48.92853  21.32442  56957.58674    51.03519       44.53206   10.21503  28.09132   22.0    0.54918  -21.85048  0.99959 
   -4.31172  0.09414  1.73262     14.45088  1.73349  1.10832   4.52654  0.29373     0.46929  17622.78111   6308.09923  0.24528         3667.89209     17.91757  0.00046  56918.98828   8.38576  0.42615    60586.87776  47.24798  21.34672  56959.97195    51.01175         44.494   15.32254  28.09132   26.0    0.43444  -21.62143  0.99419 
   -4.97447  0.01232  1.58808     14.39638  1.68138  1.02576   4.40955  0.25477     0.10764  17101.37935   7314.36037  0.18871          2496.2284     20.27046  0.10356  56918.32553   7.69279  0.05434    63455.54687  47.29029  21.37072  56957.58674    51.00751       44.48114   12.76878   29.3682   24.0    0.49587  -21.68392  0.99933 
    -4.3974  0.00283  1.29819     14.43861   1.7351  1.16896   4.06429  0.31477     0.14187   17709.1108   6939.38132  0.05079         2477.51383     20.00821  0.05662   56918.9026   7.60336  0.01151    36024.33904  47.72489  21.33519  56957.58674    51.02541       44.50049    17.8763  26.81444   23.5    0.48452   -21.6526  0.99993 
   -5.34762  0.04014  2.32175     14.41321   1.8636  1.23743   3.90519  0.21877     0.21786  14856.33688   7260.76337  0.19753         4728.07505     18.56708  0.00205  56917.95238   5.14154  0.15674    139116.6536  46.66419  21.29239     56956.21    51.04932       44.54761   16.59942  23.06429   25.5    0.46938  -21.53813  0.99617 
   -4.07549  0.09079  1.35514     14.41131  1.63073  1.17075   5.59487  0.21676     0.12305  17890.57264   6865.66765  0.06522          5203.2725     19.16955  0.00821  56919.22451  10.68232  0.50795    41836.28808  47.59571  21.36317  56957.58674    51.01174       44.50405   12.74978  28.11032   24.5    0.48305  -21.70141  0.99598 
   -3.46454  0.05855  1.23695     14.50532  1.84481  1.41172   6.16483  0.19718     0.38595  16270.77318   7029.00566   0.3724         3254.71764        16.58    2e-05  56919.83546   9.73564  0.36096    25575.79051  47.94226   21.3305  56957.58674    51.02339       44.49234   12.76878  28.09132   25.0    0.48368   -21.6697  0.99854 
   -3.95783  0.00332  0.86885     14.59191  1.85415  0.86508  11.48011  0.13027     0.11238  18997.78466   6905.97709  0.16597         2267.28383     20.38823  0.13582  56919.34217  24.71605  0.03812     8511.86695  48.72907  21.32134  56957.58674    51.04795       44.55764   14.04566  25.53757   24.0    0.42455  -22.07553  0.99995 
   -5.96418  0.32534  3.45588     14.51443  1.73423  0.57305   2.13522  0.22697     0.38479  13225.54642   4873.66425  0.40722         4732.44047     16.81606    4e-05  56917.33582   2.22791  0.69468   179963.88437  46.17565  21.31064  56957.58674    50.99795       44.48357    17.8763  24.26069   32.0    0.47646  -21.52776  0.95813 
   -4.46778  0.17381  2.21379     14.42121  1.78171  1.22598   3.63356  0.28516     0.25078  16601.16439   7320.44047  0.21518         3910.99454     19.03585  0.00603  56918.83222   5.97361  0.63155   116547.26618   46.7629  21.29756  56957.58674     51.0331       44.50706    17.8763  24.26069   25.0    0.47711   -21.5915  0.98537 
   -3.48524  0.00982   1.2196     14.37794  1.62182  1.47671   5.19192   0.2779     0.07365  19222.34205   7766.56849  0.38683         2325.22574     19.88637  0.04277  56919.81476  11.44373  0.05101    39298.64938  47.71203  21.27097  56957.58674    50.98022       44.48808   19.15317  22.98381   22.0    0.49933  -21.76918   0.9997 
    -5.2701  0.04797  2.83368     14.26652  1.69384  1.50323   2.80897  0.31203     0.28429  16518.18471    5790.4227  0.58853         2803.39364     19.58426  0.02133   56918.0299   4.57192  0.13474    370126.3955  46.02466  21.34378  56957.58674    50.99907       44.48853   15.32254  25.53757   27.5    0.48679  -21.62288  0.99417 
   -3.99002  0.42423  2.45271     14.76416   1.7795   0.4516   3.66842  0.25233      0.1366  16742.91509   5768.50345   0.4162         3193.94141     16.83818    4e-05  56919.30998   6.13435  1.55627    29450.00669  47.27077  21.28313     56956.21    51.02346       44.51333   15.89218  23.69105   27.5    0.46404  -21.59597  0.95638 
   -4.48566  0.47584  2.38888     14.31428    1.583  1.32171   3.24176  0.27111     0.30224  16443.19466   4130.62405  0.41481         3049.42512     17.21441    9e-05  56918.81434   5.22854  1.54255   197299.10199  46.41681  21.41069  56957.58674    50.99874       44.47688   14.04566  28.09132   28.5    0.46369      -21.6  0.95068 
   -4.37514   0.0429  1.41454     14.42156    1.699  1.26291   6.02008  0.22099     0.08945  17727.17044   6849.79632  0.01518         3260.39711     18.77392   0.0033  56918.92486  11.28517  0.25828    45302.62641  47.54169  21.33281  56957.58674    51.06441       44.56777    11.4729  26.83344   24.5    0.45856  -21.60358  0.99788 
   -3.33585  0.17256  1.17959     14.67252  1.76601  0.65735   5.34697  0.27591     0.11825  19042.34932    6665.1061  0.31038         3556.69655     19.98386  0.05353  56919.96415  11.56581  0.92267    10309.51591  48.35913  21.41121  56957.58674    51.00171       44.49302   14.04566  26.81444   25.5    0.46585  -21.70844  0.99632 
   -3.87283  0.01058  1.16629     14.50713  1.78345   1.1098  10.66498  0.11506      0.1375  16974.83095   7122.77037   0.2128         3887.68508     19.71415  0.02877  56919.42717   18.3315   0.1128    21798.40315  48.04807  21.34428  56957.58674    51.11758       44.60425    11.4919  27.39814   24.0    0.50965  -21.60452  0.99957 
   -4.10739  0.00494  1.88942     14.20673  1.37277  1.45082   3.35093  0.32699     0.27801  16794.53715    7617.7367   0.7299         2568.74865     19.34488  0.01229  56919.19261   5.63805  0.01655    175634.4372  46.60918  21.34496  56957.58674     50.9869       44.46733   16.59942  24.26069   24.5    0.45819  -21.59154  0.99957 
   -4.01138  0.06532  1.01172     14.55557  1.77871  0.95567   4.46561  0.32653     0.17315  18201.88532   6998.90062  0.03804          4751.3364     19.84121  0.03854  56919.28862   8.82552  0.29167    13088.66173  48.39193  21.35887  56957.58674     51.0201        44.4859   12.76878   29.3682   23.5    0.50104  -21.78204  0.99933 
   -3.78206   0.1281  1.63879     14.36188  1.60494  1.51262   4.90315  0.20965     0.17261  15779.87295   6771.84686  0.28421         4960.02382     18.75951  0.00319  56919.51794   7.28298  0.62807     75605.2444  47.16671  21.31125  56957.58674     51.0357       44.51182   17.17441  24.96257   25.5    0.48956  -21.61031   0.9915 
   -5.79858  0.49976  2.68827     14.15578  1.38764  1.20911   2.59177  0.29346     0.22692   16927.2783   4119.17579  0.33119         2266.30081     19.59676  0.02195  56917.50142   4.42994  1.29526   454435.13536  45.89471  21.33125  56957.58674     50.9828       44.43347   16.59942  27.19426   29.5    0.49472    -21.617  0.93574 
   -6.07959  0.24335  3.83608     14.20981   1.6207  1.03112   2.54613  0.25449      0.1663  16913.60532   5402.62852  1.60018         2251.54904     17.13485    8e-05  56917.22041    4.3449   0.6196    842714.6486  45.38509  21.36039     56956.21    51.05782        44.5043    11.4729  26.83344   30.5    0.46973  -21.59614  0.94925 
   -2.62599  0.40411  2.22053     14.39648  1.63243  1.14808   3.60077  0.31627     0.13336   18281.1623   5665.84663  1.61311         2181.25531     17.98052  0.00053  56920.67401   7.17845  1.45511   120391.38348  46.70817  21.36163  56959.97195    50.98145        44.4643   19.15317  25.53757   27.0    0.44302  -21.62859  0.96207 
    -3.1274  0.24925  1.05947     14.43253  1.35458  0.81487   4.34223   0.3097     0.34933   18061.7536   5776.41237  0.43885         2352.71711     19.09331  0.00689   56920.1726   8.45006  1.08229    19263.95757  48.06573   21.3815  56957.58674    51.02262       44.49147   14.04566  26.81444   26.0    0.45186  -21.64939  0.99434 
   -2.76448  0.17329  0.97905     14.51443  1.60579  0.95598   5.21819  0.27936     0.25071  18995.95306   6185.05891  0.49729         2047.56933     19.04637  0.00618  56920.53552  11.23231  0.90424    13373.53931  48.36667  21.40232  56957.58674    51.11102       44.58144    11.4919  28.09132   25.0    0.49541  -21.63534  0.99779 
   -6.76245  0.39394   3.8331     14.38362  1.72777  0.74695   2.28322  0.28098     0.36028  15914.75848   4488.56382  0.67564         2373.10528     16.84722    4e-05  56916.53755   3.44965  0.89945   402874.00403  45.73406  21.37428  56957.58674    50.98226       44.45596   15.32254  28.09132   32.5    0.44784  -21.52688  0.93437 
   -3.59791  0.00546  0.75767     14.59023  1.90455  1.12243  11.40991  0.14137     0.05979  19033.40447   7163.29433  0.08989         3441.59108     19.82999  0.03756  56919.70209  24.65712  0.06225     6700.59748  48.96356  21.32714  56957.58674    51.04978       44.53494   14.04566  26.81444   24.0    0.46193  -21.77056  0.99996 
   -3.59462  0.29705  1.42261     14.52584  1.86844  1.25399   5.15308  0.24448     0.13938  18601.17971    6542.4463  0.13964         4896.80478     19.69754  0.02769  56919.70538  10.63591  1.53074    31172.92485  47.74038  21.33957  56957.58674    51.04229       44.51246   12.76878  28.09132   26.0    0.47989  -21.73013  0.99057 
   -6.59296  0.00218  3.25011     14.15051  1.67421  1.52953   1.72521  0.33235     0.27807  15291.30283     6911.678  0.50977          3047.2278     20.24538  0.09775  56916.70704   2.40634  0.00375   821094.54384  45.55446  21.34163  56957.58674    51.03035        44.5288    11.4729  26.83344   30.5    0.48617  -21.65225  0.99978 
   -5.28892  0.21479  2.46587     14.41551  1.68115  0.98584   3.40594  0.26655     0.29902  15608.49181    6702.5208  0.33012         4165.13044     16.00027    1e-05  56918.01108   4.94978  0.73155   140071.71099  46.56416   21.3225  56957.58674    51.00666       44.48328   15.89218  24.96792   27.0    0.48554  -21.54298  0.97662 
   -3.41879  0.07614  1.06012     14.43456  1.66553  1.41071   4.49118  0.32977     0.27963  18686.18007   6126.65808   0.0976          3081.4757     18.38834  0.00136  56919.88121   9.35468  0.34196    23494.52633  48.06872  21.32204  56957.58674    51.02898       44.50514   16.59942  24.26069   25.0    0.48671  -21.59907  0.99892 
   -6.27061  0.15618  3.30174     14.30194   1.5082  0.71014   2.59931  0.25031     0.20746  16483.10641   3271.07721  0.36394         2931.94255     18.99815  0.00553  56917.02939   4.21273  0.40597   380089.32925  45.82993  21.32941  56957.58674    51.01467       44.51222    17.8763  24.26069   30.0    0.47535  -21.59568  0.97198 
   -5.85626  0.07224  4.07851     14.43426  1.97861   0.8708   3.29772  0.22984     0.15543  16542.78287   5468.29056  2.01041         2104.83835     17.94749  0.00049  56917.44374   5.38342  0.23821   413669.56472  45.72755  21.34203  56957.58674    51.01667        44.5196   14.04566  26.81444   29.0     0.4724  -21.55303  0.98313 
   -6.26442  0.27148  3.18424     14.39335  1.76767  0.86122    2.6833  0.26177     0.18745  16297.62435   5572.69868  0.12927           2095.178     17.91491  0.00046  56917.03558   4.25153  0.72847   271971.33448  46.07571  21.35829     56956.21    51.00543       44.49872   17.17441  23.68569   28.5    0.49361  -21.56701  0.96367 
   -3.87281  0.07912  1.28947     14.45175   1.7254  1.28185   5.96993   0.2553     0.15294  18351.17914   6218.13531  0.16335          3027.6829     18.63642  0.00241  56919.42719  11.99291  0.47233    33268.17086  47.76288  21.32581  56957.58674    50.96831       44.44093    17.8763  25.53757   26.5    0.42004  -21.60691  0.99728 
   -3.80402  0.13872  1.65808     14.65161  1.93326  0.74431   4.92614  0.23236     0.22589  17180.32462   6638.94707  0.32566         2401.08117     19.86262  0.04049  56919.49598   8.67355  0.68337    24552.83247  47.72582  21.35844  56957.58674    51.02262       44.49709   14.04566  28.09132   25.5    0.46964  -21.61943  0.99334 
   -4.79104   0.0485  2.47064     14.45131  1.91082  1.18111   3.28815  0.30534     0.22985  15903.09746   6606.02639  0.36261         3367.50449     16.07895    1e-05  56918.50896    4.9607  0.15947   135529.54692  46.63241  21.37427  56959.97195    51.01393       44.47941   15.32254  28.09132   26.5    0.47418   -21.5555  0.99574 
   -3.40421  0.21831  1.60838     14.66641  1.84415  0.72534   4.96862   0.2695     0.29407  18382.71902   6634.24504  0.37621         3429.51342     17.83849  0.00038  56919.89579  10.01572  1.08471    20586.02193  47.80829  21.32209  56957.58674    50.99182       44.49225    17.8763  24.26069   27.0    0.45153  -21.62035  0.98998 
     -6.546  0.31863  3.78998     14.38226  1.92285  0.80313   2.02562  0.28878     0.47987  17615.88966   4893.75186  0.03991          2844.5196     20.09884  0.06975    56916.754   3.74969  0.64542   441076.03333    45.751  21.34196  56957.58674    50.99558       44.46848   15.32254  28.09132   32.0    0.51862  -21.70232  0.95971 
   -4.30154  0.14887  1.49884     14.42787  1.64684  1.21432   5.32834  0.20881     0.15366  16140.05695   6497.79181  0.30101         4082.45327     17.80642  0.00036  56918.99846   8.27999  0.79321     47889.3209  47.45375  21.35564     56956.21    50.99144       44.45381   14.04566  28.47114   26.5    0.47273  -21.57659  0.99215 
   -3.68073  0.05397  1.45493     14.45526  1.84032  1.42337   4.73801  0.28172     0.05916  17564.39187   7072.02024  0.47592         2451.75507     19.95016  0.04953  56919.61927   8.71946  0.25569    44450.21549  47.56018  21.32534  56957.58674    51.05501       44.48529   12.76878  28.09132   23.5    0.45785  -21.65602  0.99807 
   -3.85075  0.06358  1.19964     14.55895  1.72136  0.85415   7.80473  0.17058     0.14874  17556.67649   7011.91348  0.07386          4017.2074     17.93294  0.00048  56919.44925  14.35059  0.49622    17534.50851  48.10272  21.30378  56957.58674    51.05893       44.55239    17.8763  24.26069   25.0     0.4434  -21.59983  0.99773 
   -6.46927  0.03428  3.45635     14.21738   1.7185  1.40487   2.08871   0.2874     0.28296  15236.93544   6103.96436  0.20014         3323.56816     17.95582   0.0005  56916.83073   2.89268  0.07161   700553.59827  45.58132  21.32444  56957.58674     51.0188       44.49649    11.4919   29.3682   30.0    0.50114  -21.52283  0.99545 
   -3.90032  0.07334  1.17845     14.42953  1.54653  1.03909   4.07993  0.30133     0.12978  17693.80788   6814.69052    0.041          4643.2147     18.52272  0.00185  56919.39968   7.61943  0.29923    27588.15741  47.87486  21.29593     56956.21    51.00422       44.46186   16.59942  25.53757   23.5    0.51659  -21.58922  0.99833 
   -4.39358  0.09511  1.71194     14.57173  1.75045  0.75393    4.7933  0.26429     0.15726  17591.28231   5616.06588  0.19723         3839.48618     19.16944  0.00821  56918.90642   8.84824  0.45589    34236.76643  47.51053  21.34083  56957.58674    51.01399       44.51471    11.4919  28.09132   25.5    0.45762  -21.62974  0.99406 
   -4.05936  0.07118  1.39565     14.60541  1.60312  0.61757   4.88402  0.28323     0.07675   18099.9856   8020.05181  0.26684         2503.21155     18.95654  0.00503  56919.24064   9.54468  0.34764    17844.91982  47.93274  21.37365  56957.58674    51.04906       44.50816   12.76878  26.81444   22.5    0.43875  -21.64965  0.99692 
   -2.50973  0.14993  0.78127     15.00542  1.90135  0.40664   9.60757  0.12377     0.07716  16041.88191   7521.81182  0.41601         3831.40694     18.51375  0.00181  56920.79027  14.74862  1.44042     1051.07366  49.74068  21.34888  56957.58674    51.01309       44.49124   15.32254  26.81444   26.0    0.38897  -21.84455  0.99929 
     -3.849  0.00338   1.6229     14.47292  1.98483  1.43336   4.28159  0.32027     0.18948  18303.98566   6392.89225  0.03988         5267.17124     19.99574  0.05501    56919.451   8.55704  0.01446    54989.87948   47.4057  21.32989  56957.58674    51.00525       44.47991    17.8763  25.53757   25.0    0.48592  -21.71246  0.99987 
   -7.38432  0.04421  4.15627     14.13136  1.76241  1.33245   1.94711  0.24347     0.18794  16716.41519   4743.58955  0.22598         2591.38081     19.08268  0.00672  56915.91568   3.24566  0.08608  1543857.27193  45.08894  21.30008     56956.21     51.0139       44.47759   16.59942  25.53757   32.0    0.48532  -21.58316  0.99233 
   -6.14461  0.06889  3.90922     14.22686  1.79591  1.26669    1.8562  0.33146     0.24909  16370.67721   5270.30581   0.7189         2563.77592     18.99182  0.00545  56917.15539   2.96747  0.12788   896531.30141  45.38639  21.30553  56957.58674    51.02214       44.52225   15.89753  24.96257   30.0     0.4796  -21.59147  0.99028 
    -4.9334  0.06372  2.18191     14.21391   1.4095  1.35936    3.6458   0.2322     0.15358  15036.26985   5924.96927  0.46193         3849.90407     16.17961    1e-05   56918.3666     4.917  0.23231   232667.69968   46.3735  21.30175  56957.58674    51.02375       44.49474   15.32254  26.81444   27.0    0.46834   -21.5582  0.99227 
    -6.3847  0.13382  3.04634     14.28222  1.57076  0.94259   2.66775  0.28127     0.15138  15930.59529   5547.42758  0.41004         2971.34712     19.08904  0.00682   56916.9153   4.03865    0.357   369015.45025  45.93035  21.38128  56957.58674    51.01977       44.49483   14.04566  28.09132   28.0     0.4873  -21.55584  0.98019 
   -4.65435  0.00388   2.5171     14.34947  1.77031  1.16611   3.17905  0.30998     0.28879  16461.44374   6270.82617  0.76024         2467.87666     20.08668  0.06783  56918.64565   5.13879  0.01232   208317.13293  46.39637  21.43786  56959.97195    51.00799       44.45939   14.04566  29.74802   27.0    0.44767  -21.64658  0.99961 
   -3.56586  0.10758  1.01581     14.53769  1.67728  0.95492   6.51979   0.2166     0.24742  18444.52485   7065.47223  0.00761         5654.26898     16.81022    4e-05  56919.73414   13.2311  0.70143    13510.33113  48.34916  21.34976  56959.97195    51.04029       44.52689   14.04566  28.09132   25.0    0.45466  -21.69839  0.99823 
   -5.07018  0.22551  2.68892     14.33393  1.74462  1.48676   3.84389  0.23392     0.27049  16331.34055   5164.28873  0.30757         3590.31092     17.17664    8e-05  56918.22982   6.11564  0.86684   251656.36131  46.25058  21.35427  56957.58674    51.00667       44.48295    11.4919   29.3682   28.0    0.46935  -21.59896  0.96879 
   -4.90455  0.07687  2.84064     14.52511  1.86993  0.74666   2.09148  0.30838     0.37342  12941.34538   5920.32179  0.43352         4251.18165     16.30413    1e-05  56918.39545   2.08949  0.16078   124809.65009  46.53759  21.37581  56957.58674    51.10173       44.59585   14.04566  26.81444   28.5    0.46425  -21.50019  0.99401 
   -6.10807  0.07106  3.47431     14.34218  1.74007  0.91672   2.79148  0.27141     0.32951  16415.41094   5232.14778   0.7593         2383.19982     18.53932  0.00192  56917.19193    4.4871  0.19835   403423.90322  45.82191    21.349  56957.58674    51.01275       44.50275   15.32254  25.53757   29.0    0.47895  -21.56229   0.9876 
   -3.95438  0.31138  1.46201     15.02188  1.82398  0.28935   7.10493  0.16286     0.01943  16074.15374   7437.21063  0.28417         3617.61602     18.69261  0.00274  56919.34562  10.95073  2.21236     3273.20796  48.68499  21.29618  56957.58674    50.99448       44.47966    17.8763  25.53757   23.0    0.53752   -21.6415  0.98408 
   -5.75777  0.05948  3.11679     14.31825  1.80758  1.36018   2.87121  0.26793     0.21183  15400.55865   5391.60947  0.30671         3550.04969     17.34011  0.00012  56917.54223   4.06223  0.17078   376549.10995   45.9627  21.32716  56957.58674    51.07087       44.52421   12.76878  28.09132   28.0    0.49589  -21.53911   0.9919 
   -3.37925  0.01111  1.68341     14.36199  1.62129  1.38486   4.53894  0.25725     0.26852  17131.51761   7520.99027  0.38255         3001.18576      19.0787  0.00666  56919.92075   7.94646  0.05042    80552.85019  47.12024  21.34034  56957.58674    51.00237       44.50354    17.8763  24.26069   24.5    0.50629   -21.5933  0.99927 
    -5.8223  0.02876  2.44742     14.12725  1.37153  1.52466   2.98333  0.28921     0.42828  16455.75144     6594.985  0.20348         4494.36619     18.05875  0.00064   56917.4777   4.81908  0.08579   424560.45592   46.0007  21.37723  56957.58674    51.01357       44.46039   15.89753  27.51633   27.0    0.50666  -21.61481  0.99619 
   -4.16977   0.1033  1.37535     14.56575  1.85465  0.91745   4.95537  0.26339     0.13791  17912.75986   7023.10242  0.01186         5102.39766     19.88654  0.04278  56919.13023    9.4848  0.51187    24065.76369  47.87888  21.37385  56957.58674    51.02835       44.48181   12.76878  30.64508   24.5    0.49494  -21.66837  0.99685 
   -6.80035  0.20277  3.44817     14.29254  1.63263  0.86472   1.90332  0.27871     0.20945  14109.97092   4482.61034  0.27774           3680.596      16.9999    6e-05  56916.49965   2.26043  0.38593   468604.07205  45.73575  21.32573  56957.58674    51.04916       44.54179   12.76878  28.09132   31.5    0.46276  -21.47837  0.97416 
   -6.44934  0.03984  3.94978     14.34877  1.67656  0.69152   2.15759  0.25662     0.14848  15354.05918    5170.6806  0.96493         3067.90861     16.79802    3e-05  56916.85066   3.03418  0.08596   487346.65487  45.61228  21.35045  56957.58674    51.03203       44.51225   15.32254  26.81444   30.0    0.46603   -21.5654  0.99258 
   -4.90278  0.38679  2.38494     14.43599  1.70613  0.93808   2.88107  0.30284     0.24373  15415.32506   4407.71998  0.35148          3472.6867     19.15691  0.00797  56918.39722   4.08401  1.11438   121006.15238   46.6631  21.35559  56957.58674    51.03067       44.49213   14.04566  29.74802   28.5    0.47057  -21.56266  0.96783 
    -3.7894  0.18552  1.80566     14.56845   1.6235  0.65115    3.9688  0.29191     0.12629  17662.22718   6849.86645  0.28986         3301.29569      18.8953  0.00437   56919.5106   7.38546   0.7363    35862.86154  47.41138  21.35076  56959.97195    51.03671       44.50264   15.32254  25.53757   25.0    0.49038  -21.64261   0.9875 
   -3.24095   0.1664  0.97731     14.80803   1.8574  0.58142   8.18527  0.13989     0.32491  16891.86925   6609.66577  0.15679         4463.58381     17.12851    7e-05  56920.05905  13.93206  1.36201     3987.77298  48.95696  21.35828  56957.58674    51.05816       44.51745   14.04566  26.81444   25.5    0.51873  -21.57998  0.99799 
   -6.08797  0.28274  3.05317     14.48676  1.61404  0.57485   2.72571  0.24135     0.10091  14636.87169   6559.24992  0.27683         4611.61289     17.16248    8e-05  56917.21203    3.4834  0.77067   148493.88971  46.33555  21.31838  56957.58674    50.98782       44.45445   14.04566  28.47114   28.0    0.47667  -21.55077  0.95966 
   -4.56296  0.04827  1.13935     14.44789  1.73468  1.19683   5.81107  0.23616     0.19495   18482.0788   6795.83818  0.00317         5342.23179      20.0644  0.06444  56918.73704  11.84091  0.28049    26581.60644  47.97017  21.31693  56959.97195    51.01066       44.49387    17.8763  25.53757   24.0    0.49564  -21.75761  0.99886 
   -3.55706  0.11251  1.42122     14.44478  1.70888  1.25797   4.27046  0.27351     0.24095  16561.91223   6617.11679  0.35748         3460.95933     17.55992   0.0002  56919.74294   6.98752  0.48045    41332.74881  47.57994  21.37465  56957.58674    51.04803       44.50211    11.4919   29.3682   26.0    0.44875  -21.62753  0.99619 
    -3.3744  0.14114  1.10507     14.54928  1.77337  0.98501   4.76806  0.30519     0.46438   18942.4302   5459.59089  0.08145          3445.0935     19.56272   0.0203   56919.9256  10.20565  0.67298     16026.4812  48.22602  21.35875  56957.58674    51.06375       44.50848    11.4729  28.11032   25.5    0.48936  -21.64127  0.99792 
   -6.86224  0.01369  3.52195     14.27094   1.8709  1.45324   2.66054  0.25542      0.2683  15462.06824   6807.35392  0.21678         4156.04313     16.92528    5e-05  56916.43776    3.7943  0.03641   618798.52996  45.65578   21.3352  56957.58674     51.0468        44.4973    11.4919   29.3682   29.0    0.49046  -21.57947  0.99788 
    -3.8007  0.30371  1.01576     14.42701   1.5749  1.46381   8.57978  0.13804     0.08392  18929.74501   5201.86582  0.01528         3449.62556     19.88011  0.04215   56919.4993  18.33973  2.60574    21116.65187  48.12789  21.28683  56955.20154    50.99925       44.49885    17.8763  24.26069   27.5    0.47919  -21.67563  0.99269 
   -2.94581  0.00954  1.48102     14.52899  1.69214  0.72965   4.21393  0.28896     0.43569  17568.98055   6729.71495  1.27582         2128.66359     20.40844  0.14229  56920.35419   7.75903  0.04019    30157.39882  47.67676  21.36956  56957.58674    51.03548       44.52493   12.76878  28.09132   25.5    0.42659  -21.75709   0.9996 
   -5.03193  0.00432  2.23439     14.36341  1.82772  1.36564    3.3527  0.28124     0.16134  16553.75297   6649.87744  0.09825         2157.27342     19.82412  0.03706  56918.26807   5.48044  0.01447   158933.12406  46.63122  21.30881  56957.58674    51.06111       44.57156   14.04566  25.53757   25.0    0.51767  -21.62393  0.99966 
   -4.08944  0.06058  1.23688     14.50675  1.88349  1.34605   6.27139   0.2207     0.12126   18539.8606   6615.36514  0.01399         3392.54134     19.72466  0.02947  56919.21056   12.8589  0.37991    25938.17189  47.94521  21.37122  56957.58674    51.08573       44.57437   12.76878  28.09132   24.5    0.46319  -21.70331  0.99846 
   -3.12902    0.004  1.05308     14.62918  2.01133  1.05967   10.3061  0.13778     0.20652  16923.86978   6463.79255  0.37252         3285.58924     18.32515  0.00117  56920.17098  17.60844  0.04118    11424.98462  48.46955  21.31663  56957.58674    51.04181       44.51905   15.89753  24.96257   25.5    0.44648  -21.62831  0.99993 
   -6.88747  0.32406  3.26241     14.23597  1.59188  1.04043     2.004  0.31041     0.39927  15464.36753   5437.02469  0.20173         3093.11058     18.06226  0.00064  56916.41253   2.85884  0.64941   530707.02141  45.71883  21.32935  56957.58674    50.96906       44.43865    17.8763  25.91738   31.5    0.46554  -21.53176  0.96021 
   -4.52763  0.43409  2.83739      14.3591  1.72914  1.35495    2.7255   0.3245     0.24176  15339.51452   3489.83423   0.8137         3196.18219     16.80311    4e-05  56918.77237   3.82557  1.18312   247334.12204  46.20756  21.33504     56956.21     50.9823       44.44875   15.32254  27.19426   29.5    0.43988  -21.54869   0.9527 
   -3.16866  0.24573  1.09529     14.81206  1.85522  0.61573   8.87541  0.12594     0.29325  17760.90804   6188.78167  0.23513         4336.59247     16.69631    3e-05  56920.13134  16.70113  2.18091     4910.70486  48.76704  21.35769  56957.58674    51.03599       44.49023   12.76878   29.3682   27.0    0.52113   -21.6337  0.99558 
   -6.32524  0.00544  3.42217     14.21042   1.7024  1.36383   2.31119  0.33935     0.16079  16552.46424    6116.5327  0.74739         2153.82983     19.20693  0.00895  56916.97476   3.77736  0.01258   702502.14375  45.58466  21.35178  56957.58674     51.0313       44.49624    11.4919   29.3682   28.0    0.46829  -21.58216   0.9992 
   -5.59783  0.36361  2.47953     14.60198  1.75394  0.64323   3.57705  0.25691     0.26487  16779.73633   5679.43683  0.08533         4350.32485     17.93964  0.00048  56917.70217   6.00789  1.30064    62604.62216  46.92751  21.36734  56957.58674    51.00549       44.45561    17.8763  25.53757   27.5     0.4787  -21.53168  0.96144 
   -3.23074  0.22407  0.98056     14.70717  1.70041  0.55045   4.91162  0.25519     0.28595  17173.92418   6537.33669  0.54387         2519.40434     20.39376  0.13756  56920.06926   8.64154  1.10053     5847.55448  48.74948  21.37122  56957.58674    51.03106       44.52234   10.21503  30.64508   26.5    0.44016  -21.70246  0.99735 
   -4.16489  0.30276  1.74639     14.31354   1.4812  1.47473   4.45597  0.22815     0.05566  15044.65261   7424.45039  0.54557         3139.78648     17.93444  0.00048  56919.13511   6.01636   1.3491    98997.68623  46.95955  21.35967  56957.58674    51.04362       44.51469   12.76878  28.09132   25.5    0.43233  -21.50953  0.97581 
   -4.67091  0.10137  1.76882     14.49477   1.7966  0.97496   4.53823  0.23822     0.33033  16764.09904   6897.81856  0.03726         4749.31625     17.49301  0.00017  56918.62909   7.60806  0.46004    53467.17278  47.29984  21.28728  56957.58674     51.0702        44.5713   17.17441  23.68569   25.0    0.50222  -21.60325  0.99374 
   -3.80476  0.30851  1.49383     14.39358   1.6354   1.3703   4.82875  0.25339     0.10465  17877.17946   6533.96569  0.30573         2785.35749     19.75423  0.03155  56919.49524   9.20576  1.48971    55319.66067  47.39099  21.38752  56957.58674    51.00161       44.46958   15.32254  26.81444   26.0    0.45084  -21.65745  0.98504 
   -3.29421  0.24125  1.24479      14.5548   1.9515  1.42564    4.0235  0.29647     0.13165  17714.40382    7559.1239  0.09876         5716.38059     17.98301  0.00053  56920.00579   7.53154  0.97069    21815.91997  48.03025  21.35001  56957.58674    51.02264       44.49815    11.4919   29.3682   23.5    0.47826  -21.62129  0.99668 
   -5.70178   0.1217  2.85991     14.33446  1.71652  1.15789   2.60045  0.30265     0.40331  14931.35191   6833.11569  0.44866         3261.49433     16.16818    1e-05  56917.59822   3.45839  0.31647   279414.14742  46.14454  21.30531  56957.58674     51.0048       44.48708    17.8763  25.53757   28.0    0.48239  -21.50892  0.98646 
   -6.05873  0.20188  3.28122     14.57142  1.75522  0.51035   2.39713  0.27391     0.34255  14618.81949   5259.69682  0.39791         2766.85755     17.17329    8e-05  56917.24127   3.05593  0.48394   126290.48096  46.37974  21.36895     56956.21     50.9572       44.42824    17.8763  25.53757   30.5    0.46353  -21.49526  0.97379 
   -7.12715  0.00269  3.74925     14.17949  1.75569  1.46056   1.64881  0.32894     0.23967  15417.81443   5958.43406  0.20609         3979.32516     19.39507   0.0138  56916.17285   2.33799  0.00443  1002715.11412  45.36423  21.29729  56957.58674    51.03729       44.53567   16.59942  24.26069   30.5    0.49747   -21.5693  0.99968 
   -4.88782    0.046  2.07817      14.3869  1.78123  1.47023   4.04192  0.25806     0.14514   17096.3005   7477.68138  0.05425         2151.37973     17.80908  0.00036  56918.41218   7.04724  0.18591   120252.60761  46.80411  21.38841  56957.58674    51.00794       44.46617   12.76878  29.74802   24.0    0.50852  -21.57819  0.99619 
   -6.88658  0.14686  3.65268     14.25693  1.70099  1.04591   2.06874  0.29198     0.28575  16586.92503    5195.6712  0.18602         2337.60853     19.33997  0.01215  56916.41342    3.3952  0.30382   645461.27419  45.56445  21.37528  56957.58674    51.01996       44.50334   12.76878  26.81444   30.0    0.52471  -21.55262  0.97843 
   -3.67587  0.04576  1.15307      14.3466  1.52416  1.46368   5.23416  0.30467     0.25678   19482.0481   5864.84877   0.0718         3068.62513     19.19879  0.00878  56919.62413  11.85067  0.23954    38138.09316  47.74681  21.35544  56957.58674    51.05163       44.53491   12.76878  26.81444   25.5    0.47446  -21.70474  0.99867 
   -5.92819   0.0536  3.46766      14.2487  1.48111  0.76917    2.2426   0.2487     0.31065  15642.62118   5531.14188  0.86867         2332.56042      17.7781  0.00033  56917.37181   3.27339  0.12021   526098.82011  45.63829  21.39273  56957.58674    51.03966       44.52294   12.74978   29.3872   31.5    0.47978  -21.51657   0.9904 
   -4.15125   0.1335  1.09854     14.53218  1.91785  1.21795   7.13989  0.17181     0.37531  18261.53388    7266.2503  0.05048         2635.90759     20.22014  0.09223  56919.14875  14.20343  0.95317     18530.8427  48.20213  21.33673  56957.58674    51.04232       44.54048    11.4729  26.83344   24.0    0.45651  -21.75022  0.99751 
   -4.34757  0.14969  1.67259     14.44432  1.73253  1.12327   4.50254  0.23393     0.11461  17530.66501   7283.28428  0.03075         4209.33423      19.6622  0.02552  56918.95243   8.25432  0.67397    58161.36444  47.29611    21.375  56957.58674    51.00715       44.46042   15.32254  28.47114   23.5    0.52375   -21.6351  0.99157 
   -4.67954  0.03781  1.83209     14.35046  1.66887  1.35874   3.78382  0.33837     0.13248   17903.7033   5607.66299  0.04321         3726.21188     18.13944  0.00077  56918.62046   7.23508  0.14307   103564.50641  46.95016  21.35082  56957.58674    51.08928       44.59462   14.04566  26.81444   24.5      0.464  -21.64778  0.99753 
    -3.6341  0.03169  1.25274     14.46729    1.764  1.29077   5.14399   0.2835     0.18694  18006.84508   7434.66902  0.20118         3000.73997     18.80938  0.00358   56919.6659   9.94953  0.16302    29885.15072  47.84417  21.35998  56959.97195    51.05814       44.55908   12.76878  28.09132   24.5     0.4327  -21.64735  0.99919 
   -5.09218  0.27704  3.52918     14.36549  1.92817  1.00273   3.53322  0.24418     0.09061  17257.22869   5465.36461   2.8107         2019.55042     20.20884  0.08986  56918.20782   6.27682  0.97885   414310.89594  45.84132    21.335  56957.58674    51.03907       44.53769   14.04566  25.53757   28.0    0.42746  -21.72231  0.94807 
   -7.33227  0.47586  3.77473     14.50409  1.75322  0.53319   2.64649  0.19356     0.17161  16183.46947   3024.22698  0.02806          4600.8191     18.84297  0.00387  56915.96773   4.13466  1.25935   227641.72638  46.00166  21.30329  56957.58674    51.04761        44.5434   12.76878  28.09132   33.0    0.50472  -21.56601  0.91465 
   -3.87796  0.00731  1.04516     14.52419  1.73044  1.03599   8.47268   0.1618     0.09905  17515.97123   7533.60893  0.15132         3543.14818     18.95287  0.00498  56919.42204   15.5066  0.06192    15702.26633  48.27267   21.3424  56957.58674    51.01749       44.49535    11.4919  28.09132   23.5    0.48841  -21.55725  0.99983 
    -2.9443  0.10307  1.19609      14.7859  1.65675  0.46424   9.69807  0.11368     0.07743   15268.9237   6517.46752  0.56688         3223.94261     19.07438  0.00659   56920.3557  13.48743  0.99953     5899.24689  48.56178  21.38475  56957.58674    51.10532       44.60047   12.74978  28.11032   27.5    0.45985  -21.48505   0.9954 
   -6.83006  0.20312  3.56618     14.26423  1.66068  0.96553   1.92537  0.30647     0.20402  14955.46208   5423.23639  0.59597         2745.11137     17.68533  0.00027  56916.46994   2.56887  0.39108   580840.64982  45.62067  21.33724  56957.58674    51.03996        44.5315   15.32254  23.06429   31.0    0.46652  -21.51455  0.97272 
   -3.95055  0.04207  1.69203     14.52152  1.89771  1.13847   5.30008   0.1998     0.12045  15210.41411   7363.29872  0.30121         4603.09579     19.06176   0.0064  56919.34945   7.31462  0.22295      45688.921  47.43045  21.37856  56957.58674    51.00693         44.482   15.32254  26.81444   25.0    0.47645  -21.58597  0.99764 
   -7.05134  0.08301  3.80195     14.21226  1.73699  1.05986    1.7826  0.33051     0.43447  17044.98207   4720.04853  0.08502         3350.41338     18.70486  0.00282  56916.24866    3.0894  0.14798    877208.1942  45.40553  21.33223  56957.58674    51.02139       44.52514   12.76878  26.81444   31.5    0.48957   -21.6265  0.98882 
   -6.72367  0.39404  3.71993     14.27965  1.60456  0.70158   1.99163  0.26947     0.07363  15140.85459   5857.10082  1.03035         2390.38363     18.44761  0.00156  56916.57633   2.72356  0.78478   568788.74458  45.57818  21.29327  56957.58674    51.01368       44.49623   16.59942  25.53757   27.5    0.48565  -21.56993  0.93917 
   -5.30402  0.00273  2.73546     14.36237  1.84817  1.53948   3.15902  0.27799     0.27953  15506.83581   7602.41391  0.30977         3147.12769     16.14421    1e-05  56917.99598   4.53133  0.00863   242036.37431  46.27765  21.30911     56956.21    51.00813       44.48543   15.32254  26.81444   25.0    0.46647  -21.51742   0.9997 
   -6.07212  0.08303  3.10378     14.24094  1.61108  1.17869   2.63459  0.24095     0.47555  15115.77348   6663.95923  0.36662         3459.56198     17.01157    6e-05  56917.22788   3.59088  0.21874   475164.77415  45.81534   21.2879  56957.58674    51.03785       44.49875   15.32254  26.81444   29.0    0.50277  -21.54085  0.98777 
   -4.21125  0.03332  1.83302     14.44196  1.81817  1.40252   5.49849  0.19838     0.27355  15649.92681   7526.13962  0.32962         4499.84007     19.05982  0.00638  56919.08875   8.03332  0.18322    74107.16773  47.13229  21.36899  56959.97195    51.01779       44.50281   14.04566  28.09132   24.5     0.4634  -21.58463  0.99737 
   -3.47797   0.0556   1.0556     14.51419  1.88937  1.41063   8.12884  0.16417     0.09875  18830.07139   7181.02782  0.06461         2486.85554     19.97344  0.05226  56919.82203  17.19332  0.45195    18312.34396  48.23542  21.34352  56957.58674     51.0382       44.50862   12.76878   29.3682   22.5    0.52161  -21.86328  0.99898 
   -5.23856  0.32944  3.58525     14.31224  1.80988  1.45072   2.80987  0.25214     0.12728  14869.15547   3858.64735  0.82157         3022.34288      16.2626    1e-05  56918.06144   3.70583  0.92569   512883.65627  45.70744  21.35109  56957.58674    50.98773       44.46888   15.89218   26.2448   30.0    0.46721  -21.51957  0.94456 
   -4.19084  0.30546  1.78827     14.42956  1.75058  1.41433   3.91861  0.28451     0.16252  17247.92082   6445.35751  0.15823         4510.65954     16.52982    2e-05  56919.10916   6.95398  1.19699    71901.40769  47.15042  21.38242  56957.58674    51.04105       44.49184   15.32254  26.81444   26.0    0.47619  -21.63065  0.98315 
   -4.50931  0.02832  1.74025     14.43185  1.78134  1.22699   4.73602   0.2688     0.27423   16806.7428   6263.18463  0.25383         3700.53556     19.38069  0.01335  56918.79069   7.98008  0.13411    68562.18397  47.20229  21.34751  56957.58674     50.9932       44.47556   15.32254  26.81444   25.5    0.44906  -21.63002  0.99821 
    -6.3727  0.03408  3.69368     14.19782  1.66534  1.15404   2.53219  0.20897     0.14251  15125.66296   5495.66134  0.36181         3769.48831     19.02289  0.00586   56916.9273   3.45584   0.0863   848385.10264  45.42684  21.29265  56957.58674    51.09068       44.57932   17.16906  22.99786   30.0    0.50376  -21.55683  0.99342 
   -6.27263  0.00112  2.90776     14.22298  1.41745  0.84624   2.37689  0.31678     0.22236  16341.76058   5635.01249  0.44031         2949.98547     17.44484  0.00015  56917.02737   3.78646  0.00266   398538.34707  45.89277  21.33086  56957.58674    51.00043       44.48993   15.89753  24.96257   28.0    0.48744  -21.59195  0.99984 
   -3.98903  0.42068  1.17378     14.37035  1.49047  1.30495   3.90798  0.29239     0.38358  16874.36276   5607.51473  0.12918         3304.82402      16.7248    3e-05  56919.31097   6.63796    1.644    34641.62449   47.7634  21.32775  56957.58674    51.00244       44.49142   14.04566  26.81444   26.5    0.47889  -21.65397  0.99052 
   -7.44071  0.05496  3.56634     14.14207  1.57136  1.05615   2.48214  0.22869     0.12129  16706.78303   5570.47081  0.00374         5004.87032     19.07803  0.00665  56915.85929   4.13274  0.13641   964685.97044  45.37629   21.3339  56957.58674     51.0156       44.49375   15.89753  26.23945   28.5    0.49783  -21.58984  0.98944 
   -6.08729  0.39482  2.93077     14.37896  1.73069  1.04476   2.74631  0.33825     0.42466  16832.35406   5515.89288  0.21646         3034.31343      16.0009    1e-05  56917.21271   4.64158  1.08429   241036.46722  46.19102  21.38598  56959.97195    51.04625       44.53146   12.76878  28.09132   28.5    0.46761  -21.54839  0.95351 
   -3.90874  0.47878  0.76394      14.5659  1.42541  0.77467   7.55958  0.18946     0.03892  19605.51924   6304.64306  0.00129         3906.04644     16.44678    2e-05  56919.39126  17.33331  3.61938     5702.61089  48.90059  21.34078  56957.58674    51.01308       44.50778   17.17441  23.68569   25.5    0.46199  -21.59748  0.99615 
   -4.59574  0.14014  1.64047     14.51998  2.00464  1.32448   5.47431  0.19688     0.07642  16008.07471   7326.97241  0.14497         5671.55121     18.23407  0.00095  56918.70426   8.36825  0.76715    45690.38114  47.48112  21.27725      56956.2    50.95362       44.44043   19.15317  24.26069   24.5    0.49037  -21.64543  0.99327 
   -5.38614  0.00252  1.91194     14.30664  1.59301  1.25403   3.88138  0.28879     0.18553  16506.75584   5733.69801  0.26402         2815.15527     19.73976  0.03051  56917.91386   6.30865  0.00978   131736.99042  46.78841  21.31986  56957.58674      51.034       44.50521   15.32254  25.53757   26.0    0.47243  -21.58007   0.9998 
   -3.90536  0.20385  1.05906      14.6063   1.6773  0.74248   5.70675  0.27762     0.09547  19428.68536   5809.90134  0.03792         5394.54698     18.97895  0.00529  56919.39464  12.84998  1.16331    10706.76949  48.41396  21.30957  56957.58674    51.00966       44.49463   14.04566  26.81444   26.0    0.44665  -21.65855  0.99645 
   -4.88367   0.2898  2.09718     14.46038  1.69992  0.92103   3.01313  0.31841     0.45324  15710.17674   7030.02967  0.22696         3920.57968      16.2507    1e-05  56918.41633   4.43615  0.87321    83319.41023  46.93526  21.34715  56957.58674    51.06354       44.53258    11.4729  26.83344   27.0    0.46586   -21.5575  0.98066 
   -4.96694  0.39882  2.08542     14.72247   1.6069  0.42983   4.24852  0.19751     0.30855  15344.83867   5700.25713  0.19497         4243.21315      17.3968  0.00014  56918.33306   5.96746  1.69441    23294.76568  47.46919   21.3517  56957.58674    51.00467       44.50456   15.89753  24.96257   29.0    0.45945  -21.53123  0.96049 
   -3.33574  0.03278  1.88097     14.66361  1.91071  0.68856    4.6977  0.26992     0.25419  16800.21127   6345.69457  0.64884         3193.53752     16.96321    5e-05  56919.96426   7.90937  0.15399    29550.24671  47.53072  21.34959  56957.58674    51.07826       44.56634   12.74978  28.11032   26.0    0.43928  -21.59991  0.99785 
   -6.43384  0.14422  3.58623     14.24165  1.79711  1.56761   2.82214  0.23458     0.15659  15533.88279   4780.52223  0.26003         3776.35352     16.17098    1e-05  56916.86616   4.06225    0.407   705286.80872  45.56578  21.31347  56957.58674     51.0206       44.50259   12.76878  26.81444   29.5    0.46793   -21.5757  0.97449 
   -3.85611  0.22177  1.01624     14.46072  1.53873  1.05295   5.79722  0.21943     0.35783   17474.9845   5903.43405   0.1111         2823.15853     17.27486   0.0001  56919.44389   10.5604  1.28567    17681.57701   48.1945  21.34767  56957.58674    51.04724       44.51357    11.4919   29.3682   26.5    0.45281  -21.54997  0.99602 
   -3.32488  0.31402  1.11427      14.9855  2.16642   0.4964   6.57149   0.1834     0.27714   17591.0164   5907.55733  0.17229         4077.59516     18.35257  0.00125  56919.97512  12.13034  2.06361     2670.19941  49.08407  21.31045  56957.58674    51.02637       44.50933    17.8763  24.26069   28.0    0.47385  -21.56353  0.99697 
   -3.84032  0.14243  1.11609     14.41947  1.56839  1.30456   9.19238  0.12982      0.2077  16499.78633   4973.70657  0.33757         3492.17059      18.1017   0.0007  56919.45968  14.92834  1.30926    26285.73102  47.94918  21.33082  56957.58674    51.08983       44.55911    11.4729  26.83344   27.0    0.45654  -21.56128  0.99455 
   -4.89593  0.04035  2.17458     14.30131  1.62098  1.43636   3.07299  0.32786     0.24151  16554.01892   6562.43478  0.18108         5651.92746     18.14366  0.00077  56918.40407   5.02338  0.12399   177713.86666  46.55415  21.32998  56959.97195    51.00899       44.50252   14.04566  26.81444   25.5    0.50682  -21.64867   0.9967 
   -6.77873  0.01232  3.51875     14.12276  1.40065  0.78837   1.66885  0.25274     0.20403  15941.47882   5876.50251  0.76878         2352.47614     18.12932  0.00075  56916.52127    2.5299  0.02056   914946.21652    45.361  21.34783  56957.58674    51.00854       44.45814   12.76878   29.3682   33.5    0.47347  -21.55475  0.99814 
   -5.77923  0.03767  1.60837     14.36662  1.59012    0.931   3.53303  0.33264     0.15383  17577.49541   6756.42797  0.28262         2069.48714     20.38109   0.1336  56917.52077    6.5116  0.13309     70596.0399  47.20872  21.34383  56957.58674     50.9928       44.46163   16.59942  25.53757   25.0    0.47055  -21.67483   0.9981 
   -4.91566  0.07083  1.56216     14.49713  1.60563  0.74133   4.50014  0.26585     0.09336  16754.23583   6677.56817  0.09712         3485.00482     19.67234  0.02613  56918.38434   7.53534  0.31876    36868.39046  47.52039  21.31278  56957.58674    51.02426       44.49058   15.89218   26.2448   25.0    0.45177  -21.60624    0.996 
   -4.55128  0.02619  2.19409     14.38399  1.78463   1.4347   3.45254  0.32419     0.31855  16480.77657   6113.27831   0.4209         3062.01675     16.18582    1e-05  56918.74872   5.59399  0.09044    136111.3796  46.70399   21.3703  56957.58674    51.01531       44.48978   14.04566  26.81444   26.5    0.47849  -21.58595  0.99791 
   -3.46036  0.02666  1.89998     14.50292  1.95738  1.25838   4.89404  0.25634     0.35966  16437.24219   6414.28796  0.75784         2982.82789     19.56614  0.02046  56919.83964   7.88773  0.13047     64735.6595  47.19188   21.3792  56957.58674    51.01327       44.51062   12.76878  28.09132   26.5     0.4305  -21.60233  0.99821 
   -3.65835  0.36691  1.50136     14.46595  1.70963  1.33779   5.76629  0.19723     0.28888  17110.25722   4923.16925  0.37259         3315.51569     17.38073  0.00013  56919.64165  10.07017  2.11572    41858.13628    47.527  21.35117  56959.97195    51.03625        44.5115    11.4919   29.3682   28.5    0.43566  -21.62098  0.98183 
   -7.12619  0.02988  3.83721     14.21843  1.94453  1.55032   2.23179  0.28449      0.2107   17478.3157   5913.70376  0.06784         3718.81862      20.0629  0.06421  56916.17381   4.06704   0.0667   972301.24541  45.40183  21.31833  56957.58674    51.01546       44.51148   17.17441  23.68569   30.0    0.48601  -21.71172  0.99564 
    -3.1467  0.06891   0.9232     14.53512  1.54888  0.83907   7.52437   0.1664     0.17119  16354.68107   6131.51233   0.4476         3588.64661     17.90613  0.00045   56920.1533  12.00553  0.51854    10427.65908  48.51009  21.34109  56957.58674    51.02243       44.52821   12.76878  26.81444   26.5    0.43072  -21.61981  0.99888 
   -5.68491  0.23208  3.08512       14.288  1.48397  0.82192   2.56987  0.30287      0.4981  16938.45733   5361.11296  0.64662          2857.2367     17.36845  0.00013  56917.61509   4.39831  0.59643   348161.35366  45.91995  21.35913  56957.58674    51.01204       44.48567   14.04566  28.09132   29.0    0.46848  -21.61487  0.96361 
   -3.62497  0.02335  1.34771     14.60699  1.81837  0.81218   5.38247  0.24687     0.12834  18514.11675   7364.69944  0.04309         2581.55581     17.12649    7e-05  56919.67503  11.00562  0.12565    18737.65041  47.99662  21.36973  56957.58674    50.99535       44.48201   14.04566  28.09132   23.0    0.50401  -21.66085  0.99926 
    -3.3618  0.21229  1.51729     14.63005  2.00677   1.0357   8.37394  0.13043     0.11739  16724.90816   6659.07264  0.23053         4799.88968        19.21  0.00901   56919.9382  13.97284  1.77767     23569.4833  47.83685  21.38422  56957.58674    51.02075       44.48707    11.4729  28.11032   27.5    0.47093   -21.6035   0.9891 
   -5.01187  0.04425   2.4606     14.43229  1.93373  1.32312   4.31786  0.23412     0.28628  16160.40372   7207.69251   0.2536          3970.1869     18.58176  0.00212  56918.28813   6.72668  0.19107   148497.67656  46.60144  21.35898  56959.97195    51.05518       44.53927   12.76878  28.09132   25.5    0.48525  -21.58463  0.99503 
   -6.66984  0.36498  3.64526     14.33382  1.66022  0.79464   2.32161  0.25661     0.19991  15403.29137   4736.58579   0.5959         2543.16849      18.2722  0.00104  56916.63016   3.28582  0.84734   440348.72038  45.72176  21.33552     56956.21    51.00082       44.49071    17.8763  24.26069   32.0    0.45757  -21.52328  0.94028 
   -5.55397  0.34322  3.02844     14.40287  1.60735   0.7475   2.91418  0.28212     0.27512  16886.72949   4540.53251  0.77876         2435.07337      16.9882    5e-05  56917.74603   4.95717  1.00019   214104.43103  46.18189  21.30379  56957.58674    50.98999       44.47528    17.8763  24.26069   29.5    0.47043  -21.60301  0.94881 
   -6.22992  0.02731  3.11636     14.19242  1.62103  1.38309   2.71659  0.25097     0.18791  15996.51189   5195.13025  0.13428          4022.1674     18.78235  0.00337  56917.07008   4.14669   0.0742   602641.62872  45.71128  21.33205  56957.58674    50.99197       44.48597   15.32254  25.53757   28.0    0.49547   -21.5883  0.99582 
   -4.41927    0.178   2.1901       14.514  1.72818  0.79112   4.27127  0.23285      0.2315  16207.79678   5903.98414  0.39979          3228.4351     18.27125  0.00104  56918.88073   6.69317  0.76028    72165.26055  46.96718  21.32096  56957.58674    50.99327       44.48274    17.8763  25.53757   27.5    0.49483  -21.58864  0.98191 
   -3.88195    0.127  1.53374     14.38329  1.62172  1.40715   5.22427  0.21316     0.18077  16162.09423   6636.94329  0.25848         5020.48564     18.07087  0.00065  56919.41805   8.14044  0.66348    60634.44155   47.3246  21.35438  56957.58674     51.0335       44.51355   15.89753  26.23945   25.5     0.4774   -21.6068  0.99265 
   -4.42185  0.10705  1.23339      14.4856  1.70182  1.08178   5.77376  0.26956     0.15612  18409.82753   6096.58532  0.01116         3766.06969     19.08076  0.00669  56918.87815  11.67308  0.61807    25687.73059  47.90783  21.37393  56957.58674    51.03196       44.50235    11.4919   29.3682   26.5    0.42951  -21.57973  0.99686 
   -4.35689  0.46393  2.07221     14.50291  1.71381  0.90602   4.00737  0.24932     0.22696  16709.79677   4994.97862  0.28844         5286.91502     19.46486   0.0162  56918.94311   6.67466  1.85916    67424.68904  47.04112  21.34141  56959.97195     51.0284       44.52878   15.32254  24.26069   28.5    0.46512  -21.67583   0.9619 
   -3.98438  0.07495  1.18503      14.4355  1.50044  0.94056   5.43322  0.24223     0.20693  17243.38398    6836.0094  0.40716         2540.73576     17.21568    9e-05  56919.31562   9.63673  0.40723    26332.76336  47.87711  21.35164  56957.58674    51.01772       44.49056   14.04566  28.09132   25.0    0.48466  -21.64892   0.9975 
