 texplosion  fnickel    Pspin  log(Bfield)      Mns  thetaPB   mejecta    kappa  kappagamma     vejecta  temperature    alpha  cutoff_wavelength  log(nhhost)      A_V         MJD0  kenergy  mnickel             TSD   log(L0)  Peak_mag     Peak_MJD  log(E_rad)  log(Peak_lum)  Rise_Time    E_fold  tau_1  delta_m15     r_peak     frac 
  -39.87392  0.00131  2.10618     13.46126  1.49697  0.86993   5.34984  0.28839     0.01379  4662.64356   8380.26181  1.47106         3451.99885     17.41313  0.00014  57002.15608   0.6938    0.007   7370606.97032  44.92956  16.65297     57097.21    51.39228       44.39427   68.92897  73.09626   78.0    0.06762  -21.67774  0.99978 
  -41.18515  0.15813  2.28284     13.88593  1.60966  0.36995  10.46133  0.17866     0.01005  5164.45328   8046.37644  2.01318         2768.87292     18.80089  0.00351  57000.84485  1.66442  1.65428   1317159.65554  45.63899  16.63707     57097.21    51.40374       44.41336    68.1989  71.94055   78.0    0.06151  -21.67846   0.9482 
  -39.64593  0.00188  2.13738      13.9839  1.61604  0.23535   8.26871  0.22736     0.01035  5518.53927   8154.88802  1.82185         2724.68194     18.83519   0.0038  57002.38407  1.50215  0.01558    738288.94789  45.94931  16.64038     57097.21    51.41286       44.40575   71.00569  74.88326   75.0    0.07049    -21.707  0.99954 
  -40.00965  0.00205  2.35117     13.44217  1.82257  1.52025   8.89074  0.21431     0.01002  5438.43547   8406.85678  2.08345         2717.32122     18.81887  0.00366  57002.02035   1.5686  0.01822  12210281.55787  44.70023  16.64159     57098.61    51.38414       44.40471   66.51101  70.10596   75.0     0.0675  -21.71479  0.99946 
  -37.47546   0.0022  2.17379     13.36754  1.61087  1.43857   7.81055  0.24467     0.01188  5618.15431   8451.73758  2.03345         2755.05394     16.61569    2e-05  57004.55454  1.47061  0.01716  13008351.27287  44.68725  16.64141     57094.87    51.45503       44.47427   66.80074   71.6954   73.5     0.0702   -21.7179  0.99947 
   -40.2727  0.02049  2.06619     13.62371  1.48496  0.52136   8.85819  0.19437     0.01067   5360.2043    8077.6004  2.21898         2628.67011     18.00204  0.00056   57001.7573  1.51822  0.18154   3329983.49232  45.28778  16.61585    57098.987    51.43949       44.46092   65.88242  69.87249   77.5    0.06816  -21.69168  0.99438 
  -37.76851   0.0436  2.18553     13.55713  1.53129  0.75023  10.18141  0.16382     0.01068  5354.12458   8174.05726  2.21245         2690.08485     17.83384  0.00038  57004.26149  1.74105  0.44396   5220678.38585  45.05706  16.64796     57098.61    51.39915       44.39848   69.54695  73.41067   76.0    0.06506  -21.69349  0.98564 
  -43.08698  0.00131  2.02961     13.90223  1.44107  0.30278  10.58425  0.18634     0.01005  5084.23013   8017.52559  2.09429         2731.42319     18.40281   0.0014  56998.94302  1.63207  0.01387    864692.02504  45.87584  16.62973     57098.61     51.4024       44.40839   69.54695  72.47829   77.0     0.0606  -21.67435  0.99958 
  -38.02613  0.00114  2.73852     13.72214  2.14554  0.79738   8.71818  0.20194     0.01081  5409.69394   8273.01681  1.92269         2851.89496     17.61934  0.00023  57004.00387  1.52194  0.00995   5371632.22588  44.99524     16.65     57097.21    51.43944       44.44419    68.1989   72.9014   74.5    0.06996  -21.71146  0.99969 
   -40.6739  0.06713  2.37028     13.52543  1.83578  1.19191   9.94224  0.18982     0.01012  5376.29211   8252.04503  2.53196         2513.30642     19.84289  0.03869   57001.3561  1.71426  0.66745   8518688.49264   44.8527  16.63835     57097.21    51.40966       44.40285   71.00569  74.88326   75.0    0.06515  -21.73605   0.9808 
  -33.93709  0.01349   2.4165     13.72021  1.83908   0.5756   8.03163  0.22293     0.01149   5705.6332   8255.03629  2.54371         2651.47552     19.23572  0.00956  57008.09291  1.55969  0.10834   3617232.21197  45.20869   16.6247     57099.25    51.40154       44.40434   69.74614  72.43175   72.5     0.0724  -21.73256  0.99666 
  -39.66295   0.0072  2.11426     13.50144  1.53325  0.88129   9.70643  0.19903     0.01004  5295.19436    8197.4259  1.54774         2967.36552     18.39461  0.00138  57002.36705  1.62349  0.06989   6322239.18089  45.00327  16.66571     57099.25    51.40838       44.39409   72.06262  74.75871   74.0    0.06753  -21.70567  0.99787 
  -42.02376  0.00962  2.23205     13.46052  1.68344  1.12609   8.92404  0.23163     0.01121  5434.69537   8237.15325  2.85088         2438.97325      17.6841  0.00027  57000.00624  1.57231  0.08581   9340733.12438  44.82725  16.66221     57097.21    51.40806        44.3961   70.66445  75.37716   76.0    0.06292  -21.69757  0.99744 
  -41.28084  0.07276  2.38541     13.78186  1.77972  0.57183   8.72409  0.24665     0.01302  5415.45213   7988.95335  1.80466         2710.02631     17.75341  0.00031  57000.74916  1.52622  0.63473   2567873.35735   45.3545  16.64814     57099.25    51.41768       44.42175   70.37473  72.58288   75.0    0.06305  -21.69747  0.98081 
  -39.52976  0.00349  2.10428     13.47221  1.61395  0.90255   9.33456  0.22342      0.0104  5526.64927   8311.31207  1.47344         2949.66987     19.81091  0.03594  57002.50024  1.70077  0.03256   7542234.99259  44.95303  16.63856     57095.93    51.40959       44.40476    71.6702  74.21875   74.0    0.06687  -21.75993  0.99908 
  -42.30186  0.05833  2.28354     13.45636  1.74431  1.55994   9.89539  0.21461     0.01039  5482.24428   8177.58722  1.63322         2870.05532     19.21359  0.00908  56999.72814   1.7741  0.57722  10325948.10518  44.77932  16.65854     57099.25    51.38088       44.38566    67.6784   71.4155   75.0    0.06423  -21.74456   0.9833 
  -37.87822  0.00481  2.41374     13.57438  1.79035  0.92244   8.32678  0.21408     0.01327  5614.14182    8149.8028  1.87249         2749.29552     17.86726  0.00041  57004.15178  1.56556  0.04009   6876643.39047  44.91903  16.66256     57098.21    51.40341       44.40656    68.1989   72.9014   74.0    0.06729  -21.72243  0.99873 
   -31.4961  0.00246  2.11212     13.56612  1.64625  0.76865   9.77341  0.14957     0.01132  5629.97446   8748.09003  2.64567         2621.94664     20.48221  0.16863   57010.5339  1.84793  0.02405   5029301.25475   45.1344  16.64984    57098.987    51.40267       44.40231   69.08163  73.09626   73.5    0.07062  -21.87151  0.99934 
  -35.43868  0.01125  2.37729     13.61184  1.71555  0.73199   9.13179  0.17112     0.01128  5561.39907   8323.52191  2.07774         2767.98744     17.60539  0.00022  57006.59132  1.68481  0.10272   5379127.85724  45.02037  16.64909     57098.61     51.4004       44.40104   69.54695  73.41067   74.5    0.06969  -21.70825  0.99661 
  -35.19788  0.00114  2.29924     13.44769  1.69864   1.2761   8.55455  0.21086     0.01013  5398.07019   8097.89654  1.60147         3046.31557      16.6732    3e-05  57006.83212  1.48697  0.00975  10609956.45556  44.75006   16.6414    57100.984     51.4142       44.41742   69.74614  73.21147   74.5    0.06946  -21.70521  0.99969 
  -35.94822   0.0061  1.96376     13.26913  1.40427  1.56799   8.97993   0.1984     0.01004  5600.40438   8213.47195  2.01009         2744.33604     19.03606  0.00604  57006.08178  1.68012  0.05475  14560664.10372  44.66694  16.64624    57100.984    51.39338       44.39476   71.54211   71.4155   73.0    0.07143  -21.71528  0.99832 
  -37.95819  0.02704  2.00681     13.55819  1.50419  0.57899   8.76378  0.22949     0.01024   5735.3135   7981.51396  2.50118         2468.43862      19.2007  0.00882  57004.07181  1.71962    0.237   4302755.86717  45.20739  16.64076     57097.21    51.42428       44.42458   67.80648  73.29382   75.0    0.06784  -21.72274  0.99317 
  -38.59973  0.01452  2.36594     14.07668  1.74299  0.27837  12.22976  0.16679     0.01026    5580.121    8149.8718  2.47089          2515.1685      19.1999   0.0088  57003.43027   2.2716  0.17763    636455.08799  45.95836  16.65363     57099.25    51.38413       44.39462   66.51101  71.80316   73.0    0.06265  -21.70942  0.99449 
  -38.71678  0.09449  2.28694     13.97348  1.65246  0.29088   8.74029  0.20341     0.01066  5217.22617   8294.62785  2.03517         2772.02591     16.59293    2e-05  57003.31322  1.41916  0.82584     906758.8955  45.81098   16.6362    57100.984    51.39056       44.39844   67.76999   71.3239   76.0    0.06785  -21.68178  0.97417 
  -39.44626  0.02173  2.16489     13.40496  1.56027  1.28703   9.00388   0.2052     0.01092  5286.35884   8324.36769  1.19566         3274.71146     17.71463  0.00029  57002.58374  1.50096  0.19563   10519023.7034   44.7692  16.65576     57098.21    51.41197       44.40872   67.14197  73.95833   75.5    0.06717  -21.70946   0.9939 
   -38.9385  0.00344  2.23451     13.75212  1.64064  0.49813   9.38747  0.19656      0.0104  5245.20716   8197.03442  2.00426         2816.71962     17.20155    9e-05   57003.0915  1.54064  0.03233    2382027.5569  45.40855   16.6314     57098.21    51.39605        44.3973    68.1989  73.82633   76.0    0.06795  -21.70429    0.999 
  -42.74416  0.00612  2.12226     13.49845  1.54593  1.01035  10.57404  0.19568     0.01061  5207.91755   8069.70413  2.87728         2506.18755     18.43269   0.0015  56999.28584  1.71079  0.06473   6511885.86716  44.99073  16.64673     57099.25    51.39364        44.3976   70.37473  72.58288   76.5    0.06228  -21.68781  0.99806 
  -36.11497  0.02474  2.07386     13.32916  1.47825  1.50987   8.78872  0.20129     0.01046   5461.4005   8241.66706  1.98827         2740.26662     17.20548    9e-05  57005.91503  1.56373  0.21743  12965615.19948  44.69224  16.65428     57098.61    51.39892       44.39576   67.14197  75.03592   74.5    0.07137  -21.69517   0.9932 
  -38.33507  0.00998  2.13688     13.44169  1.49906  1.06542   9.43155  0.17078     0.01003  5062.20438   8268.13342   2.0555         2779.72608     16.71612    3e-05  57003.69493  1.44175  0.09411   8314105.72711  44.86529   16.6377     57098.61     51.4147       44.41202   72.06262  73.82633   77.0    0.06586  -21.66313  0.99697 
  -37.67088  0.00202  2.60851     13.61917  2.01896  0.95198   8.79844  0.21271     0.01065  5388.58261   8196.29623  1.74865         2840.23962       18.488  0.00171  57004.35912  1.52399   0.0178   7368561.14241   44.8738  16.64208     57097.21    51.41008       44.40878    71.6702  73.29382   76.0    0.06578   -21.6888  0.99945 
  -39.43974  0.00522  2.51684     13.58128  1.89868  1.23955   8.81124  0.22866     0.01285  5380.30411   8151.28924  2.37478         2658.80369     17.31636  0.00012  57002.59026  1.52152  0.04599   7680982.80605  44.86017  16.65636     57098.61    51.40354       44.40179   68.92897  74.02864   75.5    0.06509  -21.70112  0.99857 
  -43.02183  0.00137  2.09997     13.74469  1.50689  0.48862  11.80334  0.16503     0.01022  5148.76425   8390.16484  1.91895         2732.50874     19.48401  0.01693  56999.00817  1.86654  0.01617   1999578.52034  45.50156   16.6304     57099.25    51.39606       44.41135    67.6784  70.63578   76.5    0.06118  -21.68633  0.99951 
   -45.4677  0.00198  2.03677     13.38302  1.51723  1.26705   9.88316   0.2265      0.0102  5282.68066   8184.16369  2.27078         2599.41254     18.13477  0.00076   56996.5623  1.64525  0.01953  10016208.84266  44.83131  16.63684     57098.61    51.41333       44.40228   72.06262  74.75871   77.0    0.06128  -21.69977  0.99944 
  -40.21948  0.01486  2.29808     13.44446  1.75887  1.54386   8.95623  0.22634     0.01089  5498.85472   8190.31731  2.31668         2562.26711     19.33973  0.01215  57001.81052  1.61546  0.13308  11139468.74111  44.74449  16.64681    57098.987    51.40496       44.40258   69.74614  73.21147   73.5    0.06432  -21.71536  0.99607 
  -43.99831  0.03823   2.0079     13.52225  1.48188   0.7308   9.63083  0.23462     0.01029  5411.84427   8121.89842  1.71425         2727.73395      16.6744    3e-05  56998.03169   1.6826  0.36821   5007464.16576  45.13456  16.63874     57099.25    51.39493       44.39713   69.54695  72.63094   74.5     0.0617  -21.70753  0.98941 
  -41.71441  0.00118    2.131     13.45965  1.57722  1.04039   6.94964  0.29585     0.01142  4847.51037   8440.42877  1.20722         3574.79764     17.98051  0.00053  57000.31559  0.97415  0.00817   8009009.27496  44.90599  16.65225     57097.21    51.42808        44.4086   73.17221  76.73312   75.5    0.06197  -21.69121  0.99976 
  -40.52619  0.03675   2.2963       13.607  1.72282  0.76876   9.48774  0.19577      0.0104  5300.26002   8305.74331  1.69882         2867.45257     19.46747   0.0163  57001.50381  1.58995  0.34868   5153558.94677  45.07092  16.67296    57098.987    51.40484        44.3998   69.08163  73.87599   74.5    0.06486  -21.71874  0.98952 
   -37.5072  0.00245  2.05612     13.46283  1.53371  0.76379   8.47947  0.20816     0.01013  5535.78026   8257.45799  1.81957         2718.26286     18.80069  0.00351   57004.5228  1.55008  0.02077   7144938.35421   44.9745  16.64073    57098.987    51.38667       44.39485   66.51101  72.58288   75.5    0.06972   -21.7081  0.99938 
  -37.18584  0.00524  2.33894     13.64296  1.65237  0.77013  10.55373  0.15294     0.01037  4970.14814   8525.87178   1.6314         3182.11377     19.07921  0.00667  57004.84416  1.55515  0.05533   4345539.56573  45.11087  16.64342    57100.984    51.39087       44.38978   71.54211  73.73653   75.5     0.0637  -21.68569  0.99817 
   -39.6924  0.00183  2.31882     13.55558  1.69447  0.92036  10.06161  0.17846     0.01043   5227.0292    8316.0133  1.24313         3292.11052     17.27938  0.00011   57002.3376  1.63985   0.0184   6549605.47093  44.95113  16.64948    57100.984    51.38403       44.38126   71.63371  74.15409   75.5    0.06557  -21.71233  0.99942 
  -34.48189  0.30503  2.62917     14.22995  1.84363  0.18229   9.17796  0.15506     0.01042  5328.52496   8297.89119  1.78384         2979.50055      18.1903  0.00086  57007.54811  1.55449  2.79952    410409.06287  46.08167  16.65105     57099.25    51.39629       44.39327   70.37473  74.90392   77.5    0.06734  -21.69446  0.90711 
  -40.83827  0.01459  2.26457     13.45739  1.63122  1.26364   9.86264  0.17389     0.01023  5098.78571   8231.22494   1.2775         3318.79432     19.04129  0.00611  57001.19173  1.52952  0.14388   9451733.14997  44.79588  16.65133     57098.21    51.42503       44.39627   73.41067  79.59542   77.5    0.06574  -21.70355  0.99542 
  -37.36685  0.03053  2.07162     13.42731  1.57938  0.92594    8.5092  0.22622     0.01021  5575.66272   8162.38591  2.47799         2521.25673      19.6904  0.02724  57004.66315  1.57801  0.25981   8796319.71312  44.89041  16.66627    57098.987    51.39282       44.39528   70.37473  72.58288   74.5    0.06708  -21.72912   0.9926 
   -43.6704  0.01557  2.22376     13.58773  1.65914  0.83783   9.77412  0.21589     0.01138  5223.43427   8293.23289  2.33633         2626.89851     16.96298    5e-05   56998.3596  1.59081  0.15222   5086419.18667  45.08814  16.65183     57098.21    51.41253       44.41749   68.92897  72.17134   76.5    0.06145  -21.70056  0.99549 
   -38.2633  0.06891  2.33847     13.47048  1.67413  1.55488  10.13402  0.17375     0.01074  5279.71039   8293.76076   1.9202         2803.07931     16.44944    2e-05   57003.7667  1.68511  0.69833   9739006.63121  44.76626  16.68308     57098.21    51.39983       44.39764   68.92897  74.02864   75.5    0.06583  -21.69176  0.97772 
   -43.8486   0.0023  2.03031     13.38803  1.51832  1.55307   9.79778  0.24094     0.01026   5248.7058   8236.80032  1.64772         2925.85851     16.40138    1e-05   56998.1814  1.61012  0.02249   9733087.70021  44.84684  16.65306     57094.29    51.43115       44.41508   69.96639  76.85494   76.0    0.06272  -21.71773  0.99936 
  -38.17442  0.00576  2.26566     13.60094  1.67943  0.72193   9.81688  0.18595     0.01016    5455.532   8108.59125  2.12763         2707.22582     19.33164  0.01192  57003.85558  1.74291  0.05656   5029167.92366  45.08212  16.64651     57097.21    51.39682       44.40038    68.1989   72.9014   75.5     0.0666  -21.71594  0.99826 
   -41.4846   0.0046   2.0018      13.3203  1.48775  1.47336   9.03502  0.21798     0.01003  5414.92437   8116.10192  2.01398         2684.69378     17.60999  0.00023   57000.5454   1.5803  0.04159  12664332.30539  44.73595  16.63677     57099.25    51.39486       44.40428   66.51101  71.80316   75.5    0.06747  -21.72001  0.99879 
  -38.43886   0.0647  2.38561     13.50645  1.73445  1.44022   9.86175   0.1931     0.01123  5371.11143    8129.1231  2.26442         2653.57703     17.46299  0.00016  57003.59114  1.69711  0.63801   8897581.95562  44.80354  16.63169     57098.61    51.39573       44.39537   69.08163  73.09626   75.5     0.0648   -21.6924  0.97994 
  -44.18833  0.01054  2.26864     13.48258  1.69648  1.24174  10.86229  0.17735     0.01017  5250.69711   8307.45453  2.21748         2620.83725     18.87232  0.00414  56997.84167  1.78642  0.11448   8784944.25484  44.84312  16.62731    57098.987    51.40798       44.41288   69.08163  72.94361   76.0    0.06281  -21.70438  0.99656 
  -37.14605  0.00233  2.34405     13.43539  1.78466  1.52364   8.68765  0.21013     0.01086  5550.03228   8291.86252  2.34843         2629.46024      19.4089  0.01424  57004.88395  1.59632   0.0202  12260984.28301  44.69194  16.65459     57099.25    51.39942       44.39293   69.74614  75.53251   75.0    0.06774  -21.71926  0.99938 
  -42.35512  0.00309  2.31075     13.51874  1.75482  1.19312   9.96425  0.21086     0.01074  5299.81944    8270.0447  1.74181         2809.23458     18.60483  0.00224  56999.67488  1.66953  0.03083   7981256.91618   44.8835  16.66368     57098.61    51.41088       44.40504    68.1989  74.75871   74.0    0.06144  -21.71124  0.99909 
  -36.69257  0.30135  2.12691     13.34701  1.43856  1.35653    8.4188   0.1976     0.01247  5511.56721   8175.62467  2.06283         2736.09168     19.44942  0.01564  57005.33743  1.52555  2.53699   12224378.1418  44.68405  16.63482     57099.25    51.39158        44.4039    67.6784  70.63578   75.5    0.06931  -21.71839  0.91968 
   -37.3674  0.00332  2.31433     13.67562    1.736  0.59882   8.52333  0.22501     0.01039  5430.59388   8235.70245  2.13481         2722.98746     17.53899  0.00019   57004.6626  1.49945  0.02828   3845724.52609  45.19457  16.62432     57098.61    51.40989       44.42135   65.68323  71.55336   74.5    0.06722  -21.68821  0.99913 
  -47.37704  0.01835  2.09109      13.7022  1.57943  0.60313  11.44196  0.20828     0.01055  5170.41886    8308.7246  1.92696         2687.31537     19.17478  0.00831  56994.65296  1.82465  0.20992   2527326.03861  45.42394  16.63597     57098.21    51.40965       44.40325   72.79269  74.02864   75.0     0.0571  -21.70013  0.99415 
  -38.29355  0.09646  2.39694     13.45729  1.80869  1.16708   8.65759  0.20814     0.01101  5714.01969   8159.64595  3.03484         2413.74306     16.95268    5e-05  57003.73645  1.68619  0.83507  11746749.03613  44.69698  16.61596     57098.21    51.40552       44.41362   69.54695  71.55336   74.0    0.07005  -21.70124   0.9743 
  -38.28368  0.00603  2.06817     13.54399   1.5105  0.63183   8.84471  0.19629     0.01041  5465.34647   8178.41398  2.52261         2584.45754     18.54769  0.00196  57003.74632  1.57596  0.05334   4899328.52501  45.12666  16.63657     57098.61    51.42232       44.41704   72.06262  74.75871   76.5    0.06816  -21.70863  0.99837 
  -38.09023  0.01806   2.1471      13.9605  1.58459  0.26168   9.18475  0.20824     0.01059  5532.84729    8184.6538  2.37772         2609.50974     19.36284  0.01281  57003.93977  1.67723   0.1659    813653.54654  45.89462  16.64648    57098.987    51.40648       44.39283   72.06262  74.75871   75.5    0.06856  -21.72053  0.99499 
  -37.15737   0.0012  2.08814     13.57937    1.419  0.61158   9.79259  0.15731     0.01057   5230.9294   8510.46167  1.50476         3229.38457     16.04236    1e-05  57004.87263  1.59839  0.01178   3986277.76939  45.18074  16.63265  57099.22873    51.42263       44.42952   69.54695  72.47829   75.0    0.06653  -21.70337   0.9996 
  -45.02003  0.00152  2.53295     13.60503  1.97809  1.55507  10.71878   0.2047      0.0103  4929.61666   8356.86719  1.87322         2916.22546     18.35621  0.00126  56997.00997  1.55381   0.0163   7265504.81723  44.89657  16.64142     57099.25    51.39162       44.40152    67.6784   71.4155   76.5    0.05744  -21.67945  0.99952 
   -38.2653  0.00105  2.27804       13.451  1.69343  1.39014   8.31973  0.24493     0.01173  5464.09062   8087.25367  1.51103         2968.96362      18.0928  0.00069   57003.7647  1.48174  0.00877  10225993.81783  44.77278   16.6306    57100.984    51.39564       44.39745   71.54211  73.73653   74.5    0.06622  -21.70784  0.99973 
  -35.64402  0.00234  2.25576       13.388  1.63984  1.50783   9.39523   0.1742     0.01038  5603.24737    8245.1195  1.86427         2804.82669     17.51481  0.00018  57006.38598   1.7596  0.02201  12978096.82203  44.66385  16.63927     57099.25    51.41189       44.41067   69.74614  73.21147   73.5    0.07331  -21.71313   0.9993 
  -37.04517  0.00105  2.16736     13.40627  1.56695  1.10829   8.58877  0.20251     0.01023  5348.00253   8060.43928  1.95371         2800.27913     17.47382  0.00017  57004.98483  1.46535  0.00903  10524136.62657  44.76985  16.64978     57099.25    51.38761       44.40071    67.6784  70.63578   75.5    0.06731  -21.67916  0.99971 
  -42.85285  0.00341  2.35556     13.50793  1.81549  1.17256   8.89484  0.23029     0.01105  5365.75193   8418.36092  1.52314         2886.85279     19.17408  0.00829  56999.17715  1.52766  0.03036   9018422.24127  44.82852  16.65239    57100.984     51.3898       44.39492    67.6784   71.4155   75.0    0.06413  -21.71216   0.9991 
  -38.04394   0.0716  2.34929     13.68081  1.71575  0.64294   9.40475  0.18406     0.01036  5285.73088   8442.88724  2.38125         2709.61491     19.35317  0.01253  57003.98606  1.56742  0.67334   3824087.84916   45.1789  16.65947     57098.61    51.43507        44.4397   69.08163  72.94361   74.5    0.06893    -21.704  0.97892 
  -41.97151  0.01221  2.19399     13.54697  1.61468  0.80563  10.11724  0.19402     0.01081  5437.09998   8203.59712  2.60427         2487.61533     18.00351  0.00056  57000.05849  1.78412  0.12357   5813364.11786  45.03003  16.65074     57098.21     51.4103       44.40489    71.6702  74.21875   76.5    0.06168  -21.70349  0.99623 
  -39.32973  0.00168  2.19734     13.49004  1.71458  1.23139  11.29848   0.1569     0.01032  5406.31593   8543.20247  1.78105         2776.39826     20.23515  0.09547  57002.70027  1.96993  0.01894   8048110.43925  44.91352  16.64347    57100.984    51.38577       44.39301   67.76999   71.3239   74.5    0.06578  -21.80422  0.99947 
  -35.26213  0.00532  2.30805     14.16236  1.80058  0.17235   7.88919  0.21902     0.01102  5748.00058   8268.43566  2.26342         2607.08402     19.52477   0.0186  57006.76787  1.55487  0.04195    421690.43899  46.17277  16.61098    57098.987    51.40035       44.40544   70.37473  71.80316   73.5     0.0704  -21.73308  0.99876 
  -40.58503  0.00246  2.35219     13.83287  1.74883  0.50625  10.67314   0.1784     0.01016  5090.99475   8225.60569  2.07036         2787.53674     16.74717    3e-05  57001.44497  1.65015  0.02621   1939827.18496  45.48089  16.65805     57097.21    51.41439       44.40255   69.54695  75.41708   76.5    0.06309  -21.68914   0.9992 
  -39.57098  0.06605  2.22767     13.52741  1.63439  0.86182   9.15301  0.19966     0.01014  5251.08116   8141.28405  2.54693         2666.12809     17.25873   0.0001  57002.45902  1.50553  0.60454   6638260.05816  44.96445  16.64855     57098.21    51.41875       44.40099   74.52817  76.15688   76.5    0.06496  -21.70371  0.98156 
  -40.73482  0.01094  2.31515     14.20083  1.74787   0.1834   9.77881  0.21043     0.01031  5407.12602   8011.41997  1.90419         2736.48832     16.73074    3e-05  57001.29518  1.70548  0.10702    345002.33768  46.24437  16.66105  57099.22873    51.39775        44.3873   68.92897  74.02864   75.5    0.06692  -21.70658  0.99678 
  -38.01048  0.00921  2.16167     13.51406  1.59299  0.78581   8.18296  0.22447     0.01131  5505.72106   8195.00577  2.95762         2516.88281     18.94709  0.00492  57004.01952  1.47967   0.0754   6478695.93312  44.98999   16.6543     57098.21    51.41559       44.40057   70.66445  76.15688   74.0    0.06687  -21.70578  0.99769 
  -39.75873   0.1722   2.2477     13.39591  1.62398  1.45643   9.14738  0.20021     0.01009  5342.03766   8301.02149  2.21972         2706.73335     16.29197    1e-05  57002.27127  1.55718   1.5752  12304022.72895   44.6859  16.63477    57098.987    51.40701       44.40654   69.54695  73.41067   76.5    0.06846  -21.69867  0.95181 
  -42.18133   0.0012   2.3844     14.07111  1.76457  0.26417  10.10086  0.18136     0.01021  5094.81671   8212.45605  1.94484         2769.46459     16.47146    2e-05  56999.84867  1.56402  0.01211    671406.96104  45.93374  16.64457     57099.25    51.41172       44.41472   69.74614  73.21147   77.0    0.06291   -21.6679  0.99962 
   -42.4383  0.01203  2.12981     13.47314  1.56126  0.97609   9.77587   0.2178     0.01005  5294.92744   8184.26366  1.67248         2830.49836     16.70977    3e-05   56999.5917  1.63494   0.1176   7441909.18061  44.93396   16.6613     57099.25    51.39583       44.38807   72.94535  73.87599   76.0    0.06372   -21.6856  0.99646 
  -38.63626  0.00201  2.32915     13.45028   1.7766  1.33784   9.28368  0.19521     0.01062  5472.45096   8372.94602  1.84091         2754.47859     19.66974  0.02597  57003.39374  1.65848  0.01865  11252479.66622  44.73279   16.6733     57098.21    51.40447       44.39658    71.6702  74.37141   75.5    0.06871  -21.72656  0.99944 
  -41.99952  0.00244  2.43413      13.5652  1.86559  1.08834  10.30425  0.19386      0.0101  5290.75526   8236.77376   2.1702         2701.56685     17.63009  0.00024  57000.03048   1.7206   0.0251   7601726.36265  44.88606  16.63663     57099.25    51.38958       44.40276    67.6784  70.63578   76.5     0.0621   -21.7081  0.99924 
  -37.90817  0.00123   1.8696     13.32167  1.30085  1.13934   9.50751  0.19257     0.01119  5381.45571   8250.75975  1.65876         2898.10627      19.6983  0.02773  57004.12183  1.64245  0.01166   9598273.20543  44.85738  16.63647     57099.25    51.39765       44.40652   70.37473  72.58288   75.0    0.06762  -21.72933  0.99964 
   -37.6432  0.00348  1.94901     13.49057  1.35032  0.68547   9.34635  0.20074     0.01105  5448.72476   8044.45593  1.82723         2811.14348      17.8231  0.00037   57004.3868  1.65523  0.03248   4974294.52446  45.12293  16.64798     57099.25    51.40418       44.40494   69.08163  73.87599   76.5    0.06875  -21.70076  0.99897 
  -40.47918  0.00129  2.74811     13.67237   2.1911  1.01927  10.03491  0.17512     0.01074  5381.05242   8358.10255  2.22736         2628.07318     19.65393  0.02504  57001.55082   1.7333  0.01296   6947279.42379  44.88963  16.65932    57098.987    51.39602       44.40039   69.54695  72.63094   75.0    0.06664  -21.72667  0.99961 
  -36.32312  0.01422  2.62518     13.64841  2.00785  0.85136   8.22023  0.21408     0.01153  5536.73734   8136.14251  2.38543         2631.45239     16.15932    1e-05  57005.70688  1.50321  0.11686   6487055.42634  44.92121  16.63533     57099.25     51.3983       44.39814   69.74614  73.21147   75.0    0.06847  -21.69213  0.99628 
  -36.49951  0.08308  2.06978     13.66287  1.48674  0.48377   8.73369  0.21956     0.01055  5526.17873   8144.69296  2.52413         2617.95944     17.43309  0.00015  57005.53049  1.59102  0.72558   2793564.15507  45.36307  16.63678    57098.987    51.40283       44.40614   69.54695  72.63094   74.5    0.06917  -21.70998  0.97794 
  -41.27349  0.00215  2.24889     13.50714   1.6386    1.138  10.29902  0.17897     0.01065   5133.9925   8088.93106  1.87076          2808.0973     18.67134  0.00261  57000.75651  1.61932  0.02211   7446309.46257  44.90744  16.65599     57098.21    51.41243       44.40253    71.6702  75.15113   77.0    0.06397  -21.68692  0.99931 
  -38.79582  0.00306  2.19843     13.55157  1.53596  0.84282  10.31286  0.16291     0.01002  5025.66095    8476.9583  1.40377         3399.10304      17.2744   0.0001  57003.23418  1.55379  0.03155    5435987.7319  45.03572  16.64925    57100.984    51.38935       44.40055    67.6784  70.63578   75.0    0.06548  -21.70559  0.99897 
  -38.83035   0.0527  2.25546     13.59575  1.67722  0.69763   9.16576  0.20807      0.0101  5468.28901    8180.8391  2.33054         2622.87155     17.99957  0.00056  57003.19965  1.63493  0.48307   5097693.73346  45.07959  16.67325     57098.21    51.39947       44.40745    68.1989  72.28179   75.5    0.06725  -21.70024  0.98531 
  -38.93274  0.00258  2.22906      13.4581  1.54769   1.4437  10.80847  0.15111     0.01002  4845.90229   8380.55563  1.26897         3564.10173      19.0789  0.00666  57003.09726  1.51405  0.02793   8660623.82625  44.82474  16.65938    57100.984    51.38879       44.39032   71.54211  73.73653   76.5    0.06126  -21.68693  0.99908 
  -42.25741  0.04443  1.98049     13.35193  1.44036  1.39237   9.80879  0.21051        0.01  5274.70779   8106.71871  2.11369          2633.7643     17.49967  0.00018  56999.77259  1.62794  0.43583   10374554.1293   44.8178  16.64459     57099.25    51.39921        44.3965   69.74614  73.21147   76.5    0.06469  -21.70554  0.98736 
  -42.60406  0.00153  2.00535     13.50523  1.45673  0.80665   9.77568  0.20821     0.01011   5224.8833   8252.01876  2.40976          2615.8929      17.2005    9e-05  56999.42594  1.59194  0.01496   5310095.96115  45.10274  16.67227     57098.61    51.41966       44.40621   70.66445  76.15688   75.5    0.06146  -21.69896  0.99956 
  -40.19306  0.00131  2.45333     14.07406  1.84989  0.27386   9.41491  0.19724     0.01089  5279.63946   7963.02189  2.51598         2590.55151     18.29805   0.0011  57001.83694   1.5655  0.01234    735118.35611  45.89012  16.64502     57098.21    51.41221       44.39714    71.8947  74.92663   78.5    0.06287  -21.68807  0.99962 
  -34.95681  0.02966   1.8698     13.54879  1.31215  0.50014   8.98468  0.19311     0.01013  5595.56446    8257.7696  2.42691         2650.02604     19.37713  0.01324  57007.07319   1.6781  0.26653   3402551.12197  45.31143   16.6442     57099.25    51.40549       44.40692   69.74614  73.21147   75.0    0.06938  -21.72657  0.99186 
  -44.29561  0.01593   2.5104     13.77495  1.99971  0.64472   9.97265  0.22162     0.01001  5259.02509    8210.1257  1.80973         2766.68754     18.14194  0.00077  56997.73439  1.64531  0.15886   3298827.27086  45.25197  16.64003     57098.61     51.4067       44.39822   72.06262  74.75871   76.5    0.06119  -21.70772  0.99544 
   -40.8407  0.04432  2.08087     13.48104  1.52159  0.87703   9.26604  0.21532     0.01006  5237.35273   8067.46378  2.61333         2589.51358     17.33873  0.00012   57001.1893  1.51616  0.41068   6675925.04762  44.99014  16.63719    57100.984    51.38099       44.39697   67.76999  70.54418   76.0    0.06463  -21.69619  0.98781 
  -39.29445  0.02031  2.20956     13.57502  1.60492  0.75271   9.50558  0.19051     0.01003  5185.85136   8086.82697  2.65601         2656.06205     17.70407  0.00028  57002.73555  1.52492  0.19308   5150461.64204  45.07384  16.64852    57100.984    51.38923       44.38074   70.37473  74.90392   76.5    0.06674  -21.69133    0.994 
  -40.57558   0.0017  2.42736      13.6302  1.85279   0.8631   9.76874  0.20213     0.01009  5274.22991    7966.6487   1.9785         2744.60077     18.65587  0.00252  57001.45442    1.621  0.01665   5565496.96402   45.0209  16.63475     57098.21    51.39159        44.4062   65.68323  70.93375   76.0    0.06506  -21.69636   0.9995 
  -39.09685  0.00243  1.83832     13.26798  1.24825  1.16812   8.92411  0.18093     0.01037  5109.62303   8322.24486  2.29803         2711.40908      17.7447  0.00031  57002.93315  1.38986  0.02165  11402272.03466  44.77931  16.62473     57098.61    51.40122       44.40806   69.08163  72.01868   77.0    0.06712  -21.67564  0.99931 
  -39.54589  0.00937  2.36752     13.46657  1.82141  1.55797   9.04266   0.2118     0.01007  5377.03131   8102.51851  2.02719          2742.1382     16.59342    2e-05  57002.48411  1.55958  0.08471  11057861.11598  44.73699  16.66787    57098.987    51.40286       44.39488   68.92897  74.02864   74.5    0.06824  -21.71383  0.99748 
  -39.67055  0.00722  1.96258     13.33665  1.40858  1.14154   8.71365  0.20288      0.0101  5296.87649   8109.92519  1.95737         2768.28696     17.73038   0.0003  57002.35945  1.45837   0.0629  10689304.46428  44.80302  16.64302     57098.21    51.39589       44.40592   68.92897  71.55172   75.5    0.06823  -21.70395   0.9981 
   -42.5156  0.00281  2.20966     13.89977  1.60943  0.33012   9.25453   0.1962     0.01175  5285.74233   8276.00056  1.98568         2753.10444     18.49269  0.00173   56999.5144  1.54239  0.02602   1157725.12316  45.72326  16.63395     57098.21     51.4002       44.40434   69.54695  72.47829   76.0    0.06359  -21.70424  0.99919 
   -34.7561  0.03529   2.2852     13.46185  1.73071  0.95914   7.90414  0.20378     0.01013   5559.3615   8328.70283  2.14028         2724.65862     16.89897    4e-05   57007.2739  1.45724  0.27891  10004206.06373  44.78904  16.63023     57099.25    51.38708       44.39478   71.54211   71.4155   74.0    0.07421  -21.70111  0.99147 
  -38.17067  0.00204  2.47063      13.6382  2.02978  0.81126   4.66237  0.26468     0.01281  4402.43538    8742.8037  1.70146         3404.01085     20.25408  0.09973  57003.85933  0.53904  0.00952   6088148.20672  45.00619  16.65251     57097.21    51.40305       44.40592    68.1989   72.9014   80.5    0.07049   -21.7728  0.99973 
  -36.24852  0.00214  2.28654     13.57536  1.85199   0.8542   5.31857  0.31179     0.01393  5091.15025   8631.68544  1.40017         3336.03824     20.18121  0.08432  57005.78148  0.82234  0.01139   6354771.78272  45.01503  16.64906     57098.61    51.40322       44.40643   68.92897  73.09626   74.5    0.06933  -21.79847  0.99969 
  -40.31989  0.02417  2.26031     13.41847  1.67967  1.44128   9.13416  0.20463     0.01021  5292.79766   8256.70538  2.09315         2739.74995     16.36234    1e-05  57001.71011  1.52639  0.22074  11599160.73545  44.72131  16.66735     57098.21    51.40748       44.39788   71.00569  75.03592   76.5    0.06775  -21.69593  0.99325 
  -40.17045  0.00391  2.10944     13.40359  1.62389  1.33437   6.63005  0.24225      0.0107  4586.23303   8436.18009  1.60409         3329.57488     20.12503  0.07409  57001.85955  0.83187  0.02591  10459931.12166  44.81154  16.63159     57098.21    51.39406       44.40298   69.54695  71.55336   80.0     0.0645  -21.74871  0.99927 
  -36.83061  0.00898  2.48585      14.1834  1.83858  0.19864   9.32111  0.18541     0.01003  5328.77104   8247.59083  1.75544         2977.75051     18.51018   0.0018  57005.19939  1.57888   0.0837    453370.34455  46.08592  16.64402     57098.21    51.43027         44.435   67.80648  72.67421   75.0    0.06937  -21.68692  0.99728 
  -43.23087  0.05777  2.46488     14.12357  1.86545  0.25356   9.82477  0.20237     0.01096  5316.86643   8159.26212   1.7109         2828.56849     17.25071   0.0001  56998.79913  1.65677  0.56761    595730.45072  45.98099  16.62217     57099.25    51.38753       44.40634   68.55842  69.75575   75.5    0.06517  -21.70594  0.98277 
  -39.99899  0.04059  2.22588     13.41415  1.67291  1.47226   9.43763  0.21396     0.01017  5506.19078   8164.88657  1.61254         2850.67775     17.08158    7e-05  57002.03101  1.70684   0.3831  11428533.23963  44.73932  16.63902  57099.22873    51.40069       44.40412   69.08163  72.94361   73.5    0.06853    -21.723  0.98864 
  -44.87363  0.00222  1.92953     13.66601  1.40057  0.48171   9.91333  0.22594     0.01001  5160.07535   8239.58792  1.42823         2874.28351     16.55132    2e-05  56997.15637  1.57456  0.02205   2254256.89538  45.49124  16.65075    57098.987    51.40428       44.39794   72.94535  73.87599   75.5    0.06236   -21.6782  0.99936 
  -42.74083  0.00216  2.24955     13.50217  1.62008  1.19025  10.58114  0.17489     0.01049  4949.95814   8088.11255  1.59857         3082.28274     18.69019  0.00272  56999.28917  1.54654   0.0228   7536934.33939  44.89699  16.65172     57099.25    51.40292        44.3961   69.08163  73.87599   79.5    0.06137  -21.67821  0.99928 
   -38.4725  0.05475  2.52327     13.64315  1.97643  0.89741    9.8673  0.19408     0.01005  5410.34269   8360.85516  2.77874         2524.64618     19.81349  0.03616   57003.5575  1.72296  0.54028   6043899.91998  44.97948   16.6241    57100.984    51.41844       44.41578   71.54211  73.73653   75.5    0.06701  -21.73084  0.98414 
  -42.24058  0.00171  2.02024     14.16596  1.44505  0.14591   5.77069  0.27142     0.01261  4471.39243   8484.38226  1.76411         3306.27899     17.47099  0.00016  56999.78942  0.68824  0.00988    255026.86081  46.41134  16.61112     57098.21    51.41433       44.41123   72.06262  73.97899   79.0    0.06346  -21.68711   0.9997 
  -38.50284  0.00367  2.23206     13.42559  1.59803   1.3146   9.79665  0.18034     0.01049  5323.69681   8190.41287  1.39122         3147.40936     18.09804   0.0007  57003.52716  1.65627  0.03594  10414130.92038  44.75739  16.62708    57098.987    51.48449       44.51387   61.81951  68.94919   75.5    0.06646  -21.70565  0.99885 
  -46.71201  0.00223  2.22333     13.47332  1.67516  1.47411  10.44186   0.2013     0.01123  5138.94441   8032.77834  2.07472         2606.29275     16.52862    2e-05  56995.31799  1.64495  0.02332   8694254.44992  44.85966  16.65472     57098.21    51.41375       44.40409   70.66445  75.37716   77.5    0.05772  -21.68645  0.99932 
  -40.22534  0.00163  2.33391     14.10459  1.72632  0.23516   9.74573  0.19049     0.01046  5144.10499   7964.02009  3.01925         2511.57667     18.89548  0.00437  57001.80466  1.53837  0.01589    539423.29614  46.03787  16.64006     57098.61    51.41339       44.41435    68.1989  73.82633   78.0    0.06263  -21.67281  0.99951 
  -36.74481  0.04959  2.13766     13.35058  1.56111  1.19529   8.70903  0.19619     0.01007  5539.09709   8319.53458  2.25097         2719.46425     17.13293    8e-05  57005.28519  1.59395   0.4319   13181774.6807  44.68243  16.65616    57098.987    51.40102       44.40081   65.06525  74.02864   74.0    0.06874  -21.70472  0.98662 
   -44.4379  0.00771  2.17854     13.50718  1.63616  1.01991   9.57863  0.23428     0.01061  5204.40247   8184.50882  1.38525         3017.76975     17.13174    8e-05   56997.5921  1.54765  0.07385   6976054.70396  44.96273  16.63581     57098.21    51.39222       44.39774   65.06525  72.17134   76.0    0.06114  -21.69777  0.99784 
  -38.69401  0.04425  2.21738     13.66644  1.69452  0.58488    9.1812  0.19838     0.01006  5388.58181   8396.03562  2.04565         2702.03758     19.74913  0.03118  57003.33599  1.59029  0.40628   3594606.28206  45.25056  16.65913     57098.61    51.41271       44.39056    71.6702  77.47216   74.0    0.06697  -21.73998  0.98825 
  -36.67298  0.13643  2.19539     13.51316  1.59152  0.79972   8.79221  0.20485     0.01004  5453.93091   8166.51092  2.11666         2723.64292     17.49643  0.00017  57005.35702  1.56007  1.19952   6704076.43334   44.9613  16.64028    57100.984    51.38893       44.39333   71.54211   71.4155   75.0     0.0698   -21.7029  0.96336 
  -38.51657  0.00128  2.31261     13.53167  1.76088  0.94005   9.08824  0.22502     0.01082  5592.06218   8270.15705  1.80989         2753.27774     17.21405    9e-05  57003.51343  1.69532  0.01168   7557971.97506  44.90796   16.6316    57098.987     51.3914       44.40582   66.51101  70.72557   74.5    0.06582  -21.71934  0.99965 
  -39.85865  0.01258  2.16091      13.4018  1.60759  1.48501   9.12233  0.22075     0.01155   5506.6289   8206.88511  2.22431         2586.88619     19.45864  0.01597  57002.17135  1.65008  0.11475  10956126.60081  44.76609  16.66445     57099.25    51.38367       44.39218   66.51101  72.58288   75.0    0.06329  -21.72432  0.99659 
  -35.95784  0.08524  1.95109      13.5484  1.38334  0.53851   8.39182   0.2115     0.01006  5491.68254    8275.2741  1.98147         2744.34553     18.80197  0.00352  57006.07216  1.50971  0.71534   3912932.19834  45.23671  16.64205     57098.21    51.40745       44.40295   72.06262  73.97899   75.0    0.07254  -21.69831  0.97825 
  -36.93948  0.03452  2.52418      13.4993  1.92103   1.5546   8.64893  0.21305     0.01097  5465.02116   8230.69679  2.60822         2581.72906     16.19469    1e-05  57005.09052   1.5409  0.29855  11402312.98319  44.69115  16.64842     57098.21    51.40208       44.40926   69.08163  72.01868   74.5    0.06613  -21.69348  0.99068 
  -38.34475  0.00382  2.64506     13.59812  2.12324  1.49643  10.23527  0.17578     0.01034  5326.13613   8398.19357  2.57092         2618.54235     20.13413  0.07566  57003.68525  1.73201  0.03915   8778862.97596  44.80753  16.64442     57098.61    51.41059       44.40322   72.06262  74.75871   76.0     0.0637  -21.75472  0.99886 
  -43.13727  0.00145  2.19633     13.44285  1.65038  1.38016   9.62633  0.21555     0.01034  5244.42275    8049.0938  2.42915         2560.19264     16.65167    2e-05  56998.89273  1.57937  0.01397   9618255.29164  44.81994  16.62855     57098.21    51.46734       44.47405   66.80074  72.81789   77.0    0.06085  -21.69214  0.99959 
   -36.5336  0.01163  2.03029     13.31364  1.45189  1.31641   8.44285  0.22023     0.01122  5613.09615   8337.15499  2.02236         2715.03091     16.87666    4e-05   57005.4964   1.5868  0.09818  13109568.66144  44.69807  16.63155     57099.25    51.39794       44.41582   66.51101  70.72557   72.5    0.07041  -21.70513  0.99695 
  -38.62613  0.00179  2.28895     13.44849  1.72413  1.31167   8.79222  0.22048     0.01127  5542.77844   8213.98924  2.05008         2774.98445     17.07436    7e-05  57003.40387  1.61132  0.01578  10633315.34984  44.75947   16.6501     57098.61    51.41046       44.40727   68.03098  73.99425   74.0    0.07008  -21.73516  0.99952 
  -44.37644  0.00132  2.15255     13.68023  1.56424  0.62335  11.21688  0.17767     0.01012  5068.08404   8177.71233  1.71167         2874.66344     18.00317  0.00056  56997.65356  1.71865  0.01475    2934666.7883  45.32968  16.63741     57098.21    51.40309       44.40487   69.54695  72.63094   77.5    0.06199  -21.68111  0.99955 
  -47.41259  0.05813  2.34492     13.62767  1.84676  0.89157   9.86566  0.24593     0.01053  5252.41864   8085.02992  1.47291         2764.97703     17.51571  0.00018  56994.61741  1.62357  0.57349   5237806.87096  45.07585  16.64055     57099.25    51.40112       44.39878   69.74614  73.21147   76.5     0.0591  -21.69343  0.98409 
  -41.47898  0.19005  2.16752     13.44429  1.49067  1.04934   8.85871  0.21497     0.01242  5316.76797   8218.04823  1.66664         2877.07129     17.19299    9e-05  57000.55102   1.4938   1.6836   8405037.30545  44.84576  16.64419     57098.61    51.39414       44.40171   70.37473  71.80316   76.0    0.06507   -21.6862  0.94651 
  -44.94227  0.06191  2.27318     13.58259  1.69902  0.94369  10.50455  0.20467     0.01042  5124.19561   8193.87903   1.6705         2830.88915     17.75959  0.00032  56997.08773  1.64534   0.6503   5573155.62495  45.03967  16.64544     57098.61    51.39801       44.39869   69.54695  73.41067   76.5    0.06196  -21.68677  0.98092 
  -41.84121   0.0119  2.23139     13.64579  1.69254  0.69485  10.23195  0.19646     0.01009  5253.25017   8171.67558  2.40655         2630.34123      19.5219  0.01848  57000.18879  1.68439  0.12178    3998756.1141  45.19831   16.6384     57099.25    51.40149       44.40708   70.37473  72.58288   76.5    0.06445  -21.72358  0.99645 
  -40.55908  0.00948  2.09485     13.40666  1.54279  1.15797   9.17272  0.21823      0.0109  5441.94733   8259.98567  1.99543         2695.93935     19.04316  0.00614  57001.47092  1.62044  0.08692   9662753.52681  44.82975  16.64114     57099.25    51.39883       44.40896   70.37473   71.6505   74.0    0.06545  -21.71777  0.99741 
  -38.03021  0.00115   2.0106     13.40777  1.43747  0.96954    7.1605  0.22437     0.01093  4846.21781   8715.80205  1.52152          3436.1277     19.52161  0.01846  57003.99979  1.00317  0.00826   8251426.29715  44.90326  16.63726     57098.61    51.40192       44.40808   69.74614  72.27909   75.0    0.06705  -21.73315  0.99975 
  -35.47615  0.00243  2.21386     13.78884  1.58621  0.42662    9.6239  0.15975     0.01025  5211.27237   8527.06811    1.485          3308.3112     19.82278  0.03694  57006.55385  1.55907  0.02338   1908939.46352  45.49812  16.64575     57098.21    51.42889       44.40593   73.41067  77.27438   74.0    0.07056  -21.74809  0.99925 
  -40.06001  0.00143  1.81668     13.42342  1.32448   0.6804   8.53658  0.25604     0.01002  5504.62863   8221.69674   1.7289         2794.47233     17.70053  0.00028  57001.96999    1.543  0.01217    5775221.4069  45.11077  16.63071     57099.25    51.40333       44.40037   69.08163  73.87599   74.5    0.06849  -21.70718  0.99965 
   -39.1175  0.00981  2.33298     13.88185  1.80554    0.359   8.32494  0.24855     0.01014  5383.22703   8574.96374  1.64934         2960.86873     17.19517    9e-05   57002.9125  1.43911  0.08168   1572346.57123  45.59308  16.64572     57099.25    51.39343       44.40262   66.51101  72.58288   72.5    0.06766  -21.69892  0.99758 
   -39.7434    0.002  2.21617     13.90717  1.63005  0.32863   9.26016  0.21053     0.01033  5233.14243   8149.77958  1.70952         2919.59949     16.10699    1e-05   57002.2866  1.51276  0.01852   1139949.70607  45.73296  16.64214     57097.21    51.40437       44.40294   67.14197  73.95833   75.0    0.06413  -21.69336  0.99943 
  -48.51716  0.06177  2.11225       13.601  1.57927  0.80757  12.37827  0.19975     0.01005  5194.37875   8190.85122  1.95427         2635.46005     17.55579   0.0002  56993.51284   1.9923  0.76461     4109190.721  45.20405  16.64421    57100.984    51.40842       44.41758    67.6784   71.4155   76.5    0.05503  -21.68697  0.97859 
  -38.00351  0.00292  2.26937     13.46414  1.64563  1.06343   9.16952  0.18244     0.01003  5186.37903   8374.66969  2.47939         2697.55683     18.43217   0.0015  57004.02649   1.4713  0.02676   9282829.97257  44.80569  16.64239     57098.21    51.41594        44.4025    71.6702  75.15113   76.0    0.06753  -21.67538  0.99914 
  -38.16933  0.05755  2.34777     13.50559  1.72866  1.04275   9.68756  0.16745     0.01023  5301.61428   8299.75854  1.95233         2793.23244     19.61072  0.02267  57003.86067  1.62427   0.5575   8623044.57211  44.82958  16.65011     57099.25    51.40278       44.40468   68.92897  73.24892   76.5    0.06762    -21.711  0.98257 
  -40.04743  0.00225  2.74587      13.6357  2.12414  1.17715   5.22837   0.3179      0.0165   4795.1106    8238.4786  2.35129          2795.7032      17.2863  0.00011  57001.98257  0.71712  0.01178   7960747.87763  44.81772  16.62675     57099.25     51.4095       44.39645   72.94535  76.19702   79.0    0.06314  -21.65061  0.99963 
  -47.40279   0.0083  2.38909     13.93423  1.83583  0.46559  11.47945  0.17605     0.01082  4918.54746   8331.93956  2.02766         2773.41669     16.89018    4e-05  56994.62721  1.65662   0.0953   1317172.00919  45.65657  16.64042     57099.25    51.40269       44.40753   69.74614  72.43175   78.0    0.05665   -21.6744  0.99724 
  -39.62925   0.0038  2.44954     13.71474  1.82423  0.63741   9.28604  0.18915      0.0107  5313.82413   8209.67758  2.28823         2721.80973     16.59008    2e-05  57002.40075  1.56413  0.03532   3780853.85954  45.17416  16.62483     57098.21    51.40941       44.41229    68.1989   72.9014   75.5    0.06857  -21.69554  0.99888 
   -37.2876   0.0039  2.27315     13.89055  1.71656   0.3348   8.50023  0.21353     0.01042  5455.88492   8135.23342  1.86497         2795.42535      18.2463  0.00098   57004.7424  1.50934  0.03314   1363427.92359  45.65562  16.65185     57099.25     51.3989       44.40135   69.54695  72.63094   75.0     0.0716  -21.70863  0.99899 
  -39.97413  0.00161  2.40504     13.70432  1.78737  0.64345    8.9354   0.2153     0.01211  5491.77615   8166.53155  1.72823         2885.87181      16.0298    1e-05  57002.05587  1.60756  0.01442   3746607.96457  45.18518  16.64083     57097.21    51.42216       44.41334   70.09154  74.87249   74.5    0.06584  -21.71572  0.99955 
  -38.26547  0.04279  2.19378     13.43715   1.5801   1.2673  10.71096   0.1719      0.0101  5437.10373   8298.74191  2.12109         2708.33463     18.81154   0.0036  57003.76453  1.88882  0.45834    9431375.5226  44.81057  16.64048     57099.25    51.39902       44.40698   66.51101  72.58288   74.0    0.06822  -21.71973  0.98581 
  -40.38154  0.00226  2.24281     13.86727  1.64699  0.38739  10.17633  0.19618     0.01002  5200.69017   8072.69142  1.82685         2860.07516     17.29432  0.00011  57001.64846  1.64188  0.02298   1417623.90021  45.63239  16.63579    57098.987    51.41232       44.40494   72.06262  74.75871   77.0    0.06448  -21.68979  0.99929 
  -40.41245  0.00244  1.89535     13.36367  1.30654  1.16101   9.73338  0.19373     0.01123    5062.215   8165.40253  2.82931         2609.95151     19.15835    0.008  57001.61755  1.48789  0.02375   8165570.99578   44.9176  16.64134     57099.25     51.4048       44.41018   65.88242  73.21147   78.5    0.06255  -21.68288  0.99927 
   -35.7952   0.0043  2.33178     14.08878  1.74855  0.21714    8.2129  0.21415      0.0114  5589.78953   8354.61673  2.43787         2623.90392     18.62998  0.00237   57006.2348  1.53079  0.03532    586563.89497  46.00783  16.65802    57100.984    51.38252       44.38896    67.6784   71.4155   73.0    0.07145  -21.71277   0.9989 
  -42.37595   0.0073  2.50265     13.71838  1.88257  0.77341  11.48885  0.16588     0.01033   5172.2503   8314.41554  1.70227         2865.15355     18.68633   0.0027  56999.65405  1.83342  0.08382   4005128.72924  45.14418  16.64889     57098.61    51.39003       44.39575   69.74614  72.43175   77.0    0.05989  -21.68979   0.9974 
  -44.56249  0.09105  2.09559     13.49292   1.5682  0.87946   9.82296   0.2194     0.01055  5408.66422   8173.23673  1.94938         2647.23336     19.44159  0.01536  56997.46751  1.71415  0.89438   6606901.54251  45.00164  16.63018     57098.21    51.42396       44.41335    71.6702  75.15113   77.0    0.06175  -21.73056  0.97461 
