 texplosion  fnickel    Pspin  log(Bfield)      Mns  thetaPB   mejecta    kappa  kappagamma     vejecta  temperature    alpha  cutoff_wavelength  log(nhhost)      A_V         MJD0  kenergy  mnickel            TSD   log(L0)  Peak_mag     Peak_MJD  log(E_rad)  log(Peak_lum)  Rise_Time    E_fold  tau_1  delta_m15     r_peak     frac 
  -11.55209  0.28851  1.10481     14.52359  1.90867  0.51562   4.55315  0.28666     0.01591  6822.53797   7861.74556  0.60718         4683.71128     19.74687  0.03102  59277.89484  1.26424  1.31365    19405.98743  48.17507  18.18906  59331.75583    51.31189       44.61279    22.3745  42.93295   40.5    0.17418   -21.6284  0.99356 
  -16.25209  0.05283  1.59054     14.02346  1.69837  1.23295   6.62469  0.21803     0.01098  7606.10014   7373.37095  0.28448         4758.86093      19.5609  0.02021  59273.19483  2.28621  0.34998   358108.20224  46.54178  18.19172  59330.14844     51.1552       44.41607   38.20751  40.45501   40.0    0.19463   -21.6428  0.99524 
  -15.22126   0.0701   2.3789     14.47003  1.83983  0.33941   5.21288  0.24443     0.01388  7625.71163   6910.39682   0.9602         2890.99186     16.21276    1e-05  59274.22567  1.80828   0.3654   110987.80557  46.73559  18.19055  59332.30604     51.3214       44.62017   22.47501  42.70251   43.0    0.18194  -21.58323  0.99008 
  -12.73067  0.07647  2.38575     14.16665  1.74031  0.76774   6.90771  0.21332     0.01139  7846.25969   7259.70277    1.473         3244.35364     17.53113  0.00019  59276.71626   2.5368  0.52824   426973.53052  46.12382  18.19815  59331.34897     51.2248        44.5128   34.34792  38.97769   42.0     0.1862  -21.60268  0.98444 
  -17.12515  0.39544  2.03113     13.89515    1.602  1.53335   4.56318  0.30486     0.01383  7714.76403   6977.16953  0.32774         4493.94175     16.97807    5e-05  59272.32178  1.62009  1.80446   994621.98576  45.86038  18.17409  59330.13672    51.22831       44.52425   28.83652  40.43268   42.5    0.18554  -21.62582  0.95753 
  -16.02665  0.00478  2.10018     13.99018  1.64056   1.1142   4.37585  0.24531     0.02175  7235.81068   7453.19755  0.43658         4725.66228     18.74922  0.00312  59273.42028  1.36667  0.02093   703008.37987  45.99236  18.18151  59331.34897     51.2172       44.49638   34.34792  38.98735   42.5    0.17201  -21.61522  0.99947 
  -14.87364  0.12579  3.04375     14.25752   1.9872  0.57849   3.87259  0.25346     0.01249  6497.21581   7484.65761   1.1266         4165.28936     18.98319  0.00534  59274.57328  0.97518  0.48715   522208.14734  45.88243  18.20263  59331.34897    51.22047       44.48681   31.46501  42.70251   43.5    0.19092  -21.62493  0.98076 
   -15.6999  0.09089  2.15379     14.19043  1.64573  0.58542   4.00547  0.27237     0.02453   7647.8949   6848.47652  0.31218         4457.07769     17.93683  0.00048  59273.74703  1.39754  0.36407   294925.13863  46.34909  18.17475  59331.34897    51.27477       44.56668   28.77686  41.15699   42.5    0.18296  -21.60614  0.99043 
  -15.80902  0.07812  1.89969     14.50311  1.99899  0.41627   6.66478  0.14881      0.0145  7003.68725   7566.67725  0.23548         5776.02471     19.23068  0.00945  59273.63791  1.95014  0.52062    66033.99002  47.19252  18.21565  59331.75583    51.20224       44.47004   31.11702  42.11902   42.0     0.1813    -21.603   0.9921 
  -15.26759  0.00217  1.28011     14.32276  1.55507  0.48349   5.96573  0.24852     0.01671  7763.59689   7296.62507  0.24482         4676.33146     17.90203  0.00044  59274.17934  2.14495  0.01295    53523.54887  47.51756  18.16073  59331.34897    51.27771       44.58476   28.77686  39.31281   40.0    0.17834  -21.62914  0.99987 
  -11.59538  0.01783  2.00972     14.10825  1.95692  1.48157   6.44346  0.16377     0.01622  6976.06818   7470.72872  0.82671         4297.09547     20.36511  0.12878  59277.85154  1.87054  0.11488   445815.90463  46.30499  18.18141  59331.75583     51.3162       44.60889   32.60721  38.01948   43.5    0.16228  -21.73037  0.99797 
  -14.32933   0.0013    2.139     14.30206  1.95683  0.65954   7.41247  0.14643     0.01126  6953.64508   7210.94584  0.46904         4967.22129     16.84523    4e-05   59275.1176  2.13804  0.00966   206856.07826  46.58431  18.19411  59331.34897    51.20194       44.47067   33.71251  41.10638   42.0    0.17447  -21.62233  0.99981 
  -16.25554  0.19051  1.97692     14.08634  1.60289  0.78691   6.29022  0.20569     0.01089  7387.57262   7256.85596  0.51262         3984.66116     17.08442    7e-05  59273.19139  2.04784  1.19832   390855.28829  46.28976   18.1915  59331.34897     51.1735       44.45012   26.97001  43.35388   42.0     0.1893  -21.59443  0.97294 
  -13.73514  0.00531  1.39234     13.82677  1.22414  1.23468    3.8212  0.26327     0.03315  7458.18533   6487.12046  0.29307         4489.19254     18.54168  0.00193  59275.71178  1.26792   0.0203   489322.73634  46.37959  18.23211  59331.75583    51.19323       44.46746   30.45237  42.11902   43.0    0.17513  -21.59071  0.99965 
   -16.1795  0.03189  1.62605      14.1344  1.99367  1.40111   5.81324  0.18621     0.01458  6638.63736   7440.97467  0.26637         5532.42131     16.15764    1e-05  59273.26743  1.52828  0.18538   263599.09077  46.72529  18.17357  59331.75583    51.31908       44.62471    29.4175     38.83   42.0    0.17138  -21.57031  0.99793 
  -17.99983  0.00106  2.49763     13.92009  1.88513  1.46796   4.59591  0.27785     0.01078  7146.58176   7457.80605  0.46818         4421.40638     16.56654    2e-05   59271.4471  1.40022  0.00489  1577750.93249  45.55109  18.19136  59331.75583    51.39565       44.71091   27.08411  38.09341   43.0    0.18724  -21.60748  0.99986 
  -17.19601  0.00561  1.83371     14.12849  1.57949  0.64955   7.04075  0.17812     0.01022  7153.96482   7342.18328  0.37682         4495.90125     17.60398  0.00022  59272.25091  2.14951   0.0395   272903.28125  46.50469  18.21402  59331.75583    51.18246       44.45683   31.27617   42.0671   41.5    0.18686   -21.5945  0.99919 
  -16.48609  0.00996   2.0711     14.17729  1.82085  0.72628   5.05292  0.24485     0.01483  7308.00505   7080.96156  0.33435         4391.95167      16.7508    3e-05  59272.96083  1.60978  0.05031   320556.68516  46.39081  18.18799  59331.75583    51.20531       44.47914   34.65755  40.16134   41.5    0.18867  -21.59822  0.99894 
  -12.02821  0.00517  1.05742     14.16339  1.79608  1.41547   6.29717  0.16334     0.36952  6979.61309   6758.53738  0.33985          5147.2748     17.65162  0.00025  59277.41872  1.82993  0.03257    87874.96858  47.53081  18.20264  59331.75583    51.31502       44.60941     31.665   38.9617   43.5    0.17196  -21.59115  0.99984 
   -9.78195  0.29788  2.11305     14.12488  1.72181  1.13496   4.49495  0.33091     0.01417  7198.05238   7224.91887  1.60775         3760.54236     18.91283  0.00455  59279.66497  1.38926  1.33893   401663.82663  46.25115  18.16513  59330.14844    51.30864       44.61199   19.95943  43.79308   43.0    0.16994  -21.60578  0.96923 
  -13.64623  0.00152  1.84593     14.25126  1.49886  0.46582   5.30324  0.21049     0.01433  7152.13296   7084.96529  0.49947         4751.10337     17.64337  0.00024  59275.80069  1.61823  0.00806   149103.81104  46.73869  18.18987  59331.34897    51.20739       44.49873   32.08694  39.65582   41.0    0.18632   -21.6287  0.99982 
  -16.29749  0.06698  2.04089     14.22433  1.70019   0.5733   8.99499   0.1226     0.01129  7669.43587   7032.29302  0.33067         4241.29696     19.93335  0.04765  59273.14944  3.15613  0.60252   234041.73153  46.51041  18.22344  59332.30604    51.41332       44.71083   27.69375  39.73127   43.0    0.17462  -21.64546  0.98653 
  -15.04325  0.00122   1.3877     14.03626  1.65957  1.21085   5.74678  0.17231     0.01971  6619.26148   7120.29425   0.3437         5706.75646     19.91119  0.04528  59274.40367    1.502  0.00703   251125.46546  46.80436  18.19538  59332.30604    51.32097       44.60656     30.068  41.85202   43.5    0.16916   -21.6536  0.99992 
  -15.57369  0.02561  2.94863     14.42254  2.00729  0.43522    6.5752  0.22847     0.01156  7570.80116   6996.17856  1.52231         3434.05595     18.08575  0.00068  59273.87324  2.24812  0.16839    231519.0218  46.26763   18.1681  59331.34897    51.24559       44.53204   31.11702  39.22015   44.0    0.17046  -21.59203  0.99379 
  -13.27462  0.00258  1.84852     13.92496  1.43873  1.56185   7.50341  0.22885     0.01239  7876.87665   7260.02074  1.17495         3765.75228     19.11683  0.00727  59276.17231  2.77711  0.01936   644936.56614  46.08366  18.20931  59330.14844    51.12025       44.38065   34.24085  42.17417   42.0    0.16509   -21.6152  0.99954 
  -14.13104  0.08078  1.83841     14.28292  1.70715  0.59055   6.01782  0.21547      0.0148  7506.99326   7251.26623  0.48152         4365.78163     17.86452  0.00041  59275.31588  2.02301  0.48613   145588.70956  46.80911  18.20997  59331.34897    51.34291        44.6565    23.8634  41.14744   41.0    0.17564  -21.61512  0.99124 
  -17.06516  0.01232  1.72789     13.93944  1.60263  1.46539   6.90181  0.24686      0.0118  8166.25134   7151.44361   0.2444         4113.88732     17.25165   0.0001  59272.38177  2.74559  0.08502   587216.71516  46.22985  18.19407  59331.75583    51.34104       44.63013   29.21751  39.16169   40.5    0.18309  -21.60929   0.9985 
  -16.14387  0.01213  1.91187     13.82366  1.33805  1.08054   3.87866  0.26576     0.02146  7149.43772   6928.76083  0.48438         4361.77243     19.38047  0.01334  59273.30305  1.18264  0.04705  1023023.95003  45.82251   18.2038  59331.75583    51.34236       44.63865   29.33161  40.34091   44.0     0.1844  -21.61908  0.99866 
  -16.29392  0.06367  1.82776     13.91298  1.57413  1.28526   4.50977  0.27042     0.02005  8033.72025   7097.39593  0.32817         2404.03479     19.46915  0.01636  59273.15301  1.73626  0.28712   729012.28102  46.07931  18.20937  59331.75583    51.33602       44.64302   25.38716  40.45501   41.0    0.18653   -21.6141  0.99418 
  -17.71684  0.00117  1.51806     13.77005  1.23173  1.06123   5.49254  0.33802     0.01339  8414.47895   6766.09467  0.44559          2763.6685     16.28539    1e-05  59271.73009  2.31982  0.00644   760001.87089  46.11597  18.19874  59331.34897    51.32493       44.63097    27.8205  39.60452   41.5    0.18556  -21.61882  0.99987 
  -12.30539  0.03287  1.68099     14.23992  1.81659  0.87362    6.5011  0.15717     0.01917  6817.53796   7441.78725  0.55226         5172.88224     17.67213  0.00026  59277.14153  1.80247  0.21367   157896.57413   46.8786  18.18934  59332.30604    51.21873       44.50569   32.80105  39.78361   43.0    0.17241  -21.61552  0.99708 
  -16.13406  0.00578  2.23734     13.89458  1.57241  1.34714   6.60363   0.1823     0.01127  7347.14746   6940.30613  0.60988         4242.92208     18.87011  0.00412  59273.31287  2.12641  0.03815  1187656.39635  45.69126  18.18865  59332.30604    51.30066       44.58945    29.4175  40.45123   42.5    0.18468  -21.61149  0.99883 
  -15.01754  0.03587  1.67484     14.12273  1.93433  1.43506   3.88761  0.29765     0.03758  7772.67985   7281.02185  0.14851           4669.534     17.05048    6e-05  59274.42938  1.40104  0.13946   286302.09738   46.6506  18.18597  59331.75583    51.34096        44.6472   29.21751  38.20751   41.0    0.16987  -21.59962  0.99827 
  -16.76296  0.45553  1.18881     13.95676  1.47734  1.42554   5.30775  0.25819     0.01207  7122.08952   6737.93594  0.20722         5467.65718     17.04768    6e-05  59272.68396  1.60603  2.41786   236590.14648   46.9141  18.19557  59331.75583    51.29594       44.60196   27.63466  39.16169   42.5    0.17492  -21.57071  0.97805 
  -15.43818  0.20655  1.54838     14.38378  1.58717  0.41322   4.70984  0.23131      0.0218  7204.76221   7137.12347  0.23571         5339.19306     17.50831  0.00018  59274.00875  1.45839  0.97281    60343.18222  47.30908  18.19374  59332.30604     51.4462        44.7617   25.44625  39.47893   42.5    0.18091  -21.58449  0.98626 
  -14.98497  0.00209  2.07367     14.17478  1.92424  0.92455   4.89241  0.23782     0.01654  7077.81822   7672.58148  0.42491          4582.9008     16.87035    4e-05  59274.46196    1.462  0.01024   343560.58316  46.38362  18.22463  59331.34897    51.18143       44.45015   32.12966  42.70251   40.5    0.18475  -21.59022   0.9998 
  -14.26003   0.2353  1.94854     14.13514  1.87965  1.25378   7.93378  0.13646     0.02363  8386.78538   6990.18666  0.14337         4763.24576     16.46492    2e-05  59275.18689  3.32888  1.86685    355659.5708  46.41247  18.18633  59331.75583    51.36115       44.67313    27.8205  38.92278   44.5    0.18112  -21.61924  0.96812 
  -14.46437  0.07109  1.97251     14.24187  1.63535  0.53968   4.54741  0.33077     0.01962  8335.73688    6721.7928  0.82075         3040.44973     19.63284  0.02385  59274.98255  1.88486  0.32327   193961.63981   46.6047  18.23157  59332.30604    51.51152       44.82378   25.08709  40.43445   41.5    0.18323   -21.6521  0.99281 
  -18.15807    0.001  1.27436     14.05816  1.64313  1.15254   8.84259  0.17183     0.01435  7927.15286   7291.93237  0.04269         3939.94296     17.44979  0.00016  59271.28886  3.31467  0.00885   189567.03703  46.99617  18.19093  59332.30604    51.28131       44.57662   27.83465  40.45123   40.0    0.16575  -21.51333  0.99992 
   -14.8036  0.03437  2.50083     14.06666  1.61823  0.75846   3.84936  0.29277     0.03279  8380.63749   6792.13753  1.24053         2699.98826     19.32273  0.01168  59274.64332  1.61276  0.13231   691371.89413  45.84201  18.17923  59331.34897    51.29168       44.58345   25.38716  42.70251   44.0    0.17532  -21.60637  0.99515 
  -16.86065  0.01931  2.07946     14.13018   1.9962  0.90123    4.7774  0.23824     0.01375  6949.95729   7347.24992  0.37732         4484.87324     20.15677  0.07971  59272.58627  1.37652  0.09226   440100.09091   46.2896    18.191  59332.30604    51.38355       44.69391   26.97001  39.62368   43.0    0.18663  -21.66741   0.9983 
  -16.36011  0.24057  1.85202     14.28579  1.76428  0.57438   6.81176  0.16606     0.01797  8078.53331   7021.75289  0.13418         4388.04121     19.64695  0.02464  59273.08682  2.65186  1.63871   150691.95972  46.80203  18.21465  59331.75583    51.28472       44.56174    29.4175  42.09921   43.0    0.17546  -21.64049  0.97201 
  -13.37921  0.05581  2.17991     14.17105  1.77328  0.79207   6.24187  0.15904     0.01476  7027.82709   6991.72092  0.58829         4194.96922      18.5596  0.00202  59276.06771  1.83901  0.34833   355942.55887  46.28936  18.20053  59331.75583    51.35685       44.65376   24.45443  42.28885   43.5    0.17801  -21.58647  0.99163 
  -13.34545  0.03492  1.99988     14.10133  1.81159  1.35498   8.74633  0.16125     0.01335  7882.16238   7176.83128  0.64517         4163.63408     19.35459  0.01257  59276.10148  3.24148  0.30544   421924.32705  46.29966  18.22068  59331.75583    51.36597       44.65547   26.70193  42.13926   41.5    0.16541  -21.62549  0.99403 
  -14.69696  0.17629  1.64315     14.01609  1.64832  1.17811   7.71468  0.14781      0.0118  7456.90998   7371.90603  0.31179         4733.23952     20.06609  0.06469  59274.74996  2.55896  1.36001   383733.15352   46.4705  18.22777  59331.34897    51.28912       44.57696   35.61438  38.55314   42.0    0.18437  -21.67311  0.97963 
   -17.2506  0.04841  2.13484     14.22504  1.99831  0.74511   5.21925  0.25504     0.01698  8141.21657   6591.44264  0.33047         2245.14413     16.53635    2e-05  59272.19632  2.06354  0.25265   300000.83723  46.43365  18.21457  59331.75583    51.24988       44.52823   32.69987  39.22015   41.5     0.1856  -21.60378  0.99511 
  -16.65074  0.00578   1.6656     14.14109  1.80492  0.92934   4.18536   0.3078     0.02416      7560.2   6937.20011  0.19484         4818.06069      16.6383    2e-05  59272.79618  1.42701  0.02419   242796.25854  46.69692  18.20732  59331.75583    51.45405       44.77138   19.73716  41.95403   41.5    0.17718   -21.6048  0.99967 
  -16.33544  0.00444  2.23524       14.108  2.07827   1.4063   6.95591  0.15749     0.01046  6793.00248   7303.90092  0.42958         4562.81022     19.01898   0.0058  59273.11149  1.91472  0.03086   586357.40542  46.11974  18.22059  59333.34604    51.29982       44.57621   27.08411  42.78463   42.5    0.18493  -21.58528  0.99938 
  -12.52369  0.01745  1.70055     14.20865  1.75187  0.82358   4.99344  0.29438     0.01774   7643.6335    7447.6882  0.66281         3684.24557     17.41167  0.00014  59276.92324  1.74031  0.08715    179969.4144  46.79597  18.18638  59332.30604    51.25051       44.53932   28.11221  41.56031   40.0    0.17903  -21.58906  0.99871 
  -15.70312  0.04328  1.59085      13.9553  1.54653  1.53757   9.70238  0.11314     0.01145  7323.51255   7553.04025  0.26806          4865.8186     16.02894    1e-05  59273.74381  3.10416  0.41995    446521.0663   46.4051  18.20363  59332.30604    51.35566        44.6496   28.40179  41.27073   41.5    0.16761  -21.59799  0.99343 
  -17.20442  0.02455  2.19529     14.18506  1.63804  0.52061   5.94771  0.18453     0.01196  7261.15379   6732.03007  0.39091         4199.69061     18.80139  0.00352   59272.2425  1.87063  0.14599   312608.33173  46.30518  18.17681  59331.75583    51.30875       44.60993   25.30871  41.88533   43.5    0.18118  -21.59835  0.99595 
  -14.09006  0.06875   1.4281     14.19431  1.85001  1.09526   5.03459  0.24966     0.01867  6860.51693   7411.03029  0.49521         4581.98695     19.40511  0.01412  59275.35686  1.41353  0.34615   143179.29187  47.07062  18.18754  59332.30604     51.2973       44.58065   25.50126   44.4326   41.5    0.16988  -21.57383  0.99673 
  -16.14062  0.01276  1.47529     14.22168  1.47648  0.39154   5.79289  0.17365      0.0154  7627.89531   7095.55101  0.22858         5140.49578     20.56166  0.20248  59273.30631  2.01063  0.07392   107507.38184  47.06888  18.15308  59331.34897    51.19658       44.48208   31.46501  40.45501   43.0    0.18558  -21.83642  0.99892 
  -15.46415  0.06488  2.01728      14.0327  1.77656  1.37595   6.22794  0.21048     0.01254  7295.09959   7229.09655  0.51031         4382.81353     18.70944  0.00285  59273.98277  1.97712  0.40406   577469.80331  46.14736  18.18959  59331.34897    51.26297       44.54298   31.08402  40.43268   42.0    0.18072  -21.61063  0.99172 
  -14.62513  0.00135  1.65098     14.11009   1.9705  1.42384   5.49783  0.21563     0.01071  6502.76372   7559.06617  0.43822         4943.14101     19.70331  0.02806   59274.8218   1.3868  0.00744   300402.55581  46.65024  18.19961  59331.75583      51.317       44.60458   31.46501  40.45501   41.5    0.18208  -21.62078  0.99991 
  -16.78798  0.00125  1.08657     14.21055  1.41274  0.59842   7.56107  0.21416     0.02287  8242.86869    6958.3664  0.21386         3429.45901     16.99306    5e-05  59272.65894  3.06455  0.00942     58735.1644  47.57789  18.17845  59332.30604    51.31677       44.61575   33.33152  37.29517   41.5    0.16636  -21.55572  0.99992 
  -15.45847  0.00136  1.76087     13.83564  1.39369  1.43809   4.76789  0.23998     0.01522   7112.2582    7052.1399  0.41559         4689.61694     17.38866  0.00014  59273.98845   1.4387  0.00647   855377.49074   45.9894  18.16826  59331.75583    51.26816       44.56067   31.11938  40.39733   42.0    0.19078   -21.6081  0.99985 
  -14.18041  0.00529  1.24533     14.29722  1.51853  0.52339   3.97877  0.32659      0.0381  7829.28989   7040.37389  0.25341         4880.35037     19.57466  0.02086  59275.26652  1.45486  0.02104    55637.48099  47.51433  18.21174  59331.34897    51.36039       44.66664   26.15429  39.02323   41.5    0.17624  -21.63479  0.99979 
  -13.65311   0.0319  2.01982     14.18006  1.83921  0.96717  10.12104  0.15181     0.01613  8679.56004   7060.74318  1.07274         2723.70427     19.22479  0.00932  59275.79381  4.54829  0.32283   304054.70591   46.4399  18.19081  59332.30604    51.29566        44.5925   32.69987  38.81684   42.5    0.15854  -21.62015  0.99371 
  -14.69095  0.22056  2.36932     14.19828  1.50237  0.50497   3.20159  0.31207     0.02749  7092.75488   6943.11832  0.86818         4060.33549     18.00645  0.00056  59274.75597  0.96078  0.70614   314257.81872  46.19909  18.20023  59330.14844    51.13729       44.39327    36.9469  42.58105   44.5    0.17968  -21.59031  0.97458 
  -13.82477  0.01737  2.18084     14.08371  1.89996  1.19172   5.00466  0.20537      0.0196  7548.64445   7218.31518  0.28174          5124.7931     18.80388  0.00354  59275.62215  1.70114  0.08694   570658.12243  46.11397   18.1783  59331.34897    51.30077       44.58949   31.46501  40.45501   41.5    0.18835  -21.62578   0.9981 
  -15.40283  0.05742  1.87836     14.24993  1.67479  0.60949   8.40382  0.18445     0.01082  7786.21203   6773.62738  0.61685         3951.38265     18.58669  0.00214  59274.04409  3.03918  0.48253   173568.59182  46.70578  18.17762  59331.75583    51.26567       44.55564   27.83465  42.09921   42.5     0.1711  -21.62164  0.99066 
  -11.98106  0.00388  1.52682     14.08537  1.69815  1.45864   4.87894   0.2795     0.02186  7458.01153   6909.31715  0.57276          4451.7841      18.7938  0.00346  59277.46586  1.61882  0.01893   248098.99052  46.73662  18.22389  59331.75583    51.42825       44.73884   22.47501  40.79903   41.0    0.16584  -21.61185  0.99976 
  -13.95832   0.0043  1.73527     14.14593  1.69897  0.93447   4.91367  0.31845     0.03026  8601.02094   6830.29691  0.50919         3173.52083     17.72759   0.0003   59275.4886  2.16837  0.02112   242592.09948  46.63542  18.20195  59331.34897    51.20416       44.47067   32.69987  42.11902   40.5    0.17034  -21.60995  0.99966 
   -18.6422  0.01207  2.03639     13.99796  1.74843  1.04784   5.66156  0.20543     0.01123  7023.90964    7127.0782   0.2481         4809.92955     18.25436    0.001  59270.80472  1.66618  0.06832   679633.60051  46.06149  18.22237   59329.2105    51.39249       44.70263   27.83465   38.9617   42.5    0.18042  -21.56712  0.99852 
  -17.12392  0.01435  1.68971     14.09545    1.646  0.85178   8.57923  0.14582     0.01639  8200.71906   7002.78903  0.06537         3822.61189     19.55351  0.01987  59272.32301  3.44175  0.12307   281164.39487  46.58069  18.19272  59332.30604    51.24686       44.53236   29.88216  40.45501   41.5    0.17711  -21.60354  0.99801 
  -15.19114  0.00528  1.74079     14.10003  1.84081  1.26673   5.49483  0.23742      0.0159  7284.22034   7466.37171  0.39091         4637.84323     17.39417  0.00014  59274.25578  1.73919  0.02903    326784.9977   46.5381  18.19542  59331.75583    51.35048       44.65268   29.21751  38.20751   40.5    0.17736  -21.60812  0.99958 
  -12.41739  0.01865    1.067     14.28543  1.82899  0.89206   6.46305  0.17443     0.03805  7030.61982   7600.25711   0.3475         5535.97857     17.49875  0.00018  59277.02954  1.90569  0.12055    51939.54838  47.75923  18.17346  59331.75583    51.27974       44.57098   27.63466  40.65123   42.5    0.16872   -21.5948   0.9994 
  -16.37883  0.00886  2.13526     14.12311  1.69752  0.79644    9.4957  0.15204     0.01035  7953.50716   7024.94756  0.61822         3566.64525     19.05978  0.00638  59273.06809   3.5832  0.08414   407674.23603  46.22945  18.19088  59331.34897    51.27308       44.56682   34.94737  37.16886   41.5    0.17153    -21.606  0.99791 
  -14.04357  0.06365  0.93686     14.19835   1.7947  1.17958   8.23376  0.19365     0.01493  7841.24343   7342.77801  0.34356         4119.06644     19.73486  0.03017  59275.40335  3.01992  0.52406     58675.6584  47.81102  18.18582  59332.30604    51.29515       44.57438     31.665  40.45123   40.0    0.16209  -21.64301  0.99805 
  -15.10183  0.21415  1.61712     14.05974  1.73882  1.53511   5.44871  0.22602     0.02005  7784.17056   7295.75231  0.19204         5799.79225     16.26972    1e-05  59274.34509  1.96945  1.16685   320681.62378  46.58554  18.19242  59332.30604    51.37139       44.67787   26.15429  40.58898   40.5    0.17403  -21.63166  0.98439 
  -12.83056  0.01778  1.96184     14.00187  1.58618  1.25775   8.93944  0.16154     0.01413  8264.73987   6719.57862  1.34135         2826.52901     19.30322  0.01117  59276.61636  3.64247  0.15894   562032.10167  46.13411  18.20155  59331.75583    51.23135       44.51257   31.11702   40.6354   43.0     0.1646   -21.6051  0.99633 
  -15.90148   0.0101  1.68812     14.06881  1.84532  1.37915   5.60602  0.19763     0.01362  6609.90765   7713.78721  0.35031          4741.6947     18.47445  0.00166  59273.54545  1.46107   0.0566   355690.26904  46.52904  18.21296  59332.30604    51.32232       44.61358   26.15429  42.09321   41.5    0.17639  -21.56625  0.99923 
  -16.67257  0.01789  2.14206     13.98635   1.8522   1.4877   5.87351  0.16765     0.01985  7909.96643   7068.60025  0.10403         5278.16983     19.91765  0.04596  59272.77435  2.19217  0.10506   840347.65712  45.95041   18.1908  59331.34897    51.27926       44.57392   27.63466  40.65123   43.0    0.18958  -21.65097   0.9977 
  -17.14152  0.15049  1.99144     13.96469  1.71805  1.53917   5.12413  0.25118     0.01965  8238.66071     6917.507   0.0488         3971.85668     17.59269  0.00022  59272.30541  2.07473  0.77113   744408.60929  46.03374  18.20742  59333.34604    51.31538       44.60812   29.21751  39.16169   41.0    0.19244  -21.60114   0.9839 
  -14.21539  0.01353   1.6722     14.18383   1.6075  0.70623   4.95313  0.22741     0.01541  6619.52775   7467.04528  0.59279         4583.38739     16.15804    1e-05  59275.23153  1.29467  0.06699   179012.80557  46.77553  18.20014  59331.34897    51.36707       44.67968   27.08411  38.09341   42.0    0.17701  -21.58487   0.9989 
  -18.06252  0.00971  2.17415     14.03236  1.89708  1.25694   8.23928  0.15482     0.01256  8053.47997   7148.10213  0.18216          4196.1824      19.8256  0.03718   59271.3844  3.18774  0.07999   717413.68062  46.01658  18.15953  59331.75583    51.26584       44.56662   29.50117  38.78471   41.5    0.18437  -21.63503  0.99826 
    -9.9319  0.46045  0.82472     14.39343  1.88242  0.89406   5.43987  0.21429      0.0152  6564.11976    7616.8936  0.71324         4872.10998     18.60851  0.00226  59279.51502   1.3982  2.50479    19421.51842  48.42267  18.20241  59331.34897    51.31749       44.61279   29.21751  39.16169   43.0    0.16263  -21.58275  0.99506 
  -13.93484  0.00538   2.4986     13.96329  1.67758   1.1799   4.24891  0.24427     0.01889  7408.95506   7222.65369  0.80321          3821.9523       17.823  0.00037  59275.51208  1.39129  0.02286  1151611.65247  45.63683   18.2071  59331.34897     51.4022        44.7166   24.50611  40.41907   42.5    0.18609  -21.60548   0.9992 
  -19.04524  0.03378  1.60517     14.25088  1.72063  0.52882   5.09845    0.249     0.01953   7791.0536   7184.29675  0.08792         2604.25575     20.14583  0.07773  59270.40168  1.84611  0.17224   129651.45441  46.98071  18.22565  59331.34897    51.13159       44.38375    36.9469  42.58105   41.5    0.18151  -21.61754  0.99765 
   -18.0578  0.04583  1.55693      14.2007  1.54178  0.52436   4.87035  0.30986     0.01416  7558.05486   7045.06528  0.23809         3856.01529     16.02733    1e-05  59271.38913  1.65962  0.22321   137714.86936  46.93335  18.20969  59331.34897    51.15058       44.40778   32.80105  44.27862   41.0    0.18567  -21.57252  0.99662 
    -14.579  0.03215  2.05741     14.08924  1.41357  0.57326   5.93185  0.17061     0.01356  7024.96047   7466.61783  0.73028         4430.88051     19.89455  0.04358  59274.86792  1.74624  0.19074   368379.37492  46.22622  18.18246  59331.75583     51.2659       44.55594   27.83465  42.09921   43.5    0.18119  -21.66528  0.99422 
  -12.78243  0.11818  2.39465     13.89835  1.46049  1.50161   7.26013  0.17132     0.01057  7169.86455   7026.46073  1.48533         3825.49119     17.93964  0.00048  59276.66449  2.22635  0.85801  1241919.11831  45.58077  18.19601  59332.30604    51.26777       44.54532   30.35971  41.15699   44.0    0.17321  -21.59219  0.96736 
  -14.42127  0.06907  1.53811     14.26537  1.69553  0.64213   5.02965  0.20416     0.01893  6790.15778   7289.42617  0.35184         5031.87569     16.00517    1e-05  59275.02565  1.38333  0.34742    109734.4526  47.08384  18.18638  59331.75583    51.27406       44.56068   31.11938  40.39733   42.0    0.17066   -21.5717  0.99559 
  -17.33785  0.40519  1.73707     14.12971   1.9037  0.96965   4.99088  0.28856     0.01066  7162.36248   7405.55651  0.26347          4760.0412     19.63247  0.02383  59272.10908  1.52727  2.02223   293515.37027  46.60118  18.20664  59332.30604    51.32966       44.63284   29.21751     39.03   42.0    0.18186  -21.59872  0.97291 
  -17.68013  0.03601  1.89068     14.00554  1.79613  1.42028   6.43736  0.17074     0.01206  6924.79103    6956.9562  0.24867         5030.85405     17.62719  0.00024  59271.76679   1.8414  0.23181   581175.78312  46.20564  18.18943  59332.30604    51.26102        44.5362   34.94737  40.62574   43.0    0.18305  -21.56703  0.99588 
  -14.76463   0.0011  1.61258     14.00174  1.63625  1.39148   6.41479  0.16248     0.01501  6818.11216   7426.62779  0.36657         4644.96907     17.07535    7e-05   59274.6823  1.77884  0.00709    391940.7115  46.47443  18.17709  59330.13672    51.29363       44.60495   24.72251  40.45501   42.0    0.17172  -21.56826   0.9999 
  -15.25087  0.14456  1.98441     14.15627  1.63252  0.66524   5.55521  0.15615     0.01497  6631.83859   7410.41887  0.38987         5129.54015     16.79398    3e-05  59274.19605  1.45746  0.80307   290673.77538  46.42304  18.19341  59331.34897    51.21747         44.497   32.73376  40.59185   44.5    0.17547  -21.58758  0.98206 
  -13.91769  0.00288  2.00362     14.15464  1.65239  0.64218   5.29887  0.33162     0.01408  8584.89437   7070.86193  0.78419         2884.65976     16.07718    1e-05  59275.52923  2.32959  0.01527    302195.6988  46.40304  18.19733  59331.75583    51.36345       44.67642   24.72251  40.45501   40.5    0.18694   -21.6322  0.99965 
  -16.86929  0.00202  2.00057     14.02488  1.87599    1.437     4.877  0.25617     0.01261  6877.49231   7295.59062   0.3768         4707.85354     16.55788    2e-05  59272.57764  1.37607  0.00987   621721.96584  46.14617  18.20784  59332.30604    51.35977       44.64941   25.44625  41.97877   42.0     0.1767  -21.58853  0.99982 
  -16.49912  0.03394  1.78661     13.88286  1.53569  1.28426   5.77074  0.17429      0.0103  6682.15299   6754.27349   0.3372         5467.62111     19.59843  0.02204   59272.9478  1.53706  0.19587   780659.23345  46.05863  18.21795  59331.75583    51.34389       44.64871   25.44625  41.14744   43.0    0.19043  -21.63737  0.99605 
  -14.17898  0.00442  2.25527     14.19901  1.92586     0.84   5.92875  0.17434     0.02125  7687.55675   7247.90654   0.2722         5039.88575     16.18962    1e-05  59275.26794   2.0901  0.02618   363768.49782  46.28625  18.18992  59331.34897    51.13268       44.40266   31.46501  42.70251   42.0    0.18107   -21.6087   0.9994 
  -18.35101  0.04761  2.39604     14.05775  2.06863  1.27894   3.72874  0.30952     0.01925  7390.43793   7140.77836  0.18927         4696.04936     18.97092   0.0052  59271.09592  1.21487  0.17752    845239.6225  45.89856  18.19748  59332.30604    51.28451       44.57926   29.21751  40.65123   42.0    0.18229  -21.58424  0.99588 
  -15.14563  0.02313  2.53512      14.0242  1.92111  1.40378   7.96651  0.18752      0.0104  8134.34114   6785.91989  0.87183         3254.54157     17.36949  0.00013   59274.3013  3.14442  0.18429  1025590.45849  45.73343  18.19544  59330.14844     51.4009       44.72385   20.32751  40.12403   42.5    0.18355   -21.6298  0.99465 
  -11.54273  0.06018  2.01127     14.04946  1.70829  1.39441   6.34124  0.27121     0.01654  8664.30522   7038.77414   1.4256          2940.3832     19.42965  0.01494  59277.90419  2.83967   0.3816   510972.56848  46.18607  18.18626  59331.75583    51.29156       44.57779    29.4175  40.45123   41.0    0.16859  -21.62483  0.99177 
  -14.88031  0.00209  2.07872     14.00786  1.74311  1.28096   4.66241  0.23307     0.01563  6803.80618   7318.81838  0.62191         4511.01692      19.7221   0.0293  59274.56661  1.28748  0.00977   674550.28877  46.04556  18.17089  59331.75583      51.319       44.61358    27.8205   40.5587   42.5    0.17387  -21.63658  0.99978 
     -16.58  0.00323  3.48986     14.02909  2.14684  0.96653   4.57122  0.23774     0.01501   7699.8248   6645.87177  1.34773         3450.58234      19.5386   0.0192  59272.86692  1.61667  0.01479  2123454.96687  45.18799  18.21691  59331.34897    51.23781       44.52514   32.73376  39.18626   45.5    0.18602  -21.64453   0.9993 
  -12.88118  0.15202  1.09605     14.36348  1.64605   0.5956  10.62899  0.12798     0.01047  7656.90688   7311.03455  0.32264          5202.5452     16.16124    1e-05  59276.56575  3.71728  1.61583     34432.2949  47.86866  18.20577  59331.34897    51.15941        44.4327   33.71251   40.5044   40.5    0.17769  -21.61685  0.98989 
  -16.45113   0.0112  2.13264     13.93278  1.49851   0.8212   3.69659  0.31753     0.01236   6713.9012   6672.04682  0.65625         4236.10972     16.37642    1e-05  59272.99579  0.99398  0.04141   862462.04567  45.85093   18.1723  59331.75583    51.26663       44.55128   31.46501   40.0517   44.0    0.19254  -21.58534  0.99876 
  -12.39894  0.00754  2.01553     14.06685  1.60596  0.99148   6.50733  0.14404     0.01121  6173.54007   7859.72543  0.94795          4414.2769      18.0679  0.00065  59277.04799  1.47944  0.04907    445269.5652  46.21718  18.18155  59331.34897    51.27244       44.56206    29.4175  40.45123   43.5    0.16696  -21.58755  0.99882 
  -16.60586  0.21354  2.80034      13.9334   1.8182  1.32215     5.137  0.20952     0.01391  7628.38464   7214.63078  0.57566         4097.50023     18.81903  0.00366  59272.84106  1.78321  1.09694  1799163.98825    45.379  18.15956  59330.13672    51.17069       44.45349   34.37716  38.85888   43.5    0.19361  -21.62819  0.95899 
  -15.64613   0.0019  1.88611     13.95603  1.48658  1.12935  10.16194  0.15305     0.01181  8327.60654   7071.50691  0.65872         3620.00008      19.4637  0.01616  59273.80079  4.20382  0.01933   601274.67657  46.11082  18.19702  59332.30604     51.2791       44.57167   30.35971  39.50902   41.5    0.16735  -21.63926  0.99954 
  -14.39392  0.08716  1.62493     13.81896  1.24205  1.55537   6.75603  0.20539     0.01177  7201.18882   7532.25828  0.74475         4233.62523     17.12718    7e-05    59275.053  2.08991  0.58887   700977.95391  46.09561  18.21914  59331.34897    51.36453       44.67851   25.44625  39.73127   42.0     0.1688  -21.58457  0.98667 
  -16.05313   0.0026  1.51381     13.86355  1.44779   1.2619   6.77677  0.14414     0.01046   6758.2823   7456.74393  0.29408         5239.98029     20.03275  0.05991  59273.39379  1.84638   0.0176   577519.16818  46.30784  18.17434  59332.30604    51.32752       44.62014   26.15429  42.22491   42.0    0.18413  -21.65718  0.99972 
  -13.93691  0.01114  2.34755     14.09304   1.8431  1.01281   4.69521  0.20542     0.02135   7411.6759   7379.47192  0.42691         4783.78848     17.24918   0.0001  59275.51001  1.53856  0.05233   614495.58223  46.00465  18.18185  59330.14844    51.31104       44.61105   27.28796  41.15699   42.0    0.18212  -21.62984  0.99861 
  -20.09202  0.00322  1.98203     13.85542  1.64164  1.28143   5.28784  0.26797       0.012  7939.65189   6999.69371  0.05518         4569.14226     17.90127  0.00044  59269.35491  1.98842  0.01703   1165408.6176  45.82342  18.16825  59331.75583    51.28627       44.58458   27.83465  40.45123   41.5    0.19459  -21.60127  0.99961 
  -15.40387  0.01459  2.36547     14.00539  1.76355  1.26196   4.97648  0.25306     0.01404  6936.99653   7684.01355  0.90437         4213.06964     19.74449  0.03085  59274.04305  1.42854  0.07261   893839.97028  45.81614  18.20048  59331.34897    51.25646       44.54103   31.08402  40.43268   43.0    0.17627  -21.63257  0.99791 
   -9.70316  0.06813  1.60368     14.30589  1.71261  0.73058   6.19627  0.24784     0.01433   7406.4216   7306.43746  1.05113         4187.01545     18.63278  0.00239  59279.74377  2.02756  0.42217    99981.68787  47.09235   18.1973  59331.34897    51.33377       44.65295   25.38716  39.62368   41.5     0.1565   -21.6067  0.99432 
  -12.74516  0.00172  1.76444     13.98191  1.30924  0.85237    4.8976  0.28825      0.0247  8047.06417   6968.17003  0.87805         3594.49514     19.47604  0.01663  59276.70177  1.89184   0.0084   411361.44454  46.27843  18.22371  59332.30604    51.37274       44.67856   24.72251  40.45501   42.0    0.16934  -21.60029  0.99979 
  -16.30716    0.055  2.34913     14.18455  2.16578  0.95391   3.87589  0.29315     0.01753  7334.30686   7350.10892  0.25648         4718.69581     18.00019  0.00056  59273.13977   1.2437  0.21318   474396.26557   46.1865  18.18002  59331.34897    51.24199       44.52782   35.96001  38.20751   41.0    0.19275  -21.61486  0.99557 
  -16.57051  0.30405  1.57456     14.36334  1.80888  0.45073   4.90276  0.22782     0.01731  7569.23176   6745.48287   0.1003         5597.64016     20.20985  0.09007  59272.87641   1.6756  1.49067    78137.83969  47.23908  18.19349  59332.30604     51.2929       44.58263   30.35971  39.50902   42.5    0.19235  -21.69272  0.98213 
    -14.486  0.00175  2.37531     14.34694  1.73758  0.46335   6.58909  0.22947     0.01688   8445.2693   6771.49599  1.06777          3056.5944     18.06024  0.00064  59274.96093  2.80336  0.01154   184216.14267  46.49202  18.19493  59331.75583    51.25238       44.52832   32.69987  40.62574   42.0    0.17468   -21.6026  0.99966 
  -15.67978   0.0174  1.67036     13.97493  1.50468  0.91222   7.47817  0.13915     0.01082   7245.1781   6732.05036  0.30611         4632.44902      20.0213  0.05835  59273.76714  2.34164  0.13009   437542.19546  46.35965  18.18807  59331.34897    51.33815       44.64538   24.57144  39.02323   42.5    0.19293  -21.65953  0.99764 
   -17.8195  0.00787  1.32368     14.20392  1.66285   0.5565    10.165  0.11447     0.01311  7861.13717   7230.31865  0.05429          5425.6505     20.55237   0.1982  59271.62743  3.74719     0.08   105775.99231  47.22174  18.22739  59333.34604      51.359       44.64398   25.08709  44.58543   43.0    0.16837  -21.74741  0.99922 
  -17.33301  0.00113  1.73679     13.87782  1.49741  1.46311   7.49604  0.12529     0.01427  7020.63174   7089.79641  0.20849         5246.87814     18.20921   0.0009  59272.11391    2.204  0.00844   736227.38399  46.09768  18.21347  59331.34897    51.23916       44.51202   28.77686  42.97556   44.5    0.17123  -21.57121  0.99983 
  -16.02106  0.00955  2.05252     13.93632  1.68614  1.12489   5.72378  0.23738     0.01202  7983.80691   7262.28796  0.40436         3330.94578     19.91898   0.0461  59273.42586  2.17636  0.05465    884391.9658  45.92452  18.20296  59330.14844    51.19767        44.4738   31.15091  41.43376   41.0    0.19773  -21.66387  0.99873 
  -15.98867  0.00516  2.18526     13.78632  1.41479  1.51469   5.56764  0.28503     0.01029  7262.81931   6787.85647  1.58861         3486.44612     17.97971  0.00053  59273.45826   1.7519  0.02874  1678285.59058  45.51567  18.17932  59332.30604    51.30651       44.61916   27.63466     39.03   45.0    0.17761  -21.60718  0.99901 
  -17.97944  0.08915  1.99246     14.13449  1.59733  0.61463   5.59005  0.20612     0.01394  7345.27424    6959.0562  0.30009         4696.48562     18.72865  0.00297  59271.46748  1.79912  0.49835   316969.50009  46.37245  18.19104  59331.75583    51.23295       44.50212   31.08402  42.25125   42.5    0.17744  -21.60581   0.9883 
  -13.54271  0.00164  1.53083     14.16839   1.6539  0.80229   4.39917  0.31137      0.0141   6815.4759   7388.64006   0.6365         4446.15343     17.85832   0.0004  59275.90421  1.21896  0.00721   165730.99843   46.8981  18.18298  59332.30604    51.26068       44.55286   26.73903   42.2992   41.0    0.18041  -21.60351  0.99991 
  -17.01677  0.26015  1.46495     14.40799  2.03381  0.59397    4.3984  0.26945      0.0337  7800.70393   7032.41681  0.05304         5441.67973     19.94191   0.0486  59272.43016  1.59658  1.14423    61914.07583  47.45372  18.21377  59332.30604    51.25423       44.53522   27.63466  42.70251   43.0    0.16557  -21.59615  0.99013 
  -15.77381  0.00849  2.39506     13.98025  1.70374   1.3415   9.45618  0.13675     0.01152  7818.63711   7010.69065  0.73879         3815.96609      18.5134  0.00181  59273.67311   3.4483   0.0803   993935.63762  45.74426  18.20272  59331.75583    51.31657       44.60868   31.46501  39.16169   43.0    0.17007  -21.61429   0.9975 
    -13.869  0.20524  1.84234     13.95128  1.71713  1.33148   4.84669  0.22551     0.01843  7811.48137   6869.18495  1.20677         2656.98632     20.58987  0.21607  59275.57793  1.76416  0.99472   677322.76833  46.14211  18.21501  59332.30604    51.34998       44.64903   26.15429  40.58898   44.5    0.17864  -21.79087  0.98224 
  -13.12442  0.13772  2.13028     14.25288  1.85714  0.73781   9.49458  0.15845     0.01224  8901.43714   6957.98701  0.98483         2445.33951     17.86795  0.00041   59276.3225  4.48769  1.30756   244217.98456  46.49304  18.18475  59331.75583     51.2968       44.58928   27.78719  41.88533   41.0    0.18602  -21.63223  0.97259 
  -17.47703  0.06882  2.05687      14.1993  1.91765  0.67834   5.16252  0.20684     0.01046  6648.73897   7495.38729  0.32173         4644.60843     19.58172  0.02121   59271.9699  1.36134  0.35527   300883.71417   46.4468  18.20709  59331.34897    51.36858       44.68688   20.59209  42.08559   42.5    0.18681  -21.58976  0.99322 
   -13.9267  0.32883  2.00601     14.08544  1.82137  1.55411   5.38943  0.21808     0.01853  7617.11136   7043.04752  0.39768         4853.51184      16.1854    1e-05  59275.52022  1.86531  1.77219   459193.59025  46.26258  18.21344  59331.34897    51.22792       44.49948   31.46501  41.87026   42.5    0.17903  -21.62724  0.96637 
  -18.94356  0.00143  2.22723     14.04743  1.61258  0.60934   3.44734  0.33415     0.01604  7353.24246   6988.84472  0.25578         4852.81929     17.35099  0.00012  59270.50336  1.11191  0.00493   597053.40609  46.00483  18.20635  59332.30604    51.34526       44.63593   21.25674  45.40791   43.0    0.18584  -21.59829  0.99985 
  -19.09849  0.00444  1.84217      13.8271  1.40739  1.16428   5.67559  0.23814     0.01704  8163.96127   6467.51794  0.12857         4200.54493     18.77479  0.00331  59270.34843  2.25652  0.02521   983323.00943   45.8939  18.19604  59331.75583    51.33154       44.63388   26.15429  40.58898   42.0    0.18102  -21.61461  0.99938 
  -15.77722  0.00135   1.5896     14.04309  1.80259  1.38594   6.94044  0.16253     0.01078   6822.3091   7578.05992  0.24877         5493.36317     16.60096    2e-05  59273.66971  1.92698   0.0094     346828.062  46.58205  18.22007  59331.34897    51.21633       44.49204   30.45237  42.11902   40.5    0.17528  -21.60742  0.99988 
  -14.52436  0.00195  2.10962     13.88211  1.49573  1.42877   4.96995  0.22657     0.01849  7335.93244   7025.89838  0.69089         4085.29645     19.60978  0.02262  59274.92256  1.59547  0.00967  1063772.88321  45.76844  18.21093  59332.30604    51.34603       44.64509   26.97001  40.45501   43.0    0.17936  -21.62025  0.99972 
  -15.04754  0.24209   2.0827     14.00352  1.76545  1.41992   4.04839   0.2801     0.01374  6693.95251   7516.58217   0.5304          4946.8933     17.71991  0.00029  59274.39938  1.08212  0.98007   699640.72267  46.03357  18.18973  59331.75583    51.34245       44.64733   23.13966  42.02077   42.0    0.19446  -21.61912  0.97863 
  -17.04639  0.00839  1.60253     14.23502  1.50897  0.51487   8.02764  0.15787     0.01589   7834.6691   6639.57836  0.14092          5186.3076     18.10963  0.00072  59272.40053  2.93938  0.06731   121919.29451  46.95184  18.18609  59331.34897    51.24478       44.53103   31.11702  39.22015   42.0    0.18257  -21.58642  0.99888 
  -18.29334  0.05769  1.77761     13.79135  1.43145  1.21479   4.42268  0.29743     0.01316  7633.60054   6518.02325  0.12677         4975.76007     16.39857    1e-05  59271.15359  1.53734  0.25513  1097911.51199  45.88438   18.1819  59332.30604    51.27773        44.5721   30.35971  39.50902   42.5    0.19128  -21.61074  0.99433 
  -15.78425   0.4328  1.99383     14.20488  1.74152  0.69063   4.06417  0.31514      0.0147  6949.25792   6973.45576  0.56574         4349.43854     18.49093  0.00172  59273.66267  1.17078  1.75898   250241.48406  46.51204  18.18646  59332.30604    51.34533       44.64664   26.20434  40.59201   43.5     0.1861  -21.59959  0.96469 
    -14.593  0.03222  2.02068     14.23738  1.86004  0.72481   4.66111  0.25336     0.01739  7174.58777   7166.39695   0.3943         4885.16174      16.5347    2e-05  59274.85392  1.43123  0.15017   236357.65643   46.5538  18.22325  59330.14844    51.21334       44.49342   31.15091  40.60151   41.5    0.17988    -21.604   0.9971 
  -14.06683    0.275  1.38835     14.11771  1.45638  0.81227   5.02598   0.2514     0.01997  7428.61128   7162.87448    0.414         5025.93782     16.71722    3e-05   59275.3801  1.65449  1.38217   151592.22541  46.96645  18.19324  59332.30604    51.35916       44.65434    29.4175  40.25502   42.0    0.17213  -21.62411  0.98234 
  -16.75662  0.00446  1.89951     14.05113    1.821  1.05568   8.49155  0.13637     0.01428     8297.32   6728.61998  0.04732          3863.7234     20.02129  0.05835   59272.6903  3.48731  0.03791    482117.9331  46.28872  18.18556  59331.34897    51.36076       44.66377   26.15429   40.4394   41.5     0.1919  -21.67311  0.99933 
    -17.293  0.01695   1.8596     14.14627  1.70077  0.74372   8.14072   0.1846     0.01141  7952.43968   7240.43625  0.56071         2704.83189     17.13017    7e-05  59272.15393  3.07108  0.13797   278457.82605  46.51589  18.19735  59331.34897    51.27032       44.57026   28.77686  39.50902   41.0    0.17134  -21.58147  0.99742 
  -16.35778  0.00485  1.34538     14.10666  1.84069   1.4809   5.05165  0.25591     0.01772  6995.31271   7193.50764  0.28278         5088.15894     18.70938  0.00285  59273.08914   1.4746   0.0245   189306.63865  46.99897  18.19643  59331.34897    51.22469        44.5029   28.77686   42.9659   41.0     0.1764  -21.57684  0.99979 
  -19.23955  0.00219  1.36382     14.10973  1.38449  0.61159  13.11769   0.0993     0.01166  7947.04939   6753.15537  0.01387         5143.36384     16.94276    5e-05  59270.20738  4.94193  0.02868   144266.79438  46.98145   18.1866  59332.30604    51.35944       44.66247   26.20434  39.63783   43.0    0.16411  -21.52983  0.99961 
   -22.2091  0.00555   2.1356     13.91236  1.59582  0.72203   4.99611  0.27523     0.01049  7839.48693   6846.48202  0.08588         2470.35662     18.81758  0.00365  59267.23783  1.83162  0.02773  1011855.36564  45.80767  18.19408  59331.75583     51.3206       44.61876   29.21751     39.03   43.5    0.18396  -21.56469  0.99923 
  -17.65891  0.00314  2.48623     13.89796  1.69911  1.28773   3.43288  0.33086      0.0269  7952.02166   6963.24522  0.46627         3227.59028     18.78433  0.00338  59271.78802  1.29491  0.01078  1560253.14498  45.51479  18.18173  59332.30604    51.34399       44.63971   26.15429  41.27073   43.0    0.18405  -21.59889  0.99963 
  -14.64662  0.00497  0.85163     14.27124  1.68071  0.68327   7.67848  0.16158     0.01591  7144.30185   7402.57121  0.27969         5320.72924     20.29749  0.11021   59274.8003  2.33788  0.03813    32459.13767   48.1225  18.19914  59331.34897    51.30281       44.59656   29.21751  40.45501   41.0    0.16987  -21.71241  0.99987 
  -16.07781  0.14997  1.39599     14.03231  1.53317  1.10434   6.80085  0.25167      0.0181  8709.36139   7236.59202  0.34656         2001.61461     16.72706    3e-05  59273.36912  3.07725   1.0199   239079.94597  46.78613  18.21132  59332.30604    51.24607       44.53343   28.11221  41.56031   39.5    0.17655   -21.6053  0.98771 
  -12.77711  0.00443  1.75929     14.10345  1.73208  1.11011   7.01192  0.18068     0.01063  6864.81224   7328.10222  0.68182         4429.77599     18.90855   0.0045  59276.66981  1.97116  0.03104   309145.02404  46.52658  18.19365  59331.34897    51.33728       44.64157   26.15429  40.58898   42.0    0.17951  -21.60074   0.9995 
  -17.95092  0.05771   1.7292     14.31635  1.79159   0.5278   8.62268  0.14113     0.01001  7270.09712   7184.96976   0.1587         5476.13894     17.59896  0.00022    59271.496  2.71863  0.49761   115890.15445  46.98235  18.19483  59331.75583    51.27804       44.56747   31.46501  38.40373   41.5     0.1796  -21.57232  0.99261 
  -12.04626  0.24397  1.52889     14.61644  1.75786  0.30952   3.69356  0.32802     0.02913  7373.06849   7502.72796  0.52879         4638.75147     19.91988   0.0462  59277.40066  1.19776  0.90112    22318.60247  47.79641  18.22509  59331.75583    51.30473       44.59809    23.8634  42.93295   41.5    0.17756  -21.65957  0.98942 
  -14.16249  0.02921  1.43566     14.21863  1.85768  0.93329   6.30987  0.22121     0.01127  6751.67982    7628.1002  0.56836         4557.43754     19.26198  0.01016  59275.28444  1.71582  0.18433   129903.50661  47.11009   18.1689  59331.34897    51.47718         44.801   26.97001  37.95518   41.0    0.16748  -21.60509  0.99824 
  -12.30714  0.00274  2.21573     14.08934  1.82813  1.18089    3.9748  0.29201     0.01347  6325.90213   7355.95858  1.06965         4357.07139     19.05158  0.00626  59277.13979  0.94883  0.01089   552294.15664  46.09765   18.1886  59331.75583    51.25716       44.53915   30.35971  41.56031   42.5    0.17497   -21.6235  0.99974 
  -17.53839  0.00371  2.46913     14.12688   2.0327  0.96405   8.26605  0.18162     0.01046  8214.14983   6988.25477  0.56398         2906.71427     17.20554    9e-05  59271.90853  3.32698   0.0307    641526.5464  45.98462   18.2215  59331.75583    51.32546       44.60427   24.45443  43.92477   41.5    0.18271  -21.61409  0.99922 
  -15.52246  0.41649  1.47517     14.48871  1.87156  0.45866   5.78569  0.21007     0.01482  7277.75898   7229.83675  0.24493         5694.40643     18.05347  0.00063  59273.92447  1.82801  2.40967    39836.61746  47.60308  18.20229  59331.75583    51.35379       44.65174   24.72251  41.87118   42.0    0.18594  -21.61936  0.97647 
