 texplosion  fnickel    Pspin  log(Bfield)      Mns  thetaPB   mejecta    kappa  kappagamma     vejecta  temperature    alpha  cutoff_wavelength  log(nhhost)      A_V         MJD0  kenergy  mnickel            TSD   log(L0)  Peak_mag     Peak_MJD  log(E_rad)  log(Peak_lum)  Rise_Time    E_fold  tau_1  delta_m15     r_peak     frac 
  -41.53785  0.07168  1.01812     14.42754  1.75492  0.77001  39.79029  0.03105     0.02183  3055.28652   6926.93224  2.55733         2961.16186     17.02738    6e-05  54087.89215  2.21569  2.85199    23582.62474  48.12492  17.92591  54153.52543    51.15678        44.2111   31.39627  72.21142   96.5    0.05617  -20.41663  0.98857 
  -43.25369  0.11014  0.78122     14.18895  1.43353  1.23876  30.71358  0.04095     0.01038  3096.65693   7219.62778  2.97665         2962.85603      17.6856  0.00027  54086.17631  1.75689  3.38271    34029.77325  48.10785  17.85526  54149.98424    51.13868       44.21418    34.5359  69.07179   99.5    0.05237  -20.37905  0.99082 
  -19.30442  0.09604  1.01436     14.39602  1.59135  1.52088  28.35045  0.04128     0.01356  3474.84382   7027.28993  4.18453         3639.25871     17.84339  0.00039  54110.12558  2.04201  2.72291    24543.43872  48.06829   17.9249  54157.06661    51.12517       44.20774    34.5359  62.79254   78.5    0.06522  -20.92642  0.99165 
  -37.71138  0.15556  1.69618     14.53293  1.79083  0.71879  16.14386  0.07857     0.01276  2565.65761   7302.18434  4.62319         3756.15943     16.87766    4e-05  54091.71862  0.63392  2.51126    41111.24699    47.449  17.94705  54149.98424    51.05782       44.05827   40.81515   81.6303   95.0    0.05238  -20.61886  0.96807 
  -46.98094  0.06698  1.91753     14.23564  1.88827  0.99145    23.679  0.04783     0.01073  2808.00922   7153.73004  2.65133         2761.80789     16.15459    1e-05  54082.44906  1.11375  1.58591   217811.77178  46.64134  17.89165     54159.45    51.01452       44.07162    34.5359  69.41052   92.5     0.0572  -20.48864  0.97391 
  -26.57999  0.15653  1.73678     14.30023  1.72664  1.32248  16.37164  0.07284      0.0305  3559.72876   6848.73661  4.37355         2950.24178     17.49955  0.00018  54102.85001  1.23752  2.56269   121354.93053   46.9425  17.87647  54153.52543    51.16988        44.2932   28.25664  59.65291   81.0    0.07441  -20.79578  0.96271 
  -60.76944  0.07088  1.45163     14.02764  1.65796  1.37811  23.27611  0.05515     0.01218  3018.54428   7616.66217  2.58005         2335.75462      18.4795  0.00168  54068.66056  1.26512  1.64983   285645.07384  46.70888  17.93862  54157.06661    51.16143       44.21185    34.5359  75.35105   90.0    0.05577  -20.40655  0.98101 
  -41.08322  0.17777   1.2927     14.25122  1.75958  1.43997  17.58002  0.06371     0.01645  3113.09462   7344.71552  2.98394         2767.17691     18.31065  0.00114  54088.34678  1.01632  3.12513    85857.36855  47.35748  17.88155  54153.52543    50.94434       43.95254    34.5359  78.49068   94.0    0.05724  -20.51247  0.97648 
  -44.56345  0.08545  3.65086     14.01701  1.75963  1.32606  13.66542  0.07101     0.01015  3135.98149   7016.69585  4.29535         2910.96425     16.34989    1e-05  54084.86655  0.80167  1.16771  2013708.09575  45.08548  17.89939  54153.52543     51.1995       44.28677    34.5359  62.79254   89.5    0.06949  -20.71801  0.92473 
  -27.48409  0.23028  1.82694     14.57235  1.86211  0.69318  13.52214  0.06566     0.02137  3058.06441   6562.79724  3.36099         3413.60229     18.77798  0.00333  54101.94591  0.75434  3.11381    41358.03861  47.39884  17.94721  54149.98424    51.04871       44.05064   35.16793  84.03227   84.0    0.07217  -20.83713  0.95663 
  -36.08893  0.12652  1.24559     14.26227  1.38402  0.68839  23.34979  0.04162     0.01574  3197.46932   8031.74112  4.40954         2312.00134     16.22152    1e-05  54093.34107  1.42404  2.95417    59589.45133  47.44407  17.92226  54153.52543    51.15647       44.24046   28.25664  67.40995   85.5    0.06678  -20.73617  0.96892 
  -41.16637  0.10958  1.72613     14.23744  1.80577   1.1665  23.82012  0.04382     0.01309  3159.36621    7059.6617  1.33318         3415.25323     18.23271  0.00095  54088.26363  1.41831  2.61021    167393.3292  46.82762  17.89433  54153.52543    51.00004       44.04307   28.25664  75.35105   87.5    0.06655  -20.62822  0.96374 
  -30.06301  0.13452  2.29672     14.67494  2.07659  0.47259  17.53368  0.05583     0.01303  3170.94995   7076.39596  4.29473         2858.35255     16.83572    4e-05  54099.36699  1.05167   2.3586    45446.41824  47.20648  17.92881  54149.98424    51.12892       44.15097   31.39627  81.07566   84.0    0.07089  -20.82875  0.95315 
  -35.88494  0.15843  2.34019      14.1722  1.51961  0.97857  13.54442  0.07484     0.01589   2992.2711   6988.83464  4.50031          3058.5776     18.75507  0.00316  54093.54506  0.72342  2.14582   349665.35486  46.16842  17.87978  54153.52543    51.08232       44.13066   47.09441  69.07179   86.0     0.0701  -20.80781  0.93002 
  -29.95922  0.13283  1.31092     14.37369  1.80623  1.34287  22.77292   0.0503     0.01363  3250.23726   6913.49264   4.4172         2991.76349     18.51917  0.00184  54099.47078  1.43508  3.02483    51565.89589  47.57811  17.90236  54149.98424    50.98592       43.98211   40.81515   81.6303   88.5    0.06841  -20.78445  0.98001 
  -34.86717  0.08498  1.50911     14.23523  1.58591  0.79935  28.81674  0.03391     0.01093  3075.07613   8140.58663  2.88705         2742.06359     20.22962  0.09426  54094.56283  1.62549  2.44885    113519.0011  47.05661  17.91017  54157.06661    51.10323       44.19492   28.25664  64.27033   81.5    0.07135  -20.88363  0.96819 
  -31.74669  0.06279  0.88918     14.16622  1.46848   1.0527  45.04578  0.02534     0.01211  3446.72696   7805.72595  4.55994         2244.58256     20.33911  0.12129  54097.68331  3.19224  2.82826    50146.06411  47.83749  17.85394  54149.98424     51.2414       44.34828   28.25664  63.17409   81.5    0.06991  -20.88508  0.98779 
  -35.53822  0.12816  1.47398     14.59907  1.99477  0.74943  20.74988  0.06709     0.01454  2974.96475   7224.12259  4.96624         3445.56649     16.90249    4e-05  54093.89178  1.09549  2.65928    25500.24068  47.82521  17.87023  54153.52543    51.05108       44.09718   31.39627  75.35105   91.0    0.05629  -20.79843  0.98045 
  -36.35667  0.09211  2.12969     14.44212  2.14566  1.06028  26.36258  0.03964     0.01154  2858.54958   7518.51827  2.23013         3704.66645     16.24633    1e-05  54093.07333  1.28501  2.42838   117969.08501    46.872  17.94089  54153.52543    51.01234       44.03623    34.5359  78.38505   84.0    0.06645  -20.77054  0.96081 
  -31.43853  0.19393  0.89017     14.27201  1.67019  1.07218  16.29593  0.06134     0.02159  3472.81668   7332.45111  4.86006         2219.37659     19.99873  0.05539  54097.99147  1.17238  3.16031    35116.69611  48.04715  17.83873  54149.98424     51.2197       44.33586   28.25664  62.79254   85.5    0.07646  -20.89551  0.98996 
  -29.89375   0.1247  1.09197     14.29216  1.74991  0.94957  25.06498  0.04049     0.01414  3336.39874   8043.78782  4.68789         2311.98867     20.45695   0.1591  54099.53625  1.66437  3.12559    50457.58892  47.73252   17.8481  54157.06661    51.24967       44.39098   28.88868  59.02088   84.0    0.06698  -20.94211  0.98344 
    -24.485  0.29104  0.74154     14.74844  1.64733  0.43796  10.68408  0.10393     0.02879  3335.34062   7014.86249    2.959         3376.20206     19.54157  0.01933    54104.945    0.709  3.10949     2679.07929  49.31737  17.90004  54149.98424    51.03009       44.06308   31.39627  77.03847   84.5    0.06336  -20.79498  0.99668 
  -37.19262  0.07747  1.44177     14.18686  1.84908  1.54905  24.09359  0.04139     0.01034  2951.25305   7094.14903  2.51082         2543.89203     19.49863  0.01751  54092.23738  1.25182  1.86646    150956.8371  47.03916  17.91819  54149.98424    51.21204       44.26521    34.5359  72.21142   87.0    0.06508  -20.71552  0.98247 
  -48.76549  0.09767   1.5288      14.4532  1.52531  0.50702  31.76181  0.04915       0.013   3423.7295   7902.27271  3.41375         2939.32035     19.52802  0.01874  54080.66451  2.22091  3.10228    41065.11329  47.47003  17.87312  54149.98424    51.10016       44.15566   40.81515  69.07179   92.0    0.05074  -20.41751  0.95727 
  -50.98099  0.06243  2.05669     14.03968  1.67345  1.08527  21.17055  0.05456     0.01369   3045.1203    7858.5334  2.92374          2693.0981     20.43053  0.14971  54078.44901  1.17103  1.32162   547525.41711  46.12772  17.85634  54153.52543    51.00454       44.03433   40.81515  73.97758   88.5    0.05936  -20.68245  0.96984 
  -51.98515  0.09818   1.8111     14.18384  1.65283  0.85653  19.10282  0.06104     0.01205  2862.71386    7310.2659  1.21364         3602.39594     18.79842  0.00349  54077.44485  0.93386  1.87551    215892.2115  46.63695  17.89513  54157.06661    51.07832       44.14693    34.5359  65.93217   90.5    0.05919   -20.4823  0.96656 
  -55.99028   0.1208  2.13615     14.18938  1.79923   1.0535  19.89531  0.06332       0.016  3031.45845   7454.09353  4.09439         2601.78799     18.87531  0.00417  54073.43972  1.09064  2.40338   318711.43342  46.36127  17.81208  54146.44306    51.10921       44.17633   28.25664  69.07179   96.0    0.05661  -20.42739  0.94838 
  -36.69386  0.10519  0.75418      14.8425  1.89978  0.37476  32.24252   0.0423     0.01499  3611.39543     7374.072  2.88138          2857.6998      18.3105  0.00114  54092.73614  2.50845  3.39164     2072.39843  49.47613   17.9137  54157.06661    50.93712       43.95787    34.5359  78.49068   89.5     0.0586  -20.61239  0.99669 
  -22.34118  0.18492  1.30392     14.63555  1.86979  0.79577  16.82021  0.06102     0.01819  3075.37752    6830.8843  4.04105         3617.75167     17.47004  0.00016  54107.08882  0.94898  3.11039    15813.12884  48.11112   17.8977  54153.52543    51.09142       44.14906   28.25664  72.21142   83.5    0.05289  -20.82776  0.98496 
  -36.19818  0.12896  0.82111     14.36893  1.59009  1.14393  24.25057  0.05223      0.0128  2978.89134   6845.30667  3.66457          3475.6273      19.1759  0.00833  54093.23182  1.28368  3.12731    18204.09578   48.3813   17.8665  54149.98424    51.02141       44.04392    34.5359  78.38505   92.5    0.04991  -20.70022   0.9942 
  -27.23113  0.13045  1.13795     14.50033  1.83229  1.03669  24.06845   0.0557     0.01582  3547.91461   6835.88298  4.62566         3158.77391     18.93291  0.00476  54102.19887  1.80726  3.13979    21998.46541   48.0772  17.94613  54157.06661     50.9824        43.9982   40.81515  76.37141   87.5     0.0643  -20.85643  0.98841 
  -24.66195  0.25305  1.35226     14.53797  1.90457  0.85433  10.59594  0.10552     0.03237  3247.34026   7555.26859  2.90646         3569.78287     19.62568  0.02346  54104.76805  0.66653  2.68133    27151.22392  47.85273  17.91019  54153.52543    51.05354       44.09624   40.81515  69.07179   81.0    0.06357  -20.80451  0.98319 
  -28.46274  0.11783  1.15146      14.3435  1.69074  1.20607  29.49228  0.03349     0.01458  3343.97038     8066.447  4.92281          2628.9734      17.2969  0.00011  54100.96726  1.96725  3.47493    42794.44593  47.74304  17.92047  54153.52543    51.00318       44.01258   37.67552  78.49068   84.5    0.06155  -20.78426  0.98139 
    -40.943  0.08283  2.81367      14.2885   2.0835  0.82741    25.362  0.03216     0.01044  3009.70432   8187.33736  3.98246         2569.60353     20.40818   0.1422    54088.487  1.37043   2.1007   405644.57844  46.08095  17.86406  54157.06661    51.09918       44.18425   37.67552  61.16616   88.5    0.07331  -20.85401  0.93746 
  -28.95103  0.16578  1.11708     14.30565  1.83634   1.5077  17.84757  0.05565     0.03012  2949.37488   8110.71166  3.90385         2728.34362     20.19984  0.08802  54100.47897  0.92612  2.95882    52076.93168  47.71998  17.83047  54149.98424    51.07963        44.1194    32.0283  74.71901   85.0    0.07305  -20.82241  0.98621 
  -43.73544  0.13437  0.97231     14.09865  1.48287   1.4454  20.61659   0.0532     0.01166  3036.97041   7286.65624  1.80523         2663.44633     16.20392    1e-05  54085.69456  1.13429  2.77019    82646.06799  47.54712  17.81448  54153.52543    50.97086       44.03123   31.39627  69.41052   93.0    0.05773   -20.4149  0.98502 
  -39.79079  0.18291  1.36997     14.19952  1.40797  1.01221   14.5771  0.08504     0.02061  2968.57878   6426.37412  2.85011         3535.03397     17.40059  0.00014  54089.63921  0.76629  2.66631    97902.19617  47.15323  17.93936  54157.06661    51.07032       44.14375   28.25664  69.07179   92.5    0.05722  -20.60071  0.96724 
  -37.86784  0.19338  0.71843     14.18255  1.43373  1.03848  17.30112  0.06047     0.03002  3385.66575   7531.21815  4.92771         2028.87136     19.66396  0.02563  54091.56216  1.18301  3.34573    29645.83658  48.24058  17.88908  54149.98424    51.03525       44.03945   43.95478  78.38505   91.0    0.05876  -20.59202  0.99211 
  -25.04072  0.15946  1.83879     14.31966  1.52025  0.70418  17.37918  0.05546     0.01834  3335.04965   7789.66566  4.33522         3102.47217     20.46493  0.16205  54104.38928  1.15308  2.77134   109518.28374  46.88221  17.91812  54157.06661    51.02382       44.07164    34.5359  72.21142   81.0    0.07908  -21.01213  0.94416 
  -28.20799  0.10994  1.32764     14.29611  1.74617  1.55915  30.48771  0.03125     0.01153  3649.02875   6421.04249  2.82535         2687.83845     17.29523  0.00011  54101.22201  2.42162  3.35181    73088.61842  47.40092  17.89274  54157.06661    51.12204       44.18936   28.87095  71.59712   88.0    0.07609  -20.79047  0.97419 
  -48.08982  0.13234  0.89849     14.26214   1.7718  1.53992   24.3022   0.0578     0.01295  2951.24302   7618.27429  4.54816         2678.62669     20.02981   0.0595  54081.34018  1.26265   3.2162    39716.64575  48.01126  17.89427  54149.98424    50.97193       43.97471   37.67552  79.65184  100.5    0.04669  -20.28056  0.99092 
  -41.24625  0.09685    1.063      14.7095  1.92717   0.4142  28.56919  0.03834     0.01502  2995.65046   7485.83197  1.40461         3545.22003     17.08928    7e-05  54088.18375  1.52935  2.76683     7705.60886  48.61389  17.87245  54149.98424     51.1261       44.20137   28.88868  68.43976   90.0    0.06333  -20.48222  0.98939 
  -34.36819  0.13004  0.78278      14.2344  1.36925   1.4083  23.28039  0.05659     0.01493  3076.40249   6751.43978  3.97926         3433.22146     17.21852    9e-05  54095.06181  1.31433  3.02727    26471.97757  48.19526  17.85206  54153.52543    51.45349       44.63349   25.11702  53.37366   92.0    0.05705  -20.84572  0.99294 
  -54.09509  0.17002   1.6954     14.33626  1.74335  0.87181  17.28816  0.08043     0.01723  2716.09548   7524.43153  3.32618         3357.77093     19.02022  0.00582  54075.33491  0.76079  2.93935    98905.51031  47.05647  17.80433  54153.52543    51.26899       44.43228   25.74905  55.88125  101.5    0.04957  -20.28657  0.95908 
  -36.20131  0.13243  1.45995     14.24266  1.76557  0.80396  26.17198  0.03681     0.01372  3366.70096   8450.92113   4.7575         2204.62135     20.72087  0.29215  54093.22869  1.76959  3.46608   114302.58819    47.129  17.91226  54153.52543    51.19946        44.3314   25.11702   60.0522   87.0     0.0711  -21.04571   0.9642 
  -32.05207  0.13229  1.81632     14.46039  1.44349  0.58013  17.21964  0.07878     0.01276  2935.49742   8338.53651  4.61078         3838.39618     18.40719  0.00142  54097.37793  0.88515  2.27801    53068.78458  47.18503  17.91171  54153.52543     51.1907       44.28869   28.25664  65.93217   85.5    0.06364  -20.79916  0.95219 
  -44.19127  0.10603  1.61729     14.04584  1.42668  1.42897  24.44573  0.04946     0.01403  3371.91663   7312.83923  1.82621         3099.79088     18.49972  0.00176  54085.23873    1.658  2.59196   280559.73043  46.55757  18.00379  54157.06661      51.217       44.27505   31.39627  72.21142   87.0    0.06322   -20.5851  0.95496 
  -42.61474  0.09153  1.78922     14.08188  1.72264  1.39408  20.83752  0.04224     0.01122  3060.00674   7646.35424  2.24715         2431.29213      19.2296  0.00943  54086.81526  1.16391  1.90732   351221.23185  46.45413  17.88311  54153.52543    51.08612       44.13859   37.67552  69.07179   89.0    0.06598  -20.65116  0.96875 
  -27.29636  0.16843  1.13563     14.57092  1.66756  0.58588  16.04616  0.06926     0.02682  3150.83625   7012.58525  4.07403         3106.51505     16.77942    3e-05  54102.13364  0.95028  2.70272      14405.866  48.22191  17.92634  54153.52543    50.99292       43.99973    34.5359  82.79147   85.0    0.06228  -20.83075  0.98584 
  -29.16672  0.23427  1.25535     14.47509  2.04684  1.32546  12.75602   0.1057     0.03792   3889.9681   7493.43148  4.06335         2844.87393     18.10509  0.00071  54100.26328  1.15142  2.98829    33593.09451  47.85615  17.87306  54153.52543    51.02106        44.0573   37.67552  72.55015   80.0    0.05453  -20.75838  0.98702 
  -33.12303  0.10264  1.69032     14.65609  1.82081  0.41873  26.14547  0.04053     0.01274  3468.93288   7376.71369  4.62279         2672.98147     19.34816  0.01238  54096.30697  1.87679  2.68369    23541.59613  47.70134  17.87275  54153.52543    51.01651       44.07303   28.25664  72.21142   84.0    0.07034  -20.87234  0.96536 
  -47.68309  0.12127  1.05448     14.30394  1.73093  1.07779  24.70801  0.05801     0.01172  3101.54463   7762.62678  4.82982         2649.51598     17.19401    9e-05  54081.74691  1.41782  2.99643    44084.48877  47.81676  17.84765  54153.52543    50.93031       43.94921   31.39627  78.49068   96.5    0.04723  -20.29284  0.98615 
  -47.44624   0.1166  1.25322     14.13212  1.62134  1.06757  21.00184  0.05377     0.01009  3158.51127   6900.69918  3.20338         2130.92797     19.79652  0.03477  54081.98376  1.24983  2.44878   128680.30742  47.17315  17.84427  54153.52543     51.0154       44.08566   37.67552  65.93217   93.5    0.05798  -20.49011  0.97886 
  -77.41276  0.05477  3.36874      14.1688  1.98928  0.84869  14.19221  0.19535     0.02509  4106.27998   7776.23641  1.63189         3254.76045     18.73048  0.00299  54052.01724  1.42749  0.77738   963491.33795  45.52876  17.86263  54149.98424     51.0704       44.11045    34.5359  72.21142   88.5     0.0565   -20.4097  0.96313 
  -30.58153  0.23451  1.85798     14.20154  1.54514  1.19511  11.21755  0.09656     0.02967  3482.54419   6794.08493  3.38597         3144.46931     19.03078  0.00596  54098.84847  0.81156  2.63063   195791.31351  46.62794  17.84795  54157.06661    51.13137        44.2163   31.39627  65.93217   81.0    0.07939  -20.86471  0.94728 
  -48.84498   0.1111  0.98409     14.26222  1.82753  1.29801  28.09779   0.0438     0.01743  3253.07985   7844.79998  1.28754         3048.79708     17.34918  0.00012  54080.58502  1.77374  3.12156    49125.20228  47.85334  17.97671  54149.98424    51.15011       44.18502    34.5359  75.35105   92.0    0.05793  -20.38274  0.98856 
  -49.70383  0.15599  1.45693     14.28492  1.62532  0.81162  20.21592  0.05392     0.01066  2807.20304   8023.68869  1.91952         3289.44682     19.27206  0.01039  54079.72617  0.95032  3.15344    86257.13002  47.21711  17.92585  54153.52543    51.21269       44.30469   28.25664  65.93217   97.0    0.05639  -20.41406  0.96396 
  -43.31034  0.14881  2.31398     14.24228  1.92188  1.38345   16.6752  0.06945     0.01408  3077.90667   7097.40895  2.01508         3554.37348     19.60895  0.02258  54086.11966  0.94234   2.4815   313105.59682  46.32816  17.87746  54157.06661    51.10443       44.17617   28.88868  69.91755   89.0    0.06174  -20.64006  0.94383 
   -34.8026  0.18807  2.85893     14.44964  2.12022  1.18083    15.366  0.07396     0.01336  2968.73935    6919.7197  3.39991         3642.19818     17.23726   0.0001   54094.6274  0.80785  2.88987   202918.65289   46.3755   17.9257  54149.98424     50.9731       43.95692   40.81515  85.71726   89.5    0.06065  -20.74237  0.91683 
  -35.39128  0.10273  1.17308     14.36584  1.82955  1.05199  27.99824  0.04112     0.01247  3020.58361   7437.81375  4.12637         2665.50913     19.59675  0.02195  54094.03872  1.52384  2.87623    43363.90338  47.75541  17.89375  54146.44306    51.24434       44.33198   28.25664  69.45334   88.0    0.06976  -20.74974  0.98467 
  -26.74581  0.18379  0.78123     14.39422   1.5336  1.05123  17.08331  0.05911     0.02844  3108.91896   7646.77142  3.17202         3559.35011     18.97817  0.00528  54102.68419  0.98496   3.1398    14146.20913  48.51836  17.86078  54153.52543    51.28506       44.40983   25.11702  62.79254   79.5    0.07287  -21.06616  0.99514 
  -38.28653  0.10543   0.7331     14.46868  1.65624  0.64268  31.90245  0.03178     0.01042  3054.69939   7314.07277  3.60042          2375.6149     17.06376    6e-05  54091.14347  1.77578  3.36345     9547.55842  48.77775  17.88879  54149.98424    50.96181       43.99016   31.39627  76.37141   98.5    0.05598  -20.47771  0.99456 
  -22.85309  0.19339  1.39336     14.22312  1.41457  1.55584  15.09893  0.07055     0.03508  3424.88266   6350.91573  4.91024         3173.73275     16.72547    3e-05  54106.57691  1.05649  2.92006    91269.15727  47.17102  17.91783  54157.06661    51.13361       44.23468   28.25664  64.30579   81.5    0.07261  -20.84418  0.96543 
  -44.23142  0.12365  1.26408     14.05129  1.41257  1.54433  19.43739  0.05612     0.01526  2832.77349   7639.22047  1.65417         3600.85566     16.59126    2e-05  54085.19858  0.93044  2.40344   165499.32553  46.99651  17.95394  54146.44306    51.17884       44.20277   31.39627   81.6303   89.0    0.05947  -20.52215  0.97432 
  -32.64555   0.1004  1.25451     14.32506  1.83398  0.88422  24.31553  0.03592     0.01184  3149.97591   7256.93346  3.51329         2160.18099     17.76306  0.00032  54096.78445  1.43921  2.44135    59985.69217  47.55724  17.97868  54149.98424    51.14039       44.17228    34.5359   76.8643   85.0    0.07349  -20.77311  0.98318 
     -44.28  0.15114  1.95978     14.23206  1.74474   0.9615  16.67363  0.06179     0.01616  2927.30502   7681.37959  2.00795         3178.02369     19.84999  0.03933     54085.15   0.8523     2.52   213718.80131  46.59632  17.90758  54153.52543    51.08299       44.12849    34.5359  72.21142   90.5    0.06176  -20.59049  0.95234 
  -43.84792  0.11382   1.9261     14.31933   1.8452  1.16647  20.92638  0.06637     0.01357  2742.71089   7221.02348  3.43807         3445.38381     17.12563    7e-05  54085.58208  0.93903  2.38191   146068.35928  46.80097  17.82393  54157.06661    50.96497       44.02807   28.25664  70.83796   97.5    0.04824   -20.4029  0.96051 
  -49.35924     0.06   2.1488     14.05244  1.70731  1.21559  16.92214  0.06727     0.02204  3146.23858   7404.83189  3.57622         2428.39692     19.31387  0.01144  54080.07076  0.99923  1.01526   574970.11814  46.07712  17.85517  54153.52543    51.01962       44.05356   40.81515  73.97758   87.0    0.06275    -20.604  0.97533 
  -25.89572  0.22447  0.92115     14.63763  1.71917  0.68964  12.51934  0.09966      0.0267  3023.66447   6932.11579  4.80591         3585.26933     19.11814  0.00729  54103.53428  0.68277  2.81021     7186.81194  48.71897  17.86912  54153.52543    51.17348       44.23936   31.39627  69.07179   86.5    0.04937  -20.80926   0.9949 
  -25.97737  0.17982  2.02875     14.46581  1.68164   0.7147  13.99163  0.07728     0.02294  3207.44084   6776.77099  3.91967         3374.84737     18.22942  0.00094  54103.45263  0.85864  2.51604    75229.82121  47.00373   17.8209  54153.52543    51.13241       44.24015   31.39627  59.65291   83.0    0.07074  -20.79294  0.94762 
  -34.13253   0.1936  3.10239     14.55358  2.13677  0.75103  13.13241  0.08377     0.01402  2865.88544   6845.42576  4.83669         3479.33123     19.74921  0.03118  54095.29747  0.64341  2.54239    149212.7377   46.4414  17.88982  54157.06661    50.99634       44.04245   31.39627  74.75674   87.0    0.06648  -20.79761  0.91444 
  -34.35892  0.17899  2.66748     14.22098  1.67362  1.49134  15.52823    0.068     0.01489   3070.3742   6331.15482  4.16082         3412.96472     17.08669    7e-05  54095.07108  0.87324  2.77939   399683.72081  46.03858  17.84414  54149.98424    51.25178       44.36657   28.25664  62.79254   87.5    0.06478  -20.80932  0.90149 
  -40.83068  0.07391  2.10961      14.1167  1.75768   1.4259  21.60399  0.04868     0.01205  3139.30641   7749.00138  2.97559         2601.62172     18.13092  0.00075  54088.59932  1.27007  1.59671   424378.21191  46.23762  17.94182  54157.06661    51.08835       44.14337   28.88868  74.16438   82.5    0.06717  -20.67268  0.96475 
  -35.48427  0.13745  1.18451      14.3049  1.34999  0.58753  19.75294   0.0506     0.01193  3148.85072   7899.31773  2.60146         2788.06423     18.56283  0.00203  54093.94573  1.16832  2.71503    43194.61539  47.61667  17.90361  54157.06661    51.31705       44.45425   28.25664  59.65291   82.5     0.0635  -20.79983  0.97324 
   -32.6745  0.11799  1.17596     14.10707  1.47948  1.06294  22.50592  0.04549     0.01001  3149.50312   7787.72174   3.9387         2438.05947     20.54315  0.19403   54096.7555   1.3317   2.6555   116029.37565   47.2336  17.94879  54157.06661     51.2559       44.36375   31.39627  62.79254   86.5    0.06674  -20.91548  0.97715 
  -40.45819  0.09261  1.25193     14.45687  2.11238  0.70792  24.92977  0.03747     0.01034  3049.86672   7037.91828  1.66459         2407.37427     18.84886  0.00392  54088.97181  1.38327  2.30884    37498.52102  47.82445  17.88223  54153.52543    51.17594       44.27766   28.87981    65.309   91.0      0.067  -20.57451  0.98724 
  -29.53856  0.08007  1.63393     14.65859  1.83597  0.43584  37.37317  0.03138     0.01244   3734.6634    8079.0584  3.24542         2935.54289     20.15239  0.07891  54099.89144   3.1095  2.99241    21926.45692  47.76528  17.89731  54157.06661    51.26902       44.38916   28.25664  62.79254   77.5    0.07984  -20.92179  0.96484 
   -36.8393  0.11862  1.15788     14.38343  1.59469  0.63127  23.21627  0.04031     0.01485  3070.43998   7197.95952  2.61515         2728.86203     16.89032    4e-05   54092.5907  1.30563  2.75386    33958.40445  47.81325  17.90124  54157.06661    51.05012       44.12855   25.11702  69.07179   87.5    0.07053  -20.76216  0.98044 
  -33.24614  0.07729  1.46076     14.17922  1.76054  1.41773  32.90191  0.03226     0.01363  3972.68101    7190.7454  3.68369         2056.55551     19.97197  0.05208  54096.18386  3.09753  2.54313    152820.8283  47.00115  17.91722  54157.06661    51.23325       44.34247   31.39627  62.79254   79.0    0.07396  -20.89821  0.97383 
  -33.93761  0.20318  1.05003     14.55618  1.56594  0.60397  16.61844  0.06704     0.01315  2952.92395   6647.82752  3.40442         3503.44144     19.09333  0.00689  54095.49239  0.86441  3.37653    12377.68304  48.32858  17.94183  54149.98424     51.0957       44.09862   37.67552   81.6303   92.5    0.07032  -20.80258  0.98517 
  -51.53446  0.11987  1.14274     14.20546  1.67257   1.1117  23.03283  0.05687     0.01225  3076.23536   7141.98657  2.69979         2580.01297     16.32853    1e-05  54077.89554  1.30021  2.76095    78736.14177  47.48016  17.90919  54149.98424    51.23438       44.28546   43.95478  69.07179   97.0    0.05106  -20.32394   0.9821 
  -43.21873  0.14773  2.70211     14.18264  1.80482  1.13458  14.95563  0.06945     0.01462  3164.80792   7458.20968  3.29924         2927.92546     16.12845    1e-05  54086.21127  0.89357   2.2094   527695.29933  45.93949   17.9146  54157.06661    51.18589       44.23398   37.67552  72.21142   89.0    0.06805   -20.6904  0.92585 
  -36.89436  0.15357  3.52659     14.37499  2.08967  1.04442  17.12262  0.05877     0.01289  3054.84597   6575.38066  4.42167          3323.2829     17.92949  0.00047  54092.53564  0.95318  2.62947   429172.30184  45.86158   17.9018  54146.44306    51.16026       44.18509   40.81515  75.35105   88.5    0.07155  -20.82357  0.88475 
  -31.11921  0.05889  2.24697     14.61911  1.94825  0.49734  42.02625  0.02792     0.01292  3622.14332   7548.93155  4.82411           2670.869     16.05819    1e-05  54098.31079  3.28912  2.47511    52775.54689  47.13286  17.91185  54153.52543    51.12921       44.19139   28.25664  72.21142   81.5    0.07224  -20.79843  0.94843 
  -35.31723  0.12902  1.03677      14.3821  1.77737  1.14789  25.02475  0.04409     0.01568  3134.02362   6737.50581  3.52114         3148.45122     17.92134  0.00046  54094.11277  1.46623  3.22859    30532.28912   48.0025  17.89679  54157.06661    50.96063       44.00187   31.39627  73.23178   89.5    0.05582  -20.90485  0.98842 
   -25.5698  0.15478  1.70292     14.55308  1.98103  1.02176  18.09288  0.06704     0.01543  3150.50194   6856.52454  4.46403         3627.42731     17.56131   0.0002   54103.8602  1.07126  2.80038    41777.54111   47.4824  17.89921  54146.44306    51.02846       44.05202   31.39627  80.17809   85.0    0.05246  -20.77013  0.97211 
  -27.98394  0.25696  1.15813     14.37859  1.63139  0.89285  12.04861   0.0972     0.03127  3232.97694   7018.82999  4.81229         2994.34089     20.22158  0.09254  54101.44606  0.75122  3.09596    35538.36218  47.80319  17.93942  54157.06661    51.00301       44.03566   31.39627  75.35105   88.0    0.07273  -20.87957  0.98122 
  -35.29472   0.0897  1.93185     14.69465  1.88917  0.44448  28.43401  0.04441     0.01178  3041.15757   7204.84804  4.40694         3378.48752      19.7128  0.02868  54094.13528  1.56871  2.55056    26713.93984  47.54643  17.88318  54157.06661    51.02579       44.09479   28.25664  69.07179   87.0    0.05576  -20.85178  0.95945 
  -39.24063  0.15198  2.85152      14.3189  1.64648  0.76091  15.16035  0.07214     0.01329  2903.63564   6607.29685  3.02599         3643.08948     18.28511  0.00107  54090.18937  0.76247  2.30404   286234.10904  46.11853   17.8986  54153.52543     51.1165        44.2065   25.11702  65.93217   90.0    0.06391  -20.69346  0.90365 
  -40.35969  0.16641  2.54783     14.33771  1.78909  0.84319  15.69707  0.06141     0.01173  2785.49814   6256.91275  2.52741         3550.51161     17.85647   0.0004  54089.07031  0.72653  2.61222   227703.83071  46.35177  17.89135  54149.98424    51.21797        44.3069   37.67552  62.79254   93.0    0.06792  -20.66893   0.9218 
  -34.56861  0.26623  1.93211     14.32212  1.78089  1.29942  10.47937  0.13396      0.0337  3337.42024   6548.01272  4.88377         3194.81432     17.33718  0.00012  54094.86139  0.69628  2.78992   140047.89729  46.80114  17.94487  54157.06661    51.16883       44.25836   25.11702  67.44542   90.0    0.05383  -20.77719  0.95185 
  -36.06996  0.13855  2.52697     14.06443  1.54488  1.18378  12.90412  0.06698     0.02074  3116.31847   7474.68294  2.51602         3148.96586     18.81908  0.00366  54093.36004  0.74755   1.7878   680847.77442  45.81949  17.84319  54153.52543    51.25411       44.38976   25.11702  59.65291   82.0    0.07933  -20.82429  0.93313 
  -32.92434   0.0842  1.57365     14.38067   1.8517  1.38342  34.21834  0.03618     0.01072  3084.63054   6861.99589  3.83464         3327.61183      17.2461   0.0001  54096.50566  1.94219  2.88135     73765.9896  47.27474  17.96223  54157.06661     51.2297       44.32113   31.39627  66.33145   92.0     0.0548  -20.75448  0.97105 
  -33.27583  0.09526  1.47715      14.4239  2.01273  1.47321  30.31646  0.03966     0.01695  3214.87066   7058.43333  3.14525         3399.08475     16.73009    3e-05  54096.15417   1.8691  2.88803    57895.04134  47.47114   17.8958  54153.52543    51.06342       44.11812    34.5359  71.65678   87.5    0.06321  -20.83579  0.97856 
  -38.78282  0.10767  1.07721     14.32188  1.85965  1.03586  25.86857  0.03642     0.01271  2830.01007   7113.44937    2.492         2776.46247     16.04236    1e-05  54090.64718  1.23588  2.78539    45506.86126   47.8156  17.93901  54157.06661    51.24364       44.35111   25.74905  65.30013   94.0    0.06329  -20.59475  0.98746 
  -29.00962   0.0902  1.99383     14.60298  1.86956  0.69243  30.65444  0.03874      0.0136  3021.11729    7674.1055  4.79841         3657.01931     18.71045  0.00285  54100.42038    1.669   2.7651    42950.17024  47.30825  17.88592  54149.98424     51.1518       44.20156   31.39627  75.35105   87.0    0.07447   -20.8091  0.95425 
  -40.06504  0.19656  1.60545     14.27868  1.56974  0.80271  14.12648  0.07941     0.01709  3312.08357   6908.36776  4.07767         2659.10054     16.44975    2e-05  54089.36496  0.92441  2.77674   104104.75441  47.03601  17.85058  54157.06661    50.94541       44.00137   28.25664  72.21142   91.0    0.06296  -20.66299  0.95913 
  -26.70298  0.09331  2.01535     14.37663  1.80511  0.80137  30.64741  0.03261     0.01001  3296.17877   7647.28718  4.95397         2789.64534     20.45998  0.16022  54102.72702  1.98629  2.85966   120162.48371  46.83688  17.90748  54149.98424    50.94863       43.93446   37.67552  86.39995   85.5    0.07259  -20.91097  0.94643 
  -47.98958  0.16274  2.06817       14.518  1.92821  0.60616  15.18108  0.09086      0.0167  2873.68636   7231.43864  3.97231         3119.87842     16.95464    5e-05  54081.44042  0.74784  2.47055    70493.05474  47.07468  17.92158  54153.52543    51.18102        44.2385   37.67552  72.21142   97.0    0.05178  -20.38226  0.95549 
   -26.4999  0.15704  2.09214     14.62902  1.89808  0.55501  16.74526  0.07003     0.01941  3464.09142   7904.25583  3.55813         3267.88185     18.65857  0.00253   54102.9301  1.19866  2.62975    42586.05488  47.27671  17.89275  54157.06661    51.04167       44.10816   31.39627  69.07179   79.0      0.076  -20.80366  0.95149 
  -30.31897  0.08996  1.79072     14.40085  2.00468  0.92323  27.64906   0.0323     0.01201  3224.07452   6757.97636  4.66705         2398.97548     16.24592    1e-05  54099.11103  1.71442  2.48735    94235.62312  47.09062   17.8488  54146.44306    51.28845       44.34535   37.67552  69.07179   87.5    0.07136  -20.79613  0.96849 
  -46.94736  0.10281  1.31788     14.17516  1.60987  1.17036  22.80233  0.05519     0.01643  2995.23815   7165.81113  1.48798         3430.23466     18.97334  0.00522  54082.48264  1.22031   2.3443    115887.1351  47.17185  17.90723  54149.98424    51.16462       44.23416   31.39627  69.07179   91.0    0.05708  -20.41182   0.9778 
  -38.41358  0.15951  2.05344     14.35038  1.82106  0.69862  17.26158  0.05724     0.01637  3262.24212   7601.34792  3.01204         2710.36302     20.30557  0.11228  54091.01642  1.09582  2.75336    142015.8767  46.75187  17.92374  54157.06661    51.03396       44.06654   50.23403  70.83796   88.0    0.07034  -20.83613   0.9466 
  -29.01174  0.08401  1.46656      14.2911  1.70814  1.32524  35.62084   0.0295     0.01173  3495.09461   7535.66565  3.33843          2796.8454      17.1817    8e-05  54100.41826  2.59567  2.99246    89278.36509  47.21802  17.84136  54153.52543     51.0397       44.11615   28.25664  67.75468   83.0    0.07961  -20.77757  0.96954 
  -42.27026  0.08962  1.38627     14.37014  1.78476   0.9752  27.61779  0.05169     0.01236  2826.08564   6401.37772  4.91961         3079.82648     18.41032  0.00143  54087.15974  1.31579  2.47519    57916.72161  47.47392  17.93394  54153.52543    51.18518       44.28548   28.25664  62.79254   99.5     0.0515  -20.37661  0.97908 
  -30.46598  0.17017  1.04559     14.42291  1.96871   1.2188  21.53899  0.04673     0.01089  3084.55077   8461.73745  3.89057         2859.94598     20.29576  0.10977  54098.96402  1.22246  3.66535    28504.01175  48.06939   17.9003  54157.06661    51.17691       44.26077    34.5359  65.93217   86.5    0.06972  -20.86796  0.98898 
  -27.07354   0.1663  0.96474     14.56304  1.74297  0.80349  17.76596  0.05378     0.01984   2607.4233   7217.16932  3.47904         3727.97891     19.31552  0.01149  54102.35646  0.72051  2.95443    11267.69745  48.48948  17.84688  54153.52543    51.08742       44.17702    34.5359  64.61505   91.5     0.0543   -20.7564  0.99323 
  -43.90356  0.16987  0.74998     14.49028  1.88193  0.84902  18.76539  0.08422     0.02554  3302.72648   7553.13442   4.1203         2811.28594     19.68194  0.02671  54085.52644  1.22104   3.1876    10279.26428  48.78139  17.87915  54153.52543    51.04025       44.09353   37.67552  69.07179   96.5    0.04774  -20.28919  0.99645 
  -43.41944  0.07581  3.44759     14.17826  1.65444   0.5877  12.68104  0.07142     0.01624  3514.53067   8217.00548  4.18458         2781.35215     19.97926  0.05296  54086.01056  0.93437  0.96131   803498.73523  45.50748  17.90643  54153.52543    51.05526       44.11423   31.39627  72.21142   83.5    0.07706  -20.83838   0.9383 
   -40.7185  0.18666  1.79879      14.2079   1.5785  1.46215  12.62729  0.10855     0.02093  2862.43043   6886.55673  3.70865         3666.07794     16.81751    4e-05   54088.7115  0.61717  2.35695    182059.3265  46.69692  17.88776  54157.06661    51.21528       44.31335   31.39627  62.79254   92.5    0.05491  -20.56057  0.95711 
  -37.95564  0.16677  1.39222     14.35398  1.73734  1.03675  17.96918  0.06852        0.02  3151.15837   8272.31995   2.4267         3767.01957     19.82382  0.03703  54091.47436  1.06438  2.99666     61256.0981  47.43416  17.88642  54149.98424    50.98748       43.99105    34.5359   81.6303   85.0    0.06188  -20.73573  0.97373 
  -21.98074  0.29289  1.35768     14.53161  1.66884  0.81167  10.34997  0.09943     0.02862  3306.12476   7086.74949  4.52348         3523.78579     16.34441    1e-05  54107.44926  0.67485   3.0314    24694.37706  47.83306  17.87404  54153.52543    51.05794       44.11612   31.39627  72.21142   81.5    0.07592  -20.87007  0.97755 
  -26.60335  0.08951  1.06106     14.65689  1.68812   0.4978  34.38068  0.03179     0.01011  3269.83514   7210.02528  4.34475         2849.73924     16.25614    1e-05  54102.82665  2.19277  3.07735     8568.66268  48.51186  17.87337  54149.98424     51.0571       44.08617   37.67552  75.35105   87.0    0.05397  -20.72329  0.98753 
  -44.67944  0.11671  2.43066      14.1469  1.62662  1.35011  21.79273  0.05424     0.01052  2831.91762   6683.14107  3.97456         3432.13061     19.91874  0.04608  54084.75056  1.04256  2.54343   453679.93697  46.05193  17.82673  54157.06661    51.10955       44.19927   31.39627  62.79254   95.5    0.05891  -20.62863  0.92009 
  -34.95746  0.13868  1.48087     14.33958  1.89878  1.46511  20.71931  0.05988     0.02241  3611.49434   7648.10149   2.2011         3214.90362     18.28817  0.00108  54094.47254  1.61204  2.87336    80941.75882  47.29811  17.95382  54157.06661    50.96814        43.9776   37.67552  79.65184   79.0    0.06244  -20.82474  0.97486 
  -40.32398  0.13648  2.07735     14.43854  2.13293  1.37288  18.58002  0.07427     0.01352  2756.41926    6759.3795  4.78135         3535.81902     16.76924    3e-05  54089.10602   0.8421  2.53579   113428.30915  46.90808  17.96439  54153.52543     51.1351       44.19882   28.88868  71.57939   96.5    0.05016  -20.51037  0.96154 
  -43.59451  0.15081  0.72448     14.37395   1.5361  0.64496  20.25372  0.05713     0.01645   3068.0473   7467.67204  4.63382         2248.00597     17.11645    7e-05  54085.83549  1.13725  3.05451    13378.06112  48.60882  17.82862  54153.52543    51.04393       44.11533   25.11702   70.8943   96.5    0.05339  -20.36319  0.99354 
  -40.07673  0.15799  0.72435     14.24107  1.71299  1.26962  19.63451  0.05492     0.01713  3330.40664   7344.29903  1.71883         2698.05913     19.78404  0.03379  54089.35327   1.2991  3.10198    27500.08121  48.34337  17.93638  54149.98424    51.22385       44.32734   25.11702  65.93217   90.5    0.06124  -20.55082  0.99489 
  -27.76196  0.28918   1.2382     14.53713  1.54134  0.66326  10.13025  0.11637      0.0294  3157.78442    6980.0979  4.82807         3486.64835     16.70238    3e-05  54101.66804  0.60258  2.92947    18494.51801  48.00412  17.84604  54157.06661     51.0116       44.07619   31.39627  67.61959   87.5    0.05241  -20.83749  0.97964 
   -25.7411  0.18349  0.98126      14.4523  2.08086  1.46735  17.09316  0.06204     0.01629  3297.80213   6709.59816  4.62311         2614.75094      19.7845  0.03382   54103.6889  1.10892  3.13647    23174.77677  48.23851  17.86319  54153.52543    51.16754        44.2321    34.5359  69.07179   85.0    0.07841  -20.91191   0.9936 
  -51.52838  0.07837  0.81654     14.38614  1.78463  0.91492  43.06914  0.03665     0.01599  3355.97408   7490.15996  3.84995         2504.26918     19.56888  0.02059  54077.90162  2.89355  3.37521    18665.17666  48.42541  17.89131  54157.06661    51.26663       44.41408   28.25664  59.65291   97.5     0.0475   -20.2331  0.99334 
  -48.69971  0.13764   1.2964     14.11727  1.49692  1.36131   20.0009  0.06374     0.01317  2910.22065   7560.45596  2.46031         2959.69423     17.86889  0.00041  54080.73029  1.01048  2.75294   136127.41693  47.08462  17.92778  54153.52543    51.16312       44.22496   37.67552  69.07179   95.5    0.05186  -20.32978  0.97201 
  -37.54282  0.13069   1.4581     14.20265    1.546  1.22917  20.63123  0.05588     0.01332  2959.05088   7211.56188  3.55578         3080.38055     16.88139    4e-05  54091.88718   1.0776  2.69631   120035.03484  47.05117  17.98331  54153.52543    51.01616       44.00512   40.81515  84.76993   91.5    0.05919   -20.6737  0.96724 
  -19.26915  0.19359  1.26992     14.60974  2.00684   0.9498  13.81352   0.0739     0.02031  3032.39168   7126.60892  4.05542          3677.7898     17.90188  0.00044  54110.16085  0.75771  2.67415    18129.93903  48.10541  17.87194  54149.98424    51.19754       44.26092   40.81515  65.93217   79.5    0.08269  -20.93942  0.98949 
  -37.66347  0.15216  2.99361     14.35273  1.89516  0.82416  13.34552  0.07702     0.01464  2828.09896   6987.30476  3.31118         3534.32801     16.38004    1e-05  54091.76653  0.63673   2.0306   310739.53741  46.10171  17.92861  54153.52543      50.944       43.96093   31.39627   81.6303   86.5    0.06803  -20.80523   0.9226 
  -43.12881  0.14151  1.26185     14.17911  1.42971  0.90985  21.62899  0.04986     0.01032  2962.74688   7315.90962  1.66141         3767.25214     20.17858  0.08381  54086.30119  1.13254  3.06076    92650.77545  47.25523  17.89491  54157.06661    50.98844       44.04175    34.5359  70.83796   92.5    0.06058  -20.62511  0.96847 
  -30.45555  0.21338  1.74347      14.2415  1.72489  1.37543  13.61717  0.06675     0.02076  3292.69508   7345.24578  2.79896         3043.61222     19.38585  0.01351  54098.97445  0.88068  2.90569   160108.67574  46.81836  17.91989  54153.52543    50.96466       43.98044   40.81515  76.51222   83.0    0.08607   -20.8695  0.95669 
  -22.66685  0.13882  1.65982     14.55736  1.86502  0.76609  20.20903  0.05754     0.01755  3284.36338   7982.40709  4.75955          3416.6187     20.18019  0.08412  54106.76315  1.30039  2.80552    36634.47842  47.53552  17.88063  54153.52543     50.9909       44.01796   40.81515  73.23178   83.0     0.0716  -20.86572  0.96903 
  -41.26697  0.12497  1.31937     14.30505  1.95551   1.0974  21.35369  0.04892     0.01204  3268.25904   7466.68835  3.61681         2277.25449     18.48048  0.00168  54088.16303  1.36061  2.66853     77573.1758  47.42966  17.90726  54157.06661    51.16131       44.24442   37.67552  65.93217   89.5    0.06208  -20.58405  0.98154 
  -39.20655  0.09036  0.96664     14.53565  1.49804  0.39411  28.78853   0.0364     0.01739  2949.41772   7531.18174  2.59046         2650.06633     16.69549    3e-05  54090.22345  1.49389  2.60144     11029.9991  48.43127  17.88994  54153.52543     51.0991        44.1422   40.81515  71.65678   90.5    0.05975  -20.53044  0.98665 
  -33.20657  0.17905  0.93319     14.40585   1.9167   1.5409  16.09699   0.0861     0.04379  3524.46638   7413.63693  3.44259         2882.31176     16.52548    2e-05  54096.22343  1.19278   2.8821    23911.71597  48.23284  17.91782  54153.52543    51.26585       44.38527   25.11702  62.79254   85.5    0.07492  -20.70655  0.99406 
  -46.53756  0.16854  1.35417     14.43352  1.69301  0.59955  16.25237  0.08174     0.01567  3005.25058   7084.92569  4.15973         2524.62313       16.469    2e-05  54082.89244   0.8756  2.73914    39153.55875  47.64139  17.91081  54149.98424    51.17452       44.22259    34.5359  72.21142   97.0    0.04753  -20.35456  0.97489 
  -36.07228   0.1149  1.70211     14.51454  1.60725  0.51876  25.72312  0.03796     0.01162  2675.47348   8362.56864  2.80878         3751.57587     20.06761  0.06491  54093.35772  1.09838  2.95553    40438.80992  47.40616  17.82753  54153.52543    51.06607       44.14236    34.5359  65.37753   85.0    0.06774  -20.87147  0.95362 
   -30.7206  0.25248  1.89068     14.33948   1.4861  0.71769   9.97425  0.11622     0.03509  3298.48648   7174.44564  3.55043          3217.0222     18.93899  0.00483   54098.7094  0.64735  2.51826   103306.80827  46.87353  17.87997  54157.06661    51.15025       44.27295   25.11702  59.65291   83.0    0.07202  -20.78016  0.94467 
  -33.70954  0.13448  0.92496     14.51049  1.72534  0.67947  22.24374  0.05677     0.01957  3370.91257   7281.80785   2.3299         3236.47747     19.55038  0.01973  54095.72046  1.50775   2.9914    13060.45614  48.45751  17.93415  54146.44306    51.17715       44.20308   31.39627  80.00393   83.5     0.0702  -20.78205  0.99161 
  -33.81228  0.08696  1.86571     14.39534  1.88176  1.56219  33.56262  0.03774      0.0101  3052.71338   7353.11374  4.30867         3644.49585     19.61343  0.02281  54095.61772  1.86576  2.91846    98486.78948  47.00834  17.89199  54157.06661    51.19241         44.277   28.25664  69.07179   90.0    0.06252  -20.82507  0.95833 
  -33.65242  0.08402   0.9601     14.21701  1.38276  1.02877  36.43186  0.03142     0.01697  3351.69555   8000.80059   4.5753         2691.56051     18.27523  0.00105  54095.77758  2.44139   3.0609    43568.78791  47.80578  17.88688  54149.98424    51.02005       44.04023   31.39627  78.82941   84.0    0.06203  -20.79217    0.984 
  -26.76486  0.10903  1.12116     14.43208   1.7894  0.46918  25.19287  0.03361     0.01662  3538.48773    7990.4214  4.98997         2005.32173     20.82967  0.37532  54102.66514  1.88166   2.7468    28556.22613  47.96652  17.91835  54142.90187    51.08053       44.06279   40.81515  86.45735   84.0    0.07574  -21.18811  0.98372 
  -31.74499  0.10832  1.50799     14.19742  1.75635  1.21915  25.45813  0.02928     0.01061  3202.38289   8295.65662  2.89529         2404.63296     18.65305   0.0025  54097.68501   1.5574  2.75771   149412.13657  46.98227  17.91271  54153.52543     51.3483       44.46296    32.0283  62.16051   81.0    0.08513  -20.86352  0.96962 
  -29.78353  0.22541  0.94144     14.32466  1.78073   1.3338  14.77011  0.06736     0.03132  3624.71955   7629.32864  4.65129         2179.78183     18.65038  0.00248  54099.64647   1.1576  3.32929    32861.12787  48.05517  17.89415  54153.52543    50.91457       43.91012   37.67552  84.76993   81.0    0.07013    -20.817  0.99044 
  -37.07227  0.19848  1.01635     14.34681  1.48578  0.67606  15.22137  0.07215     0.02551  3372.20117   7236.83471  2.78524         2543.33183     16.47725    2e-05  54092.35773  1.03254  3.02115    28855.32919  47.96649  17.90101  54153.52543    51.14463       44.20434   37.67552  69.07179   87.0    0.06535  -20.67481   0.9828 
  -48.23846  0.15994  0.77505     14.22247  1.57554  1.04787  17.28009  0.08121     0.01873  3177.71544   7387.52372  2.12856         2416.75723     16.29848    1e-05  54081.19154  1.04089   2.7637    31547.09007  48.18866  17.88725  54153.52543    51.26042       44.37943   31.39627  59.65291   94.0    0.04977  -20.25673  0.99307 
  -37.75029  0.19714  2.22994      14.6115  1.87505  0.45377  13.38237  0.09764      0.0299   3736.1528   7791.46799  3.70417         2786.07421     16.48476    2e-05  54091.67971  1.11432  2.63818    51809.49398  47.13086  17.87999  54153.52543    51.05469       44.12317   28.25664  69.07179   82.0    0.06431  -20.76861  0.94278 
  -33.24728  0.12953  1.29448      14.3241  1.54175  1.05976  21.84697  0.06199     0.01427  3056.59995   6686.18405  4.11612         3498.53623     19.54007  0.01927  54096.18272  1.21757  2.82988    53929.63167  47.50084  17.91751  54157.06661    51.05572       44.12299   28.25664  72.21142   89.5    0.05742  -20.80315  0.97559 
  -33.37274  0.15724  2.21721      14.5151  1.85436  0.66917  17.40888  0.06434     0.01458  3061.42839   7005.87231  4.60029         3239.41689     19.29362  0.01092  54096.05726   0.9733  2.73742    78963.02404    46.948  17.81622  54149.98424    51.12967       44.22729   31.39627  62.79254   88.5    0.06335   -20.8231  0.94099 
  -27.74513  0.14795   1.1366     14.48214  1.88403  1.22988  20.88597  0.04679     0.01415  2876.18447   6588.21889  3.10404         3688.04201     16.32565    1e-05  54101.68487  1.03066     3.09    24538.43885  48.04287  17.90796  54146.44306    51.14275       44.17161    34.5359  78.49068   83.5    0.08281  -20.90058  0.98946 
  -23.57081  0.16909  1.42963     14.41233  1.67785  1.35815  16.75504  0.06248     0.02185  2828.60159   6411.37075  4.96996         3773.96449     18.27288  0.00104  54105.85919  0.79968  2.83312    47681.91475   47.5048  17.92316  54153.52543    51.27812       44.37187    34.5359  65.93217   87.0    0.07063  -20.82023  0.97633 
  -31.86149  0.12999  2.79087     14.15161  1.57742  1.18792  17.20535  0.05059     0.01032  3039.88092   7188.98745  3.81489         3293.13976     17.80698  0.00036  54097.56851  0.94843  2.23644    567582.0964  45.82128  17.95726  54149.98424    51.05022       43.96651   65.93217  94.18881   82.5    0.07913  -20.83899  0.90432 
  -32.15917  0.15833  1.68311     14.45444  1.61278  0.59933  15.48048  0.06981     0.01634  2974.87566   7404.99797  3.75888         3207.07965     19.47319  0.01652  54097.27083  0.81724    2.451    52329.08233  47.30545  17.89041  54153.52543    51.24457       44.32177   28.25664  69.07179   84.5    0.07248  -20.81763  0.96224 
  -42.21851  0.09587   0.9387     14.30824  1.57272  1.14941  32.17921  0.04403     0.01107  3019.40161   7237.03896  3.02998          3318.0335     18.76773  0.00325  54087.21149  1.75003  3.08512    31119.71396  48.02741   17.9824  54149.98424    51.05552         44.063   31.39627  83.31772   99.5    0.04767  -20.31222  0.98934 
