 texplosion  fnickel    Pspin  log(Bfield)      Mns  thetaPB   mejecta    kappa  kappagamma      vejecta  temperature    alpha  cutoff_wavelength  log(nhhost)      A_V         MJD0   kenergy  mnickel            TSD   log(L0)  Peak_mag     Peak_MJD  log(E_rad)  log(Peak_lum)  Rise_Time    E_fold  tau_1  delta_m15     r_peak     frac 
   -6.88094  0.21003  1.39416     14.62347   2.0322  0.99084  26.75312  0.02239      0.1408   7961.39406   8318.12653  1.43723         3601.63755      19.0183  0.00579  59379.55882  10.11533  5.61883    20771.13023  47.97073   19.8098  59416.35814    51.24795        44.5524   15.42899   32.6635   54.5    0.27239  -21.52212  0.97293 
   -13.5352  0.08096  0.78243     14.76444  1.64192  0.24827  20.38263  0.01632     0.40993   5430.64709   9399.59891  0.47585         4564.08831     16.85352    4e-05  59372.90455   3.58584  1.65023     2761.67872  49.25613  19.79986  59412.17325    51.00218       44.44036   17.77062  25.93867   42.5    0.28674  -21.35217  0.99583 
  -14.76867  0.00738  3.27463     14.11553  1.55819  0.74011   5.62432  0.05437     0.09759   9054.08263   6664.47738  1.28936         2648.43051     17.07541    7e-05  59371.67109   2.75034  0.04151    911397.3496  45.47143  19.84261  59420.95013     51.3775       44.73156   20.67359  29.42276   57.0    0.27862   -21.3908  0.99722 
  -15.25749  0.00711  2.72837     13.85881   1.4193   1.3113   3.48105  0.10252     0.30739   9616.42151   8095.77109  0.62402         3094.45966     18.45862   0.0016  59371.18226   1.92028  0.02476   1879630.4465  45.27504  19.85976  59422.38116    51.17055       44.42497   23.17584  46.68499   51.5    0.27839  -21.53557  0.99868 
  -10.57508  0.00116   1.3675     14.03833  1.41885  1.23678   11.9833  0.04224     0.05149   7006.89626   9308.30615  2.60813         2744.56489     20.87162  0.41338  59375.86468   3.50958  0.01385   206515.20357  46.83398  19.89988  59420.95013    51.18665       44.57855   15.10548  36.06937   39.0    0.27349  -21.78901  0.99982 
   -19.0096   0.0241  0.83895     14.57799  1.56873  0.46958  45.48295  0.02742     0.25399    8429.0756   4962.30387  1.56755         3409.92749     20.17284  0.08271  59367.43016  19.27683  1.09614     7159.17922  48.76206  19.75404  59414.46312    51.44752       44.91531   11.85722  28.05395   45.0    0.18813   -21.1364  0.99705 
  -11.91341  0.00714  0.85131     14.45997  1.65636  0.61139   4.24171  0.14457      0.4936    9957.4361   8173.89818  0.28453          4927.0796     20.34618  0.12328  59374.52634   2.50879  0.03028    13403.17777  48.50062   19.7859  59416.35814    51.24254       44.76327   13.10162  24.04624   29.0    0.38669  -21.73801  0.99991 
   -27.6528  0.00207  1.50957     14.10316  1.82021  1.54783  15.36308  0.02858     0.02167   4195.00551   3844.43786  0.76978         4795.93596     16.94796    5e-05  59358.78695   1.61276   0.0318   239513.43842  46.79193  19.98083  59412.17325     51.4291       44.94175   10.01927  25.90192   60.0    0.17044  -21.05146  0.99965 
  -27.12774  0.25161  2.09292     14.08077  1.61654  0.86686   8.82691  0.10797     0.03669   7609.08119   9294.94892  0.46011          5144.7092      19.3246  0.01173  59359.31202    3.0486  2.22097   453280.90679  46.17956  19.97604  59413.48394    51.19273       44.65109    19.4367  26.65194   48.0    0.16447  -21.54493  0.94603 
  -15.34717  0.02765  1.81866     14.17748  1.71024  1.27995    9.6847  0.10493     0.10413  10269.59352   4559.44476  0.43842          5995.9581     17.33629  0.00012  59371.09258   6.09284  0.26779   231962.76382  46.61698  19.83547  59420.95013    51.23767        44.5718   15.10548  36.06937   36.5    0.26558  -21.75962  0.99533 
   -13.2731  0.00174  2.03147      14.5753  1.85976  0.40896  22.87921  0.03512     0.11933   5527.92518   6465.51142  2.89496         2744.75629     19.75921  0.03191  59373.16666   4.17054  0.03972    50384.53617  47.22038  19.78236  59415.09887    51.05327       44.53574   20.52293  25.29165   52.5    0.15705  -21.37605  0.99923 
  -16.97574  0.00727  1.35627     14.08789  1.71763  1.55303  13.78812  0.06626     0.24304   7028.80636   3146.07255  0.40595         5298.25573     18.86991  0.00412  59369.46401   4.06346  0.10021    195731.3248  46.94742  19.94512   59410.3565    51.20463       44.61663   15.11802  32.06166   46.5    0.18327  -21.53582  0.99904 
   -7.47263  0.01942  2.05747      14.4125  1.54328  0.61833   4.90403  0.10463     0.13564  12420.94813   8253.19584  1.00449          2152.2216     18.89037  0.00432  59378.96713   4.51325  0.09524    90768.86536  46.87269  19.95588  59420.95013    51.29489       44.63936   15.72854  34.81227   28.0    0.46792  -21.54411  0.99752 
    -11.313  0.02072  3.14785     14.16436  1.77619  1.15738    4.6387   0.1563     0.42266  11187.74912   5723.74119  1.66037          2625.4003     16.01172    1e-05  59375.12676   3.46345   0.0961   766690.58381  45.63768  19.91922  59424.36899    51.29703       44.56296   20.52775  46.69047   40.5    0.29652  -21.58943  0.99516 
   -6.63228  0.00211  0.76519      14.1695  1.48704  1.43538  15.30009  0.10165     0.45859  10540.26782   4781.31599  1.58032         2559.75107     17.28188  0.00011  59379.80748  10.13968  0.03234    37040.64505  48.10495  19.81691  59413.48394    51.17511        44.5436   19.76078  31.42661   38.0    0.21095  -21.66501  0.99992 
  -14.59489  0.03894  1.35486     14.47348  1.54705  0.58681  18.02962  0.06901     0.08522   8723.91198   6335.43442  1.97793         3856.95017     19.41655   0.0145  59371.84486   8.18533  0.70213    29795.15626  47.72041  19.84671  59412.17325    51.30969       44.65926   19.29178  30.80456   41.5    0.21202  -21.61019  0.99279 
  -11.02095  0.02216  2.11945     14.39756  1.95415  0.88521  18.89116  0.01899     0.01501   5463.22245   9534.59039  2.57504         2487.58697      20.1487  0.07824  59375.41881   3.36344   0.4186   130650.12931  46.79125  19.85749  59416.35814    51.13316       44.49893   20.59443  29.94638   41.0    0.25788  -21.27352  0.99194 
    -15.027  0.00427  1.67084     14.19201  1.64573  0.97876   6.55327  0.08559     0.05777   8791.99474   9582.71832  0.57673         2268.33121     19.80793   0.0357  59371.41276   3.02176  0.02796   176204.88455  46.79332  19.88739  59414.46312    51.26403       44.60604   20.03854  36.06937   32.5    0.30121  -21.44453  0.99956 
  -26.88437  0.05383  1.44578     14.30145  1.77337  0.69268  17.70334  0.02931     0.01137   5202.59972   3166.17411  0.53086         4199.73078     16.27174    1e-05  59359.55539    2.8584  0.95289    85885.60386  47.26352  19.80675  59415.09887    51.19362       44.63826   16.38239  28.05395   62.0    0.17053   -21.0467  0.99017 
  -11.47173  0.00237    0.705     14.40392  1.45115   0.6562  14.04825  0.09328     0.46085  11530.47805   4603.22818  1.05629         2098.18931     19.41342  0.01439  59374.96803  11.14151  0.03336    10424.77762  48.71611  19.81338  59412.46704    51.25341       44.65013   20.59443  29.94638   33.0    0.26534  -21.65501  0.99994 
   -7.68573   0.0011   1.4285     14.11919  1.25357  1.41916   8.68579  0.06538     0.25452   8685.83289   4992.90448  1.02723         3048.97124      17.2323    9e-05  59378.75403   3.90894  0.00957   137193.90856   46.9199  19.79551  59415.09887    51.21169        44.6518   25.44826  26.65194   32.5    0.34805  -21.28263  0.99984 
  -11.85829    0.311  4.00334     14.10719  1.98942  0.82122   2.66958  0.15329     0.03344  11717.42208   7049.56788  1.84737         2321.88239     19.64807  0.02471  59374.58146   2.18642  0.83025  1807224.39875  45.10571  19.80079   59418.0245    51.33168        44.7423   15.83355  32.06166   37.0    0.32858  -21.63087  0.94467 
  -18.62029  0.01507  1.96031     14.89633  1.86979  0.18778  25.31436  0.02796     0.02879   5586.03144   7556.85397   1.2878         3481.28375     19.13797  0.00763  59367.81946   4.71195  0.38147    10754.54545   47.9244  19.82629  59420.95013    51.23303       44.56152    26.0501  36.06937   51.0    0.17094  -21.27504  0.99321 
   -9.08309  0.00247  2.69723     14.00154  1.41707  1.30347   6.74519  0.06367     0.02322   7976.81722   5284.53704  1.72887         3308.82805     20.06328  0.06427  59377.35667   2.56024  0.01667   950525.82448  45.58044  19.76628  59414.39889    51.41846       44.90457   17.12188   26.0501   41.0     0.3122  -21.52977  0.99913 
  -25.38572  0.01588   2.4824     14.52772  1.60996  0.27159   9.24661  0.05675     0.12847   6449.16915   3592.30213  2.16406         3402.37945     20.72592  0.29556  59361.05404   2.29413  0.14686    81083.94118  46.77698  19.96862  59420.95013    51.13289       44.52334   18.47915  34.06551   54.0    0.21758   -21.5571  0.99467 
  -22.97477  0.03104  1.06885     14.29319  1.55399   0.7538  35.30267  0.02074     0.02751   6483.51855   4133.92218  0.71009         2997.98206      17.0087    6e-05  59363.46498    8.8523  1.09575    42728.78303  47.77174  19.87604  59413.48394    51.12272        44.5261   23.44441  30.65964   53.0     0.1838  -20.96708  0.99312 
  -22.66653  0.02748  2.22879     14.01011  1.64688   1.3074  17.54401  0.05075     0.12917    5655.9759   4100.27905  1.60803         3428.44211      19.7445  0.03085  59363.77323   3.34789  0.48208   725100.64278  45.92897  19.84492  59412.17325    51.16531       44.66431   14.35872    24.793   60.0    0.14354  -21.33319  0.98652 
   -9.90862  0.00136  0.93911     14.08163  1.20055  1.13281  16.22187  0.09872      0.1068  11499.45475    6058.7097  1.86016         2185.03266     17.19685    9e-05  59376.53113  12.79624  0.02213    67510.92878  47.57342  19.82376  59423.87575    51.18753        44.4701   22.48686  42.08093   36.5    0.20816  -21.57655  0.99985 
  -12.48051  0.05861   0.8804     14.67712  1.87268  0.49962   8.08666  0.19166     0.01369  13703.83339   9386.11178  0.11525         3344.73304     16.31937    1e-05  59373.95925   9.05901  0.47393      5962.1411  48.87655  19.83227  59426.35736    51.26478       44.49278   20.03854  50.09634   22.0        0.4  -21.75052  0.99905 
  -12.45471  0.18882  1.34449     14.65122  1.83127  0.49725   3.79703  0.22007     0.08199  11026.50489   3275.93982  1.05362          2301.9348     16.77942    3e-05  59373.98505   2.75389  0.71694    15319.22615  48.08924  19.71374  59412.46704    51.27837       44.80102   14.35872  22.64097   32.5    0.33312  -21.57038   0.9947 
  -18.14334  0.26174  3.25704     14.21362  1.74108  0.84862   6.49982  0.10308     0.01075    9160.5492   8466.77956  2.49735          2910.4141     20.35729  0.12648  59368.29641   3.25365  1.70124   641274.55979  45.67697  19.86631  59414.46312    51.34148       44.44824   34.06551  66.82332   33.5    0.31653  -21.56133  0.91317 
  -18.22172  0.03921  2.01785     14.73877  1.91529  0.29851  33.76127  0.01818        0.15   5273.79167   6744.95296  1.14318         4062.78104     16.91023    5e-05  59368.21803   5.60134  1.32379    24115.04555  47.55901   19.7659   59418.0245     51.2481       44.58964   22.67744  35.43432   54.5    0.17693  -21.30542  0.97639 
  -11.53934  0.00839  0.88641     14.33876  1.74005  1.34328   8.90474  0.13982     0.28797   13040.4666   9216.71583  0.97513         2225.38697     19.85792  0.04005  59374.90042   9.03305  0.07475     26676.5084  48.18801  19.78409  59416.35814    51.43982       44.89365   14.02698  28.05395   26.0    0.30501  -21.70796  0.99983 
   -8.19631  0.00217  1.24757     14.25544  1.50319  1.50536  16.86267  0.06724      0.0342   9555.23315   5503.79295  1.94327         3334.68348     19.16427  0.00811  59378.24345   9.18409  0.03662    67000.90238  47.42765  19.93221  59412.17325    51.10394       44.51883   17.12188  32.06166   37.0    0.23717  -21.49674  0.99969 
  -13.40158  0.00474  1.99808     14.26013  1.89842   1.3502  16.51222  0.03342     0.18461    7044.5081   5771.98594  1.14829          3294.3168     20.07514  0.06605  59373.03818   4.88803  0.07834   212412.35867  46.61883  19.83697  59420.95013    51.36693       44.55724   20.03854  46.08864   40.0    0.25624  -21.43937  0.99859 
  -17.50013  0.00768  1.85761     14.40299  1.73643  0.64486  10.78071  0.12951     0.04698   9697.02736   7554.15099  1.55958         3248.49952     17.78551  0.00034  59368.93963   6.04717  0.08279    86976.98797  47.03119  19.78604  59415.09887    51.17756       44.55773   20.52869  30.01212   40.0    0.19918  -21.49699  0.99853 
  -11.85532  0.48818  5.60988     14.32984  1.86555  0.52343   9.61355  0.01943     0.21947   6594.26255    5950.8675  2.75223         3257.84463     17.77954  0.00033  59374.58443    2.4937  4.69315  1193589.23252  44.96489  19.73451  59414.39889    51.12674       44.70513   14.02698  21.89422  104.5    0.21875  -21.32816  0.58024 
  -20.51677  0.01616  1.79972     14.46062  1.59419   0.4485  12.62145  0.05324     0.01112   7443.66763   9540.52359  0.72345         4762.83805     18.74048  0.00306  59365.92299   4.17167    0.204    57482.00105  47.20144  19.82779  59420.95013    51.26151       44.50343   26.84962  43.28526   35.0    0.24473  -21.40946  0.99611 
  -27.04637  0.10919  2.02125     13.92621   1.6729  1.26838  27.96841  0.01673     0.19338   5253.38958   4477.86603  0.61239         2197.73405     19.02593   0.0059  59359.39339   4.60441  3.05379   891457.89311  45.93098  19.94105  59414.39889    51.42167       44.87527   17.27323  24.65051  100.0    0.12185  -21.19576  0.93487 
   -22.7028  0.37743  3.44721      14.6655  1.89373  0.19944   3.60327  0.14797     0.03446   8233.21917    7352.3361  2.66403         2196.26654      19.9382  0.04819  59363.73695   1.45701  1.35999    97513.36369  46.48216   19.8536  59416.35814    51.04206       44.51094   15.04501  29.29936   51.0    0.18644  -21.48233  0.92939 
  -20.86694  0.03568  1.58148     13.94511  1.54806  1.20145  24.03646  0.02488     0.13772   6741.97495     5192.378  0.60077         2069.64329     19.72293  0.02935  59365.57281   6.51736  0.85762   462916.47302    46.395  19.81934  59413.48394    51.37062       44.82515   14.02698  28.65822   66.5    0.16685  -21.38644  0.98681 
    -9.8184  0.09141  1.72426     14.52904  1.96564  0.82223   8.67767  0.09861     0.01226  12780.49502   6154.54672  0.68243         2110.27385     17.84268  0.00039  59376.62135   8.45524  0.79321    47472.84097   47.4127  19.88423  59416.35814    51.37232       44.74576   20.03854  30.05781   25.5    0.45851  -21.56429  0.99076 
  -12.41208  0.00234  3.29421     14.44049  2.11246  0.78982   5.61764  0.11093     0.19157   8726.67598   6271.84263  3.14256         2336.90809     18.04854  0.00062  59374.02768   2.55199  0.01314   279976.53294  46.11101  19.89996  59420.95013    51.20151        44.5315    16.4753  40.07707   42.0    0.26112   -21.3908  0.99944 
  -13.33373  0.00252  2.16156      14.4313  1.63208  0.52881  14.57883  0.04401     0.01271   7284.95794   9372.02811     1.43         4460.50569     19.67668  0.02639  59373.10603   4.61534  0.03676    97160.53082  46.82456  19.88569  59415.09887    51.23356       44.70508   18.03468  28.05395   36.0       0.26  -21.74485  0.99902 
   -9.19794  0.00925  1.93119     14.58644  1.54948  0.37255   9.81138  0.05643     0.05218   9255.83384   8703.87594  1.12804         3134.12953     20.35798  0.12668  59377.24182   5.01405  0.09074    36038.69703  47.33061  19.75873   59418.0245    51.47468       44.94326   16.03083   26.0501   32.0    0.35345   -21.5406  0.99792 
   -9.90741  0.31538  0.86118     14.36703  1.70751  0.91083   8.08074  0.07644     0.12599   9845.47249   4630.05384  0.96281         2648.07319     20.63113  0.23761  59376.53235   4.67253  2.54848    21692.77741   48.2947  19.83921  59416.35814    51.22214       44.60991   22.67744  33.43046   38.5    0.30523  -21.73959  0.99353 
  -18.46104  0.00217  0.77643     14.05906  1.28631  1.24492  51.29615  0.01319     0.37826   7177.40256   7867.47127  0.55315         4215.93786     19.19653  0.00873  59367.97871  15.76328  0.11108    54857.61091  47.85875  19.69993  59415.09887    51.15039       44.51798   17.12188  38.07322   38.0    0.25428  -21.18943  0.99957 
   -9.72662  0.13383  1.71965     14.53935  1.87149  0.94858  25.61086  0.02294     0.23483   7549.91611    5119.2756  1.72278         3348.97874     18.50751  0.00179  59376.71314   8.70834  3.42749     42872.8106  47.43797  19.85452  59415.09887     51.2105       44.50617   24.15767  37.96179   50.0    0.24293  -21.36527  0.96146 
   -9.61277  0.03847  1.90575     14.29104  1.77689  1.50819   7.88373  0.12225     0.09377   11740.3012   3128.79598   1.7843         2344.16298     19.21089  0.00903  59376.82699   6.48213  0.30326   156866.82463  46.76284  19.80763  59413.48394    51.24733        44.7449   15.11802   26.0501   34.0    0.29849  -21.55498  0.99464 
   -9.76326  0.00174  1.60015     14.29726   1.7398   1.5347   4.88913  0.13288     0.07647  11871.06981   5211.55305  0.60814         2738.95201     19.62899  0.02364  59376.67649   4.10997  0.00851   105224.74602  47.07891   19.9611  59423.87575    51.32437       44.47813   30.69286  57.47671   29.0    0.43141  -21.55957  0.99989 
   -8.08238  0.09246  0.88961     14.23914  1.65145  1.01258   6.93626  0.07113     0.11128  10156.07416   5170.50644   0.6851         2483.46604     20.69744   0.2768  59378.35738    4.2678  0.64132    40346.63529   47.9825  19.94134   59418.0245    51.13749       44.59977   14.02698  30.05781   34.0    0.39829  -21.76266  0.99774 
   -7.47174  0.00328  1.77246     14.37785  1.98227  1.50481   5.02151  0.10379     0.14654   8615.82462   7823.84865  2.11961         2032.04924      16.7624    3e-05  59378.96802   2.22359  0.01647   101490.35228  47.06243  19.81025  59420.95013    51.27862       44.67276   16.03083  34.06551   33.5    0.30699  -21.30635  0.99979 
  -16.10538  0.00505  1.76752     14.38625  1.90021  0.93461   3.20456  0.24526     0.22917  10812.24717   9445.56086  0.25028         2663.21538     17.94826  0.00049  59370.33438   2.23474  0.01619    93079.54493  47.08406  19.82123  59413.48394    51.14781       44.49698    26.0501  34.06551   27.0    0.32183  -21.42481  0.99978 
  -12.81319  0.07273   3.3321     14.14772  1.91661  0.88029   2.72395  0.16754     0.02241  11756.66182   7507.87474   1.0335         2200.29701     18.56209  0.00203  59373.62657   2.24592  0.19812  1000810.77929  45.50559  19.77167  59413.48394    51.38214       44.80594   16.03083  30.05781   30.0    0.42353  -21.64509  0.99001 
  -10.33415  0.25424  3.16739     13.80714  1.74896  1.53605   2.58282  0.14177     0.01526  13859.26654   5060.57272  0.18539         2087.30951     18.70167   0.0028  59376.10561   2.95938  0.65665  3960205.30787   44.9125  19.91679  59416.35814    51.53742       44.97819   14.02698  29.09394   29.5    0.51638  -21.63521  0.96592 
  -20.84349  0.04363  1.84003     14.37982  1.58971  0.49041  21.31871  0.05832     0.02234   6445.06079   3155.70354  1.52652         3211.66175     17.12965    7e-05  59365.59626   5.28253  0.93017    86924.79348  47.00137  19.92437  59420.95013     51.3673       44.66634   18.03468  42.08093   56.5    0.12751  -21.23833  0.98156 
  -27.15109  0.00286  2.63017     14.09653  1.69468  0.97034  10.65766  0.06299       0.175   5849.48872   5454.94367   1.1704         4035.48361      17.1427    8e-05  59359.28866   2.17533  0.03044   697933.74072  45.81415  19.94437   59418.0245    51.09582       44.48331   14.02698  34.06551   56.0      0.176  -21.27477  0.99885 
  -21.24749  0.14435  1.83703     14.24883  2.10171  1.53263  16.04839  0.05691     0.04233   6593.59155   8273.90424  1.22569         2710.47537     19.79503  0.03465  59365.19226     4.162  2.31663   209397.69766  46.74221  19.90595  59415.09887    51.34345       44.76461   18.03468  28.62669   55.0    0.14376  -21.23891   0.9706 
   -9.59571  0.03897   1.0646     14.87995  2.13283  0.43139   6.19128   0.2264     0.34205  10673.36829   7318.93394  1.61233         2798.68186     16.87615    4e-05  59376.84404   4.20737  0.24126     3901.57627  48.95219   19.8189  59414.39889    51.14046       44.64199   12.28271  24.61899   35.5    0.22475   -21.4851  0.99945 
  -16.19382   0.4471  1.28963     14.51657  1.83874  0.77941  19.85959  0.02692     0.11996  10081.82176   6327.57921  0.06985         5642.57866     19.62224  0.02328  59370.24594  12.04136  8.87924     26310.5203   47.8923   19.7704   59410.3565    51.53111       44.91236   18.03468  31.91348   97.5    0.22846  -21.46973  0.94679 
  -20.84461  0.22648  0.87234     14.69928  1.80464  0.29708  38.66652  0.02194     0.07176   6208.42976   6199.61478  0.37725         5780.40732     20.36761  0.12952  59365.59515   8.89049  8.75717     5093.63677  48.93683  19.95374  59413.48394    51.32889       44.83257   12.02312   26.0501   97.5    0.11283  -21.49157  0.97373 
  -24.62111  0.00931  3.03941     13.92839  1.62364  1.43508   5.88304  0.14012     0.15591  10313.54378   8741.98699  0.86847           3533.909     19.29145  0.01087  59361.81865   3.73288  0.05477  1936904.29837  45.22665  19.81385  59412.17325    51.08443       44.47827    16.4753  32.06166   42.5    0.22524   -21.6058  0.99703 
  -14.73203  0.00372  0.74811     14.53342  2.13625  0.78351  18.42088  0.04796     0.23681    7573.3865   9028.30771  0.95881         2737.70912     20.35336  0.12534  59371.70773   6.30257   0.0685     9518.42671    48.872  19.83624  59420.95013      51.063       44.42583   15.50663  39.64826   35.5    0.21003  -21.36261  0.99993 
  -19.69374  0.05099  2.30432     13.86933  1.41731  1.24836   5.45176  0.08413     0.06249   8006.75996   6722.92405   0.3542         4641.84402     16.51118    2e-05  59366.74602   2.08486  0.27796  1275570.13861  45.58952  19.81996  59412.17325      51.176       44.53487   25.44826  34.66735   56.5    0.23184   -21.5233  0.98951 
   -8.18611   0.1245  2.99095     14.38516   1.5805  0.68817  10.57935  0.05932     0.14281   7006.68113   6881.53324  4.76361         3079.85476     19.14846  0.00782  59378.25364   3.09821  1.31717   222801.54925   46.1681  19.87288  59416.35814    51.49339       44.88983   18.03468  32.06166   44.5    0.24125  -21.42674  0.93352 
   -9.26073  0.00349   2.7134     14.32793  1.67852  0.97209    5.4012   0.1724     0.01447   10441.1547   6788.10469  2.43064         3216.63371     16.58584    2e-05  59377.17902   3.51249  0.01884   253463.10635  46.22283  19.81782  59416.35814    51.08353       44.43863   18.03468  38.07322   29.5    0.35712  -21.49598  0.99924 
   -6.11891   0.3474  0.71255     14.40495  1.80162  1.47596  11.84263   0.0411     0.32921   4492.16474   6152.71574  3.72769         2400.04851     19.42579  0.01481  59380.32085   1.42556  4.11416    13158.39574  48.69968   19.8291   59418.0245    51.19238       44.63663    16.4753  30.05781   71.0    0.15386  -21.14091  0.99666 
  -11.82063  0.02943  3.82854     14.32331   1.6955  0.51089   3.96728  0.07661     0.46213   7291.34884   7962.26671  2.05496          3460.4297     16.52696    2e-05  59374.61913   1.25816  0.11677   520658.61449  45.61552  19.81718  59413.48394    51.11291       44.51898   24.80469  29.29936   50.5    0.29701   -21.4783  0.99063 
  -11.13079  0.00181  1.52747     14.34865  1.55277  0.81077  12.00807  0.04345     0.14403    8358.8378   4471.91014  0.66778         4562.71987     17.25569   0.0001  59375.30897   5.00486  0.02176    67540.28098  47.26244  19.93817  59413.48394    51.12464       44.45867    16.4753  36.06937   32.0    0.36962  -21.49368   0.9997 
  -13.17668   0.3578  2.32286     14.29542  1.80691   1.2845   5.41227  0.09457     0.11074   6643.45734   8438.32543  3.11104         3128.36337     20.52828   0.1875  59373.26308   1.42493  1.93652   232253.75697  46.42777  19.97552  59414.46312    51.19473       44.52381   28.05395  36.06937   43.0    0.27987  -21.60494  0.95149 
  -13.93048  0.04795  0.83741      14.9508  1.76949  0.27036  36.74218  0.01205     0.05771   5789.55954   4269.42132  1.27754         3203.15966      18.1004   0.0007  59372.50928   7.34655  1.76171     1445.22746  49.51088  19.78822  59420.95013    51.37849       44.72537   20.59283  36.27325   40.5    0.27542  -21.28574  0.99715 
  -10.23494  0.00352  3.14935     14.24848   1.6842  0.66655    2.5098  0.12964     0.03491   9284.74464   7393.89512  2.20259         2123.93397     19.04489  0.00616  59376.20482   1.29064  0.00884   493956.58551  45.80511  19.83686  59414.39889    51.18502       44.40129    27.4576  42.67728   39.0    0.32666  -21.41935  0.99951 
  -20.51012  0.02975  0.75279     14.32241   2.0291  1.55532  26.07019  0.07772     0.16634  10786.79691   5470.34291  0.12775          5455.6048     16.98678    5e-05  59365.92963  18.09491  0.77563    24190.31103  48.43916  19.72043  59428.35707    51.37641       44.60298   28.05395  48.09249   44.0    0.19113  -21.29236  0.99901 
   -8.07177  0.02643  0.95841     14.88704   1.3973  0.15068   9.72306   0.0681      0.0154   5599.14784   9563.70001  2.04832         3748.82702     20.74519  0.30897  59378.36799   1.81834  0.25694     2005.07438   49.1489  19.80615  59420.95013    51.24729       44.60796   17.12188  38.07322   41.5    0.20692  -21.82051  0.99849 
  -11.61298  0.00599  3.35491     14.28338  2.00275  1.26498   5.54327  0.09523     0.09066   9388.96187   7729.00021  1.12424         3524.86738     16.60169    2e-05  59374.82678   2.91493  0.03321   567605.73915  45.76506  19.82116  59414.39889    51.10101       44.53109   18.47915  28.05395   36.0    0.34156  -21.50941  0.99841 
  -14.90214    0.206   1.2676     14.56422  2.00859  0.67434   9.63987   0.1482     0.03272  11782.76897   3865.19108  0.65409         2139.90869     17.47013  0.00016  59371.53762    7.9835  1.98584     22296.0331  48.01754  19.78194   59418.0245    51.30934       44.68743   17.86778  35.31092   36.5    0.24371  -21.58426  0.98907 
  -22.61947   0.0556  1.11098      14.6484  1.97136  0.38395  30.31558  0.01668     0.07588   6871.63062   5537.34992  0.07083         3943.41995     18.50002  0.00176  59363.82028   8.53911  1.68555    11407.38319  48.41501  20.01244  59416.35814    51.10541       44.58422   14.02698   26.0501   60.5    0.22061  -21.11139    0.992 
  -11.44141  0.01088   3.4777     14.08855  1.88461  0.81015   1.91442  0.17707     0.14195  10891.54859   8414.15688  2.78537         2616.53298      20.6547  0.25086  59374.99835    1.3547  0.02082  1407737.77275  45.31296  19.81951   59418.0245    51.10698       44.53921   22.48686  28.05395   48.5    0.29513  -21.84346  0.99881 
  -21.62726  0.00835  2.80704     14.35582  1.73639  0.36032    3.9956  0.16669     0.01712  10967.42017   7574.66659    0.158         3084.52056     19.94494  0.04894  59364.81249   2.86693  0.03337   246783.42576  46.21968  19.85552  59420.95013    51.27484       44.58081   23.44441  38.67506   32.0    0.36097  -21.64572   0.9986 
  -17.87425  0.00422  0.70665     14.12121  1.39144  1.36374  41.48695  0.02532     0.06329   9957.36957   5669.42653  0.14842         5580.43332     19.00681  0.00564  59368.56551  24.53736  0.17504    36919.51655  48.14665  19.83362  59416.35814    51.11192       44.54197   20.52068  28.65031   36.0    0.26496  -21.31781  0.99959 
  -16.28673  0.09596  3.19913     13.88838  1.70985  1.34241   3.73247  0.17044     0.09296  11996.30695   8712.76661  0.92143         2225.23817      20.0569  0.06333  59370.15303   3.20419  0.35816   2716873.9119  45.05767  19.88456    59406.322    51.29247       44.60454   24.04624  36.06937   41.5    0.23476  -21.74426  0.98027 
  -14.03418  0.02428  1.59565     13.88471  1.28496  1.18578   2.88921  0.21209     0.19402  13057.90253   3352.79887  0.31754         2530.44041     20.67873  0.26513  59372.40557   2.93868  0.07016   516601.26135  46.25871    19.961  59415.09887    51.34473        44.7031   18.03468  34.06551   38.5    0.36354  -21.94997  0.99853 
  -11.88651  0.10151  1.53352     14.34438  1.64638  0.83577   6.86059  0.15974     0.01422   9288.95965   9914.84118  1.73887         2362.35291     19.08807   0.0068  59374.55325    3.5312  0.69642    73615.73821  47.24703   19.8685  59422.38116    51.26914       44.48296    29.5336  44.60898   28.5     0.2456  -21.43713  0.99125 
  -18.22566  0.05752  3.29599     13.99305  1.66188  1.34982    4.2305  0.11711     0.03099   9670.49598   8414.00581   1.3224         2692.85785     18.53809  0.00192  59368.21409   2.36003  0.24335  1730995.11245  45.21518  19.91748  59422.38116    51.15601       44.50167   19.07163  39.07137   37.0     0.2779  -21.48512   0.9852 
   -9.21266  0.01069  1.88749     14.87351  1.52607  0.20471   6.78973  0.05003     0.06646   6368.35586   5430.52259  1.46375          3344.4971     16.83846    4e-05   59377.2271   1.64261  0.07259     9039.39828  47.94451  19.74654   59418.0245    51.19193       44.64463   16.03083  30.05781   35.0    0.34237  -21.33629  0.99839 
  -10.53446  0.00115  1.39798     14.71501  1.68233  0.30243  13.21484    0.126     0.34633   9645.16109   6916.70233  1.86406          2902.2239     18.78024  0.00335   59375.9053   7.33344  0.01517    11342.48826  48.14905  19.79953  59413.48394     51.2258       44.69077   14.02698  30.05781   42.5    0.17305  -21.61487  0.99985 
  -16.97123  0.04081  0.76276     14.35008  1.93298  1.28518  38.88021  0.07524     0.11817  12857.50963   4417.97201  0.19319         3154.95327     17.87802  0.00042  59369.46853  38.34153  1.58655    20828.15045  48.47165   19.9174  59412.17325     51.0772       44.47915   24.60741  29.29936   44.5    0.17413   -21.4039  0.99791 
   -8.58447  0.02877  2.01192     14.79407  1.69737  0.25249   7.27203  0.04084     0.26246     6987.935   5748.61745  0.89687         4522.48412     19.43943  0.01528  59377.85528   2.11827  0.20922    16469.44412  47.67472  19.81936   59418.0245    51.28689       44.58759   22.67744  37.43817   35.5    0.40032   -21.5649  0.99548 
  -49.68433  0.02073  1.10379     14.26466  1.82214  0.70035  17.64296   0.2004     0.02703    8125.1425   9876.05152  1.22775          2643.6141     18.43787  0.00152  59336.75542   6.94801   0.3658    60934.59514  47.65879  19.79011  59415.09887    51.22725       44.66475   12.46759  32.06166   67.5    0.07404  -20.40564  0.99792 
  -18.75112  0.09055  2.28377     14.09943  1.70438  1.32063    7.4363  0.11403      0.0735   9058.61645   7672.89739  0.60218           5595.592     19.38375  0.01344  59367.68863   3.64005  0.67334   522187.23022  46.06528  19.86297  59415.09887     51.0507       44.43421   17.10933  36.06937   41.0    0.23724  -21.71201  0.98139 
  -16.14246  0.02484  1.04519     14.37348  1.49945  0.53667   32.9157  0.01859     0.17226   8642.56781   9720.28233  0.24618         5806.91884     19.97527  0.05248  59370.29729  14.66614  0.81767    27237.94285  47.97121  19.90488  59415.09887    51.24625       44.66012   17.28792  30.80456   32.0    0.30291  -21.54652   0.9947 
  -14.95263  0.00151  2.11879     14.47339  2.04688  0.96203   4.02392  0.21007     0.15806   9448.97895   3156.93464  1.64791         2731.78191       16.942    5e-05  59371.48712   2.14312  0.00609    96451.64177  46.94345  19.82415  59420.95013    51.24866       44.65095   14.47145  34.06551   35.5    0.27145  -21.36601  0.99989 
   -9.96026  0.26364  2.22579     14.30148   1.7946  1.23585   5.85119  0.11349     0.12738  11269.48243   5822.21781  0.96927         2632.95417     17.03417    6e-05   59376.4795   4.43281  1.54258   205965.15102  46.51405   19.7721  59416.35814     51.1594       44.47021   23.28479  40.07707   37.0     0.3375  -21.55485   0.9638 
  -23.26948  0.00402    1.337     14.52737   1.3984  0.31689  13.41023  0.06155     0.02834   6636.43717   6352.09704  0.91935          3469.7614     19.07705  0.00663  59363.17027   3.52317  0.05391    20462.97741  47.85124  19.90122  59415.09887    51.42958       44.80016   18.03468  34.06551   47.0    0.19383  -21.09554  0.99932 
  -10.83784  0.07535  3.63752     14.33313  1.88822  0.74872   6.24701  0.06474     0.47692   7654.34248   7115.80481   1.6539         3291.84027     17.43073  0.00015  59375.60191   2.18331   0.4707   500287.96979  45.72407   19.9879  59410.41492    51.23828       44.68666    16.4753  28.05395   47.0    0.30251   -21.4291  0.97177 
   -6.69809   0.4733   0.7495     14.32466  1.75005  1.50829   5.88706  0.07171     0.13875   7867.68225   8333.77088   1.8749         2164.46654     20.59599  0.21914  59379.74167    2.1738  2.78634    20469.29369  48.45124  19.86025   59418.0245     51.5476       45.04212   12.02312   26.0501   42.5    0.31442  -21.45251  0.99631 
   -5.94231  0.08111  3.44754     14.66879  1.77182  0.42936   9.11494  0.04692     0.05945   8526.05922   7290.66121  3.02711           3100.687     17.54225  0.00019  59380.49745   3.95255  0.73934    89881.42973  46.48858  19.92442  59412.17325    51.17282       44.57786   19.76078   27.4189   36.0    0.37137  -21.46473  0.95717 
  -16.48581  0.18702  2.98497       14.471  1.83885  0.33111   6.33485   0.0569     0.34422   8554.57432   4085.21982  0.18806         4372.77345     17.62349  0.00023  59369.95395   2.76541  1.18475   173878.42888  46.34327  19.80546  59414.46312    51.26649       44.65523   20.67359   27.4189   70.0    0.21425  -21.50584  0.95104 
  -11.96165  0.11736  1.32946     14.31635  1.87122  1.39805  15.76334  0.12024     0.02864   10025.2446    6817.3553  2.04582         2926.25581     16.05492    1e-05  59374.47811   9.45073  1.85001     71546.4377  47.43903  19.94785  59410.41492    51.36036       44.80215   17.11035  29.42276   45.0    0.14545  -21.61507  0.98682 
   -8.66737  0.00426  0.84418     14.28084  1.59704  1.42022  22.30128  0.05248     0.24844   9976.84254   4209.91759  1.74186         2356.79432     17.37979  0.00013  59377.77239  13.24168    0.095    28995.73152  48.15695  19.83688  59410.41492    51.22679       44.53984   18.03468  40.07707   35.5    0.24514  -21.46216  0.99977 
  -15.08143  0.14231  0.77726     14.26604  1.70743  1.52345  19.95344  0.02682     0.06492   8194.27567   9688.51085  0.33497         4761.80594     18.49381  0.00173  59371.35832   7.99219  2.83954    28133.26611  48.27083   19.7901  59415.09887    51.41279         44.934   11.74907   26.0501   36.0    0.28539  -21.42028  0.99482 
    -9.1407   0.0174  1.15271     14.55022  1.45961  0.45032   5.24719  0.13635     0.15304  12184.73652   8264.02374  0.17731         3308.41069      16.3805    1e-05  59377.29905   4.64714  0.09132    14290.34346   48.1546  19.89765  59413.48394    51.43005       44.79136   20.03854  34.06551   25.5     0.4246  -21.58337   0.9993 
  -12.49776  0.02118   2.9284      14.1577  1.67519  0.87759   6.90441  0.04519     0.01434    7243.8643   4429.21107   2.3976         2090.40581     16.53756    2e-05  59373.94199    2.1612  0.14627   645260.29436  45.74991  19.77758  59420.95013     51.3456       44.60714   28.05395  42.08093   51.0    0.26271  -21.26227  0.99305 
  -15.44765   0.1998  3.98659     14.08014   2.1011  0.99509   2.82577  0.06002     0.34734   7821.90997   8694.13292  0.69036         5330.82388     17.55913   0.0002  59370.99211   1.03131   0.5646  2143849.49656  45.05889  19.75455   59418.0245    51.24323       44.61406   20.67359  33.43046   69.0    0.20953  -21.60189  0.96496 
   -9.03639  0.14729  0.87001     14.35952  1.59897  1.18916   21.9782   0.0483     0.19579  10403.34776   3044.51969  0.57601         5153.72801     17.29922  0.00011  59377.40336  14.18945  3.23714    21461.48586  48.26198  19.92149  59422.38116     51.2252        44.5052   24.18408  41.94309   40.5    0.26396  -21.69058  0.99267 
  -12.05988  0.01822  2.28893     14.11445  1.58573  1.36647    3.6404  0.31705     0.02248  13862.99639   7396.25576  0.91956         2585.95171     16.10428    1e-05  59374.37987   4.17341  0.06634    455415.5984   46.0914  19.79049  59426.80138    51.39767       44.72035   20.67359  37.43817   25.0    0.46639   -21.6763  0.99792 
   -14.1895  0.03467  1.36927     14.63564  1.86646  0.55757  25.72385  0.01571     0.03024    4600.6036   6841.68991  1.75926         3317.07109     18.23826  0.00096  59372.25025   3.24783  0.89195    17399.39911  48.02635  19.79703  59413.48394    51.18019       44.72396   14.02698  21.89422   41.0    0.23735  -21.18545  0.99349 
    -11.559  0.12276  0.85981     14.85145  1.72881  0.29056  18.84758  0.02862     0.11695   4746.91341    3335.2975  1.33996         3503.35633     17.86335  0.00041  59374.88075   2.53341  2.31372     2352.19802  49.26632  19.82454   59418.0245    51.13837       44.50716   21.89051  30.65416   51.0    0.19195  -21.24627  0.99485 
  -14.35481   0.0039  0.87175     14.41698  1.90479   0.7974  56.09069  0.03177     0.29988   8624.55593   8103.23217  1.39304         2896.00938     20.31163  0.11386  59372.08494  24.88808  0.21876    19700.79536  48.37343  19.73922  59426.35736    51.25226       44.59518   18.03468  38.42519   43.0     0.1404  -21.57702  0.99947 
  -14.92289  0.10082  2.09821     14.15749  1.60469  1.53347    7.9041  0.08126     0.15728   7487.28723    6141.8572  1.62805         3259.51911     19.15529  0.00794  59371.51687   2.64319  0.79692   317625.65423  46.32862  19.69556  59412.17325    51.11793       44.42925   19.76078  39.44202   42.5    0.24869  -21.45209  0.97987 
  -15.65037  0.42419  1.21394      14.6293  1.95875  0.68495  21.05661  0.05432     0.11301   9554.79371   8947.69498   0.9924         3307.44943      20.0528  0.06274  59370.78938  11.46722  8.93209    14777.26214  48.22283  19.88426  59416.35814    51.33766       44.80148   17.86878  26.62284   68.0    0.15465  -21.54536    0.962 
  -11.01691  0.16015  3.04102     14.17112  1.83709   1.4433   4.11847  0.15935     0.48866  10658.49308   4143.00336  2.78236         2276.71118     17.21947    9e-05  59375.42285   2.79097  0.65957   717375.42557  45.71119  19.78396  59413.48394    51.21257       44.58476   25.30334  32.80842   43.0    0.29238  -21.57998  0.97132 
   -7.62163  0.02324  2.02794     14.39217  1.65468   0.7302   5.05092  0.11611     0.01073  11947.66886   5298.87923  0.41462         3963.67307     16.92171    5e-05  59378.81813   4.30094  0.11737   103823.94605  46.85715  19.93899  59412.46704    51.19055       44.37133   21.89051  46.68499   23.5    0.61625  -21.59709  0.99733 
  -15.81734  0.35524  3.62728     13.92823  1.69787  1.00762     8.197  0.04316      0.0364   7440.19473    6751.5273  1.54088         3141.39433     17.78024  0.00033  59370.62241   2.70677  2.91192  2886774.42403  44.91918  20.00236  59423.87575    51.52073       44.79095    26.0501  36.06937   81.5    0.16966   -21.5099  0.82337 
  -19.26721  0.00516  2.48856     14.16918  1.96096   1.2177   5.62577  0.07749     0.22701   7688.36137   3976.14729  0.36725         3200.20932     18.88263  0.00424  59367.17255    1.9837  0.02904   517390.69975   46.0556   19.9298   59418.0245    51.11153       44.48026   16.03083  38.07322   52.5    0.25441  -21.33118  0.99921 
   -4.24867  0.42229  1.33635     14.86214  1.67059  0.36029   6.28948   0.1149     0.05924  13858.33122   3335.67794  2.22368         2006.83921     16.08182    1e-05  59382.19108   7.20549  2.65596     5226.99246  48.52163  19.84822  59414.46312    51.46452        44.8385   14.02698  26.65437   33.0    0.37585  -21.53524  0.98182 
  -29.39884  0.03923  1.35797     14.07005  1.77687   1.3809  21.64695  0.01868     0.05983   4557.46925   5213.78949  0.68803         4231.88223     18.69397  0.00275  59357.04091   2.68208  0.84922   220365.59495  46.90958  19.88962  59428.35707    51.59191       44.83501   18.03468  44.08478   70.5    0.17616  -21.08966  0.99225 
  -13.51078  0.01498  0.74893     14.47222   1.7343  0.79723  30.68013  0.01896      0.0756   8579.20706   6650.97311   0.6903         2192.56604     19.08416  0.00674  59372.92898  13.47034  0.45974    10265.31284  48.74772   19.7853  59413.48394    51.19819       44.47683   28.05395  38.07322   32.5     0.3283  -21.35239   0.9994 
  -10.34741  0.03316  1.31477     14.73226  1.57702  0.37536  14.64815  0.05305     0.10712   7694.52483   4912.89676  2.03368         3439.63071     17.71181  0.00029  59376.09235   5.17337  0.48572     8686.20381  48.29016  19.93665   59418.0245     51.3823       44.78148   15.11802  34.06551   36.0    0.25222  -21.48486  0.99584 
   -2.38953  0.01045  0.80598     14.25073  1.41804  1.36785  16.98918  0.10223     0.02174  11941.95263   8379.16261  2.40856         2972.88697     18.43869  0.00153  59384.05022  14.45274  0.17752    26958.73423  48.17719  19.81045   59418.0245    51.31816       44.69185   22.04239  30.05781   35.5    0.20607  -21.68812  0.99957 
  -21.64711  0.05145  2.86354     13.48993  2.02082  1.31368   4.00468  0.06705     0.01364  11666.99572   4423.92924  0.93877          2374.9427     17.92992  0.00047  59364.79265   3.25172  0.20604  16117017.7642  44.45328  19.87088  59416.35814    51.02747       44.33082   23.12089  35.79073   47.5    0.24392  -21.64344  0.99195 
  -25.39791  0.02892  1.56614     14.27898  1.92154  0.76023  17.49158  0.03289     0.03609   6881.88038   4075.21674   0.1398         4300.53484     19.70582  0.02822  59361.04184   4.94163  0.50591   121107.86741  47.07966  19.89392  59414.39889     50.9218       44.36402   20.52068  28.65031   57.0    0.19977  -21.25671   0.9945 
   -9.68777  0.00358  1.14298     14.42144   1.8079  1.06644   8.48756  0.22016     0.08705  12948.55215   8958.62941  1.56477         3172.77855     17.80627  0.00036  59376.75198   8.48892  0.03038    31490.59729  47.91176  19.98699  59416.35814    51.30053       44.61708    15.0535  36.67121   31.5    0.23762  -21.65101  0.99986 
  -10.84608  0.00384  1.73374     14.31967  1.88881     1.37   4.47652  0.22505     0.17044  12556.99256   8154.87574  0.29032          2467.9779     16.24206    1e-05  59375.59367   4.21055  0.01721   120957.54476  46.98443  19.79724  59413.48394    51.11749       44.45289   21.89051  30.65416   28.5    0.34947  -21.61813  0.99977 
  -20.80132  0.04248  3.09345     13.82401   1.5621  1.46991   4.94041   0.0951     0.01011   8535.89417   8945.13668    1.242          3113.1208     17.73196   0.0003  59365.63843   2.14728  0.20987   3121643.2318  44.98728  19.83954  59413.48394    51.19856       44.68554   14.47145   26.0501   34.5    0.31638  -21.50753  0.98752 
  -11.23331  0.19414  1.19844     14.43816  1.62935  0.88876   8.54367  0.10538     0.20747   7823.97399   3517.76407  2.60387         2877.77522     18.80725  0.00356  59375.20644    3.1198  1.65863    28890.12692  47.86288  19.85808  59408.37694    51.17624       44.54492   18.66973  31.42661   44.5    0.20296  -21.34878  0.98991 
  -28.31318  0.02107  2.92558     14.71033  1.57004  0.13666    7.3957  0.07404     0.01414   7795.70935    6535.8963  0.83686         2652.96217     16.52908    2e-05  59358.12658   2.68113  0.15584    47369.58766  46.85683  19.94771  59410.41492    51.27517       44.71757   13.11417  28.05395   48.0    0.20762  -21.34654  0.99177 
   -9.27041  0.05683  1.76986     14.73643  1.99517  0.28536  14.78216  0.03377     0.01301   4641.27209   9364.03244  2.23098         3498.28055     20.75801  0.31823  59377.16934    1.8995  0.84011    19535.21972  47.78213  19.87247  59413.48394    51.15116        44.6488   18.47915  24.04624   46.5    0.20186  -21.79267  0.98905 
  -20.74981  0.04756  3.97308      14.2082  1.85169  0.56575  10.04473  0.03716        0.08   6488.53573   4822.21202  2.55823         3259.59002     18.21124   0.0009  59365.68995   2.52266  0.47775  1040506.04388  45.32091  19.73725  59423.87575    51.34757       44.63261   18.03468  44.08478   72.0    0.20216  -21.44749  0.96432 
   -1.98302  0.07252  0.96563     14.42949  1.71077  1.34148  14.88754  0.05054     0.41063   7474.42827   6744.01205  2.71256         2878.06509      18.9357  0.00479  59384.45674   4.96142  1.07967    20494.65361  48.22078  19.91946  59420.95013    51.34912       44.62259   23.29948  40.82383   39.0    0.23962  -21.35896  0.99747 
  -24.49661  0.00137  1.33116     14.64388  1.59587  0.22142   9.13873  0.18698     0.10013    8125.0112   4201.42463  0.39969         5754.53323     17.12117    7e-05  59361.94314   3.59883  0.01252    13537.01326  48.09186  19.78675  59413.48394    51.24021       44.64007   18.03468  32.06166   51.0    0.14577  -21.53812  0.99987 
  -20.73645  0.01129  0.70244      14.1232  1.51124  1.27085  44.09086  0.03131     0.11392   7984.79978   9395.78144  0.88271         2872.39884     20.32995  0.11876   59365.7033  16.76887  0.49799      39261.127    48.161  19.84764  59415.09887     51.2274        44.4852     28.689  39.44202   38.5    0.16264  -21.16163   0.9989 
  -16.68679  0.00927  1.32023     14.44671  1.76098  0.57477  31.17199  0.01283     0.40738   4868.06002   3742.04536  1.05391         4718.68983     20.01895  0.05803  59369.75297    4.4066  0.28911     36428.7201  47.71186   19.7716  59414.39889    51.10384       44.66685    19.2376  21.28394   42.5    0.24144  -21.43208  0.99757 
   -17.1481  0.13831  1.79008     14.79999  1.71938  0.21173  11.94885   0.0268     0.25211   6163.73618   8219.59301   0.4104           4832.107       18.165  0.00081  59369.29166   2.70795  1.65259    12851.12137  47.88953  19.91761  59416.35814    51.22036       44.53996   26.80854  37.31477   55.5    0.26428  -21.27011  0.97283 
   -4.82644  0.01161  1.95125     14.38694  1.84866  1.37635   3.12652  0.26646     0.06771  10943.55622   3596.13609  1.98268         2810.39064     17.08877    7e-05  59381.61332    2.2336  0.03629   110006.86461  46.91366  19.85456  59423.87575     51.5035       44.84465   20.03854  34.06551   31.5    0.31173  -21.50289  0.99938 
  -19.72367  0.00221   0.9067     14.31017  1.73174  1.00892    5.0793  0.14453     0.24377   8718.96699   7109.81659  0.20278         5361.56698     16.24479    1e-05  59366.71609   2.30335  0.01121    31686.90595  48.09152  19.85277  59415.09887    51.13661       44.64954   14.02698  26.62284   36.0    0.29239   -21.2049  0.99996 
  -18.45873  0.13013  3.26641     13.98697  1.97101  1.33546   2.96671   0.1005     0.32552   9470.11331   7178.47939  0.00361         5251.85571     17.65135  0.00025  59367.98102   1.58713  0.38605  2073464.60307  45.21869  19.93716  59414.46312    51.11481       44.50064   20.79698  31.30321   68.5    0.19686  -21.49347  0.98213 
  -11.65322  0.25067  0.80514     14.36652  1.80071  1.48185   8.22607  0.18877     0.04753  10854.48625    6339.9499  1.90333         2217.40877     16.10234    1e-05  59374.78654   5.78147  2.06203    20042.62163   48.4106  19.65266  59415.09887    51.15817       44.55046   20.03854  32.06166   39.5    0.21055  -21.53159  0.99699 
  -18.84165   0.0015  1.48195     14.40323   1.5643  0.53181   4.50439  0.19665     0.01416  10225.00937   7909.43758  0.01908         2020.08584     17.69248  0.00027  59367.59811   2.80925  0.00676    49811.89376  47.42417   19.9189  59415.09887    51.19316       44.66469   15.74053   27.4189   26.5    0.40437  -21.32971  0.99991 
   -13.0882  0.04306  1.34629     14.03188  1.54302  1.42897   9.38351  0.06236     0.33008   9878.29672   4393.92853  0.17523          4337.8674     20.40422  0.14091  59373.35156   5.46206  0.40403   224236.59529  46.84823  19.88161  59414.39889    51.42522       44.90507   12.37468   26.0501   40.0    0.31605  -21.74607  0.99552 
  -18.63289  0.01577  3.71086     14.23205  2.02304  0.53328   3.81703  0.08576     0.03405  10086.97787    6313.0076  0.25435         5274.26462        18.88  0.00421  59367.80687   2.31672  0.06019   888527.98582  45.48723  19.79954  59415.09887    51.35405       44.77694   16.03083  30.63055   47.5    0.22847  -21.63296  0.99645 
  -14.15314  0.17097  0.83041     14.31079  1.60587  1.17277   9.70584  0.23292     0.02535  15528.86937   7423.02782   0.4754         5409.54051     19.17382  0.00829  59372.28662  13.96176  1.65937    24577.00032  48.24544    19.897  59413.48394     51.1674       44.50595   16.03083  32.06166   30.0    0.28292  -21.92126  0.99622 
   -16.1183   0.2282  2.52665     14.44633  1.83492   0.5629   7.86931  0.12434     0.08536   9089.85201   8173.94486  2.43116         3037.27879     20.43648  0.15178  59370.32146   3.87862  1.79579    139272.6135  46.58351  19.86075  59416.35814    51.13101       44.55655   17.43284  30.65964   44.5    0.20135  -21.67043  0.94754 
  -14.46378  0.00838  1.70739     14.24335  1.53894  0.87453   6.04457  0.10449     0.04703  10997.64646   4126.69034  0.23251         3042.25283     17.49921  0.00018  59371.97597   4.36106  0.05067   135830.81605   46.8584  19.80975  59413.48394     51.1977       44.72801   14.02698  23.89807   32.5    0.38127  -21.54144  0.99909 
  -30.74397  0.01449   1.0644     13.87512  1.24363  1.21236  21.00657  0.08234     0.13787   5890.16684   3812.61313  2.05899         2611.04941     19.33022  0.01188  59355.69579   4.34748  0.30439   232529.32789  46.94285  19.84657  59415.09887    51.51644       45.07355   11.09777  23.10793   62.5    0.10187  -20.96681  0.99708 
   -9.75494  0.01573  0.95106     14.20458  1.40027  1.56368   7.47663  0.13088     0.02075  10833.80662   9481.35059  0.74518          2726.7776     19.26953  0.01033  59376.68482   5.23474   0.1176    45843.68555  47.79736  19.95662  59415.09887    51.19835       44.69928   13.28022  25.36575   25.0      0.339  -21.44314  0.99946 
   -13.6553   0.0098  0.82053     14.12331  1.24944  0.96727  11.15294   0.0962     0.34599    9834.3305   6234.89606   0.3046         5644.63767     17.82311  0.00037  59372.78446   6.43437  0.10928    44269.95502  47.89126  19.87184  59414.39889    51.23372       44.69049   16.03083  28.05395   34.5    0.26127  -21.66898   0.9995 
  -23.25519  0.05121  3.17858     14.60173  1.64974  0.20379   3.12828  0.22146     0.05142  10458.61988   9998.52058  1.90059         2394.57085     18.49783  0.00175  59363.18456   2.04118  0.16021    96882.46075  46.49555  19.72036  59414.39889    51.15571       44.66921   20.72393  23.36086   32.0    0.24392   -21.5741  0.99075 
    -26.387  0.03318   2.8317     13.98985  1.69516  1.04463   4.04824  0.13473     0.01595   7458.77775   4594.01382  0.70067         3911.98647     16.06565    1e-05  59360.05276   1.34347  0.13432  1322589.42971  45.47254  19.95095  59424.36899    51.21742       44.43305    27.4576  48.68884   42.0    0.24984   -21.4562   0.9941 
  -12.87112  0.00424  1.37782     15.14135  1.80888  0.14689  32.68934  0.01253     0.01842   5005.65784   9288.32224  1.67001          2932.2733      18.8014  0.00352  59373.56863   4.88602  0.13872     1663.09346  49.02696  20.00705  59412.17325    51.22515       44.66812   16.03083  28.05395   39.0    0.25128  -21.17519  0.99886 
