 log(Bfield)      Mns     Pspin  cutoff_power  cutoff_wavelength  fnickel    kappa  kappagamma   mejecta  log(nhhost)  temperature  texplosion  thetaPB     vejecta      A_V        MJD_0   log(KE)      M_Ni  Peak_mag     Peak_MJD 
    12.50783  1.91099  27.10928       0.06772         3682.38772  0.32767  0.09143      0.0114  46.67892     17.16904   4347.38903  -139.44513  0.81846  2116.18281    8e-05  56247.82587  51.37603  29.15675  21.10333  56465.00671 
    14.70585  1.57412   1.07926       0.45528         4277.23766  0.43387  0.20442     0.01214  97.08088     19.43055   6234.26124  -138.60327  0.20148  1793.00816  0.01497  56248.66773  51.28093  43.20142  20.96637  56473.29957 
    13.19649  1.53346  15.91329        2.1161         3165.95655  0.32111   0.0841     0.10893   31.7208     16.76941   5041.79847   -68.48539  0.04837  3399.60022    3e-05  56318.78561  51.75962  26.77867  20.99393  56484.35671 
    13.02107  1.65822  28.32118       1.68468         2829.88314  0.18952  0.05199     0.39625  58.00896     16.49312   3984.59019   -48.06245  1.34484   4691.1132    2e-05  56339.20855  52.08255  17.45916  20.97848  56459.47814 
    14.08067   1.6656  10.27164        4.2207         3163.99808  0.25545  0.07501     0.04739  64.60544     19.98408   4851.13079   -83.48714   0.3073  2829.10003  0.05356  56303.78386  51.65058  23.93117  20.93465  56514.76386 
    12.01546  1.86374  14.58421       0.73898         3298.26152  0.31839  0.10373     0.13388   71.9828     19.68329   3302.51821  -124.11705   0.3165  2376.34995  0.02679  56263.15395  51.50629  30.32563  20.95182  56495.41386 
    13.32606  1.27811    3.4389       1.48735          2367.4816  0.46837  0.16339     0.01097  21.96209     20.09217   9240.17183   -58.26017  0.50453  4330.58247  0.06869  56329.01083  51.94125  36.56949  20.75829  56528.58529 
    13.65751  1.38534  18.44075       0.29441         3712.36073  0.24036  0.07074     0.02658  70.45252     17.00582   6151.99162    -91.4739  1.30202  2897.36797    6e-05   56295.7971  51.67706  22.81809   20.9156  56495.41386 
    12.59931  1.51014   9.80535       1.28503         3367.72767  0.13736  0.02787     0.07543  93.39336     20.54649   3543.48494   -77.26608  1.01733  3113.86431  0.19553  56310.00492  51.75791  13.60018  20.99265    56487.121 
      14.664  1.65361   6.22422        4.2065         3473.92476  0.44363  0.10073     0.07108  14.62642      19.0533   4023.66489   -13.86008   1.5512  4065.07547  0.00628  56373.41092   51.8523     32.03  20.94502  56476.06386 
    14.96488  1.74863  12.45555       1.70499         2057.05128   0.3463  0.09825      0.0113  29.81332     17.86203   7855.76898   -62.38304  0.04407  4706.23457   0.0004  56324.88796  52.03742  28.56927  21.01163    56462.282 
    15.07786  1.64513   14.6973       4.95527         2551.63886  0.16313  0.04787     0.36386  67.27679     18.57314   6972.73682   -56.23346  1.22981  4660.21722  0.00208  56331.03754   52.0868  15.37756  20.99581    56471.196 
    12.75496  1.85721  23.70026       3.47923         2567.38871  0.28289  0.07335     0.25787  66.31514       19.557   7146.99589   -85.87569  0.74366   2462.4384  0.02003  56301.39531  51.53176  26.60886  20.96392    56470.235 
    13.85235  1.54327  18.40378       1.86376         3241.21257  0.42144  0.09632     0.03435  25.42762     17.39775   4178.71572   -52.67921  1.04868  3558.88731  0.00014  56334.59179  51.78241  33.79805  20.97563    56487.121 
    14.72387  1.70465  20.76593       0.14645         2853.00558    0.426  0.10496     0.37882   20.8144     17.08662    5732.1785   -36.88022  1.52742  5223.70252    7e-05  56350.39078  52.09977  32.93083  20.88627  56509.23529 
    12.45152  1.55903  14.95414       0.44331         4342.62835  0.33053  0.07911     0.02054  99.13063      16.8112   8576.36233  -192.55526  1.06031  1192.17038    4e-05  56194.71574  50.92776  33.01101  21.00586    56467.771 
    14.19366  1.65301   9.59113       0.15088         2200.35295  0.48548  0.15244      0.1894  40.76003     16.72978   9794.86529  -144.03032   1.4562    1859.904    3e-05  56243.24068  51.25423  42.24707  20.94649  56498.17814 
    14.49395   1.6287   7.74574       4.25463         3362.28489  0.38816  0.13293     0.03478  48.29112     19.25693   7577.39672   -72.36382  0.10495  3006.65274  0.01004  56314.90718  51.68348  34.73008  21.00627  56478.82814 
    14.61016  1.85162  28.41737       3.93065         3395.08356  0.38435  0.09632     0.01754   68.6313     20.38725   6181.96284   -84.70486  0.33077  2426.46602  0.13551  56302.56614  51.52127  36.34257  20.94145  56481.59243 
    13.02993  1.82242   3.24989       3.02859         2664.06233  0.47609   0.1707     0.06414  15.35644     17.48936   3066.91571   -64.74653  0.90074  4307.40144  0.00017  56322.52447  51.90681  34.70848  20.89822  56511.99957 
    12.60602  1.98729   1.60349       0.27919         3308.94969  0.19647  0.04331     0.15592    35.781     20.85296   7903.12878   -72.89196  0.97316  3592.66155    0.396  56314.37904  51.81658  16.72654  20.83252    56525.821 
    13.71672  1.82087  12.99498       0.47376         2142.51927  0.47828  0.11108     0.41293  18.31083     16.11324   6698.01803   -69.67096  1.07456  3876.83566    1e-05  56317.60004  51.83023  36.08537  21.01134    56467.771 
    14.15502  1.60599   7.88417       2.23084          2264.5005  0.49598  0.10018     0.08541   14.0747     20.01369   8316.86006   -65.55228  0.35201  3249.63298  0.05733  56321.71872  51.65447  35.53349   20.9149  56517.52814 
    13.85364  1.48452   8.07098       0.55279         3145.59038   0.3981  0.07007     0.06477  17.89424     17.66801    4271.8057   -37.65976  0.11847  4514.83608  0.00026  56349.61124  51.96064  29.90352  20.97044  56453.94957 
    14.47908  2.17958   8.13043       0.83168         2353.48072  0.42246  0.11679     0.23949  26.83732     20.30955   6493.86904    -65.3705  0.96101  3112.82601  0.11331   56321.9005   51.6703  34.20949    20.947  56473.29957 
    12.45528  1.64636     5.427       2.98048         2112.93024   0.4178  0.12469     0.42228  29.87642     16.48552   5546.23759   -77.67005   0.1006  3715.56357    2e-05  56309.60095  51.83228  34.48035     20.89    56525.821 
    13.24096  1.75562  12.30846       3.63896         2586.00702  0.49984  0.17488     0.49163    87.174     17.11097   9125.82054  -134.26893  1.01398  1988.27671    7e-05  56253.00207  51.36387  48.99197  20.86496    56545.171 
    13.85302  1.52509  17.80723       3.10337         2775.98601  0.44678  0.14852     0.05697  64.68432     19.58245   5633.50789  -117.75353  1.21839  2162.07329  0.02124  56269.51747  51.41711  41.86353  21.00429  56453.94957 
    14.52687  1.65731  22.62167       0.80261          2338.4818  0.47108   0.1614     0.02021  33.21423     20.09536   4911.24589   -88.33719  0.66753  3891.48687   0.0692  56298.93381  51.88045  39.59902  20.95501    56490.219 
    14.75957  1.80855  26.13243       3.71351         2327.27671  0.17699  0.03844     0.01987    51.395     18.95984   3086.97278   -54.17464  1.18391  3902.74592  0.00506  56333.09636  51.91441  15.99523  21.09549  56465.00671 
    14.15764  1.83673    1.5988       0.26563          2434.9402  0.35502  0.21463     0.01693  92.28568      16.1959   6429.57391  -108.70845  1.12936   2745.1437    1e-05  56278.56255  51.64769  35.08968  20.68122  56550.69957 
    12.60752  1.82926  13.69019       0.05078         5071.10213  0.40038  0.10296      0.1004  61.39762     18.10703   5344.54194  -156.53906  0.15176  1525.23485  0.00071  56230.73194  51.11053  37.21322  20.95425  56514.76386 
    12.63178  1.21732   6.21698       0.18732         2718.07482  0.45932  0.12107     0.04929  37.84243     16.71391   4867.26885  -100.06174  0.52788  2319.33297    3e-05  56287.20926  51.44058  39.47678  20.99207  56511.99957 
    12.74544  1.89282  28.88221       3.47238         2171.50713  0.49822  0.10637      0.2316  19.16521     17.05878   7965.95421   -56.78278   0.8077  3767.83375    6e-05  56330.48822  51.80924  37.91802  20.90843    56480.213 
    12.99359  1.50151  17.92376       4.96518         3366.81115   0.4051  0.10536     0.05623  32.37475     17.21537   6626.49112   -82.77602  1.21291  2273.44969    9e-05  56304.49498  51.41167   33.9028  20.96173  56459.47814 
    13.64899  1.82875   6.97757       3.15049         3034.65313  0.29194   0.0854     0.03678   33.4097     16.86126   6291.97895   -76.48033  0.72378  3077.71465    4e-05  56310.79067  51.67711  24.56525  20.93081  56509.23529 
     14.3276  1.62257   9.41005       2.98759          2657.9887  0.34739  0.11011     0.01092  44.12869     18.04646   5695.00822   -73.16534  0.16414  3476.37072  0.00062  56314.10566   51.8032  30.62919  20.97798  56492.64957 
    14.55331  1.81553   9.63027       1.07624         2927.62113   0.3471   0.1287     0.06247  22.57351     16.99554   4796.75748   -47.21062   0.4026  5135.02668    5e-05  56340.06038  52.09144  27.23875  20.91437  56534.11386 
    12.23659  1.95763  20.83694       3.09932         3174.54225  0.16837  0.04424     0.03877   66.6474     18.34939    6874.8374   -81.83726  1.24613  2981.26422  0.00124  56305.43374  51.69817   15.8486  20.96576  56470.53529 
    12.63473   1.9412   2.92224       1.38857         3216.78117  0.08507   0.0168     0.02789  93.92739     16.57893   5767.36489   -48.60236  0.52006  3664.72889    2e-05  56338.66864  51.89976   8.43021  21.04341  56495.41386 
    15.11767  1.58539    3.9824       0.88451         3364.27864  0.27826   0.0611     0.02939  39.66624     16.21381   6936.91314   -64.57122  0.88674  2706.07794    1e-05  56322.69978  51.57796  24.10486  21.06425  56456.71386 
    13.50991  1.71665   4.31655       4.64128         3426.08448  0.35722  0.12921     0.17818  22.81304     16.76911   4326.89957   -72.50812  0.53505  2918.07492    3e-05  56314.76288  51.60139  28.08766  20.95212  56484.35671 
    13.42521  2.00462  11.74618        0.1941         4045.86305   0.4809  0.13019     0.20374  22.76209     19.55777   9955.55139   -59.59246  0.04376  4221.47043  0.02007  56327.67854  51.92195  37.79678  20.82611  56567.28529 
    12.13668  1.56358   9.67448       0.65767         2305.43082  0.47517  0.20515      0.0242  83.18786     17.09883   7067.95212  -126.30243  0.35846  3090.36792    7e-05  56260.96857  51.74393  46.25171  20.98558  56478.82814 
    14.19982  1.61397  22.48367       2.56416          3429.2976  0.36367   0.1371     0.02038  70.50944     19.99701   6923.73426  -104.07642  0.63506  2835.26054  0.05517  56283.19458  51.65829  34.52949  21.00053  56478.82814 
     12.3075  1.69057  29.76206       0.34168          3493.8452  0.13981  0.03567     0.04142  84.11283     16.16091   4124.26765   -67.22755  1.19499  3578.45594    1e-05  56320.04345  51.87201   13.6315  21.03405  56465.00671 
    14.68195  1.59946  19.49977       3.24024         2588.89343  0.22169  0.05998     0.12501  55.40271     17.93206   6024.39633   -55.43011  0.23768   3656.4104  0.00048  56331.84089  51.86297  20.27594  20.84946  56503.70671 
    13.78111  1.68099   5.72343       3.88322         2221.28023  0.18438  0.07413     0.28739  93.62952     16.16793   3627.20344  -132.07389  0.48964  2474.93734    1e-05  56255.19711   51.5586  18.26206   20.9941  56503.70671 
    12.19573   1.8413  16.05365        0.5498         2164.05259  0.29814  0.09847     0.07548  62.00359     19.63333   3455.88016   -96.16465  0.18924   3115.0691  0.02388  56291.10635  51.73145  27.75268  21.03782  56492.64957 
    12.29246  1.57492  25.06254       0.66266         3083.65428  0.23936  0.06057     0.09698  61.65092     16.02678    4533.8649  -108.51111  1.19633  2412.22108    1e-05  56278.75989  51.50897  22.26162  21.01609  56498.17814 
    14.00998  1.69553   4.58072       2.42048         3332.09821  0.31084  0.13507     0.43439  94.43506     18.96141   7937.67723  -195.40032  0.94733  1544.53689  0.00508  56191.87068  51.14961  30.82709  20.86309  56498.17814 
    13.75104  1.92732   3.98206       0.92974         2841.46284  0.23723  0.16939     0.17642  45.85421     20.23853    9448.4524   -93.46619  0.63243  3712.59477  0.09622  56293.80481  51.86302  21.04787  20.97578  56459.47814 
    12.85938  1.55016  25.50877       0.47613         5658.66283  0.45494  0.07417     0.03444  21.71151     17.28015   8867.95041   -65.77895  1.06296  2650.78709  0.00011  56321.49205  51.51398  35.44512  20.90875    56487.121 
    14.65337  1.74776  23.15794       0.67423         3341.41871  0.49316  0.11343     0.03672  28.14366     19.59848    5816.1014   -97.16822  0.76385  2397.25437  0.02204  56290.10278  51.44709  40.27392  20.91111  56484.35671 
    13.55882  1.75713   4.01631       0.95926         2534.44675  0.32165  0.18742      0.0776  93.71795     16.28324   7477.36173  -132.94728   1.4403  2593.65251    1e-05  56254.32372  51.59936  31.86289  21.00107  56465.00671 
    14.64376  1.10852  27.39163       2.19576         3323.96006  0.33519  0.08628     0.05239    42.461     18.57385     6258.129   -76.73205  0.61485  2455.13404  0.00208  56310.53895  51.49834    29.367  21.05248  56484.35671 
    12.34735  1.38053   18.1575       1.27693          3545.0375  0.49673  0.13977     0.03224  38.02304     16.80972   8109.26406   -88.74315   0.2774  2475.25747    4e-05  56298.52785  51.49744  42.72668  20.87838  56478.82814 
    14.74414   1.2927  29.69898        0.9147         2559.37012  0.38391  0.11814     0.02005  42.10735     16.21237    5895.8909     -95.333  0.37253   2913.0721    1e-05    56291.938  51.64629  33.58894  20.82996  56534.11386 
    12.09625  1.56016  19.06242       4.82944         3206.91826  0.40386  0.11926     0.03193   42.4266     17.22457   9916.07993   -98.83551  0.96645  2436.53407    9e-05  56288.43549  51.49168  35.37869  20.94693  56489.88529 
    13.35279  1.91964  14.45614       0.84909         4695.67329   0.3077  0.07641     0.47651  62.34751     16.06856   6738.36211  -122.82407  0.96518  1722.81474    1e-05  56264.44693  51.21737  28.66804  20.99349  56492.64957 
    14.16897  1.52243   5.42383       4.22559         2477.55439  0.28416  0.07953     0.01139  65.31026     16.93652   7332.50384  -125.86064  0.64587  1533.95032    5e-05  56261.41036  51.11963   26.6653   20.9262  56495.41386 
    13.75572   1.8699  28.32857       0.26516         2985.23922  0.38209  0.11683     0.02683   60.6559      16.1167   4210.62507   -89.37947  0.36151  2646.19901    1e-05  56297.89153  51.58828  35.44637  20.95517    56467.771 
     13.0165  1.94828  26.36258       4.09525         2326.04711  0.27051  0.08256     0.01646  83.92351     19.79535   9976.57207  -117.54001  1.26442  2545.08238  0.03468  56269.73099  51.57588  26.36567  20.91296    56467.771 
    14.27009  1.94392  29.50339       4.77366         2273.74526   0.4863  0.15037     0.03083  45.92171     17.88467    7150.3458  -140.77487  0.46056  1995.25799  0.00043  56246.49613  51.32377  43.15643  21.06494  56492.64957 
     12.8486  1.59146  18.67234       0.53298         5938.47555  0.36643  0.06897     0.16668  99.03658     18.36217   3885.75053  -135.02683  1.07642  1178.81725  0.00128  56252.24417  50.91791   36.5919  20.92511  56500.94243 
    13.10958  1.96397  15.96407        0.0218         5259.07227  0.33802  0.10757     0.24804  51.32015     19.47422   8819.95405  -105.91063  0.97364  2882.54252  0.01656  56281.36037  51.65112  30.54133  20.94695  56470.53529 
    12.76407   1.7187  24.98967       4.18257          2910.0698  0.25683  0.07787     0.01376  48.45221      19.4082   4967.21752   -80.53394  0.06217  3575.20324  0.01422  56306.73706  51.83415  22.99175  20.81724  56556.22814 
     14.9926  1.60375   7.82263        0.1518         5175.75721  0.40776  0.11283     0.02981  70.47178     19.82144   7236.81994  -126.45834  1.44997  1948.27982  0.03683  56260.81266  51.33237  38.71187   20.5137  56600.45671 
       13.71  1.85557   7.49951       0.00702         5650.12568  0.19897  0.06375     0.03977  72.72799     19.03518   7696.42276  -100.16967  0.76725   2837.1989  0.00602  56287.10133  51.66093  18.98043  20.93892  56478.82814 
    14.40207  1.89924  14.49515       3.71354         2874.46923  0.43977  0.13732     0.16469  18.74098     19.69316   5995.95755   -46.72877  0.77012  4965.21866  0.02741  56340.54223  52.04708  33.32751  20.94464  56500.94243 
    12.21683  1.71677  12.61698       0.11048         4083.69334  0.45081  0.12177     0.12403  26.20478     17.92078   5707.78496   -71.52384   0.0924  3470.46027  0.00046  56315.74716  51.76291  36.34985  20.83918  56534.11386 
    13.64969  1.66035  26.61527       3.39859         2111.43764  0.32322  0.07597     0.16498  55.52212     20.76248   5126.07873    -90.9898  0.55358   4004.3245  0.32152   56296.2812  51.94206  29.57119  20.97689    56474.217 
    12.49707  1.83473  28.89405       4.51222         2873.17723  0.22014  0.05619     0.05698  48.15405      17.2439   7241.26771   -63.89442  0.34835  3434.71133   0.0001  56323.37658   51.7989  19.68788  21.05788  56478.82814 
    12.89139  1.58327  27.98201       1.62913         2272.57781  0.41203  0.08342     0.01871  19.93983     17.36676   3501.33367   -35.07183  0.85342  5306.89038  0.00013  56352.19917  52.10999   31.5947  20.99325  56478.82814 
    12.76599  1.64238    8.1867       2.21272         3202.01804  0.33851  0.08119     0.47159  29.13438     17.72036   7205.92077   -85.09943  1.24801  2626.62028  0.00029  56302.17157  51.52911  27.81328  21.10567  56462.24243 
    12.87882  1.68452   2.28661       0.59421          5769.0771  0.47057  0.11894     0.24501  13.47316     20.32348    7294.8712   -54.03049  0.72305  3473.22837  0.11701  56333.24051  51.70842  33.41547  20.97016    56456.201 
     12.0117  1.84947  15.75249       4.73156         2384.45154  0.13961  0.03091     0.01367  65.21641      17.5491   7585.95034   -46.49686  1.36529  4157.01947   0.0002  56340.77414  51.98548  13.09802  20.93642  56478.82814 
    12.91982  1.88377   6.11909       0.03461         2623.28912   0.3087  0.09612     0.35121   72.2375     19.53728   7612.26023  -103.72817  0.36881  2627.56859  0.01914  56283.54283  51.59381   29.4182  21.06147    56450.329 
    12.35479  1.44294  13.69069       0.79582         2282.19022  0.24437  0.07201     0.01351  98.43001     16.90582   8049.32389   -98.81394   0.7018  2444.64501    4e-05  56288.45706  51.55106  24.38103    21.085    56452.312 
    12.18007  2.03934  19.71723       1.49073         3083.92914  0.35083    0.064     0.08427  29.90876     20.40776   9485.63629   -49.10325  0.42768  3848.60022  0.14207  56338.16775  51.86292  28.95886   21.0521  56451.18529 
    14.33822  1.79753  17.57354       0.33656         5830.44226  0.28311  0.06794     0.07337  70.00336     16.56977   4454.93392  -102.98304  0.55888  1901.92161    2e-05  56284.28796  51.31102  26.85127  21.00079  56481.59243 
      13.378  1.75574  13.90901        4.0526         2496.43169  0.11113  0.02278      0.4731  71.00279     16.70781    4263.4123    -31.6641   0.5953  5434.45481    3e-05   56355.6069  52.22388  10.56306  21.01209    56471.196 
    14.27549  1.52561  29.12115       4.49535         2061.48127  0.17044  0.03769     0.44434  55.85582     16.59644   4225.47072   -36.30483  0.40915  4611.47927    2e-05  56350.96617   52.0651  15.60812   20.8246  56558.99243 
    13.92929  1.42221  21.94814        3.3228         3233.37958  0.46743  0.11783     0.01523   54.8689     19.79606   6045.41126  -130.48279   0.7579  1547.59206  0.03474  56256.78821   51.1155  42.68529   20.8966  56534.11386 
    14.09044  2.07463   2.55963       3.06106         2232.84416  0.28049  0.29806     0.01112  62.62969     20.65168   7302.83278  -125.23654  0.26834  3062.66024  0.24912  56262.03446  51.71739   26.1505    21.022  56476.06386 
    12.39577  1.73575  28.52511       3.87495         2592.57356  0.18353   0.0278     0.01436  74.94892     20.83642   4608.87139    -58.1238  1.14338  4556.66036   0.3812   56329.1472  52.07442  17.58776  20.99478  56459.47814 
    13.29296  1.93782   6.69539       4.38997         2375.41327  0.23682  0.06693     0.01386  88.65959     20.20726    7208.1093  -127.56946  0.81716  2352.59111  0.08953  56259.70154  51.51109  23.26974  20.93065  56536.87814 
    13.91782  1.45766  18.82574       2.27133         2705.11828  0.25561  0.06866      0.4833  40.98625     17.54559   8817.04319   -82.13375  0.94972  3068.82103   0.0002  56305.13725  51.68959  22.26358  20.99829  56509.23529 
    12.50875   1.8832   11.3567       0.21986         5457.99382  0.39996  0.13726     0.20884  97.12252     17.10799   9628.69799   -99.19055  1.08553  2842.53876    7e-05  56288.08045   51.6812  39.82679  20.95416  56500.94243 
    12.08616   1.8481   6.02582       0.06925          4353.2697  0.47139  0.16655     0.06048  79.67124     16.48531   4730.41411  -181.01462  0.66843  1822.03311    2e-05  56206.25638  51.28223  45.58955  21.00229    56462.282 
    14.16104  1.92986  28.27123       2.26848         2647.33601  0.33306  0.12243      0.0214  94.01121     17.13298   6749.07373  -161.48137  0.94521  1972.92959    8e-05  56225.78963  51.36195  33.00881  20.96815    56490.221 
    14.51027  1.54483  17.65568       2.58831         2821.16549  0.23575  0.06156     0.30573  42.96061     16.14575   8920.21781   -34.88594  1.27057  4597.37648    1e-05  56352.38506  52.04405  20.69445  20.98394    56469.272 
    13.06184  1.69143   4.22569       2.99498         2735.45529  0.45502  0.11007     0.17611  29.06022     16.72959   7258.33113   -84.89027  0.32191  2641.45127    3e-05  56302.38073   51.5338  37.37004  20.99112    56474.217 
    12.06067  2.00166  10.12838       3.40257         2043.19341  0.39505  0.11447     0.33135  30.88865     17.89455    4927.7382   -66.74964    0.214  3748.02996  0.00044  56320.52136  51.84237  32.79335  20.73565  56528.58529 
    14.94119  1.70788   6.90466       0.25737         3133.37606  0.24922  0.08815     0.05008  69.01958     17.84114   3996.47694   -80.78553  1.53855  3502.57789  0.00039  56306.48547  51.84047  23.58538  21.03424  56495.41386 
    14.04963  1.93397  15.46129       1.11444         2937.49939  0.25752  0.09139     0.04939  67.29364     19.23924   5755.26954   -82.50812  0.92888  3622.39962  0.00964  56304.76288    51.868  24.27693  20.90168  56558.99243 
    14.23794  1.57815  24.26561       4.92744          2969.5727  0.36516  0.08739     0.28044   27.7038     16.69015   6683.02641    -58.7688  1.47434  3300.49739    3e-05   56328.5022  51.72361    29.737  21.04696    56467.771 
    13.06509  1.76326    9.7276       0.08783         4673.15331  0.22241  0.06844     0.20682  81.32594     20.31449    7057.5456   -92.48962  0.89652  3453.50937  0.11461  56294.78138  51.83897  21.57617  20.94275  56473.29957 
     14.5775  2.17449  12.47807       0.79887          3012.3001   0.2688   0.0674     0.10519  25.94484     18.26084   5335.19885   -43.77394  0.56748  4259.87219  0.00101  56343.49706  51.94015   21.6351  20.90372  56498.17814 
    14.67049  2.11806  17.32965        4.1842         2426.66961  0.43929  0.16074     0.01482  50.34254     16.56977   6982.65656  -100.92998  0.99104  2730.03526    2e-05  56286.34102  51.60257  39.56915  20.95842  56500.94243 
    13.48197   1.9023  16.79328       1.16152         2624.68709  0.47806  0.15807     0.04297  44.00637      20.0651   8460.22598  -105.60105  1.17759  3036.49587  0.06454  56281.66995  51.68549  42.13088  20.92874  56489.88529 
    12.78991  1.64333   2.77201       3.72459         3036.17327  0.36153  0.12501     0.29057  45.05501     17.99773   7124.47691   -74.82333  1.33535  2900.26213  0.00055  56312.44767   51.6473   31.9844  20.91095  56495.41386 
    14.71018  1.67234  14.72575        2.0426          2101.3841  0.21501  0.07063     0.10889  83.72364     16.94236   6695.28498  -116.15482  1.09587   2623.4055    5e-05  56271.11618  51.60205  20.94881  21.06224    56467.771 
    14.41205  1.67413   4.45601       2.05921         2245.12051   0.4953  0.19449     0.06317  15.32581     16.62958    5255.0541   -34.15855  1.38018  4547.89342    2e-05  56353.11245  51.95382  36.09492  20.91344  56465.00671 
    12.67106  1.65615  14.47955       0.05359         4387.86914  0.18652  0.05272     0.01774  59.56247     16.64742   3905.57943   -42.91423  0.86188  5083.03114    2e-05  56344.35677  52.15405  17.25452  20.98909  56459.47814 
    13.00754  1.53786   15.0091       4.29622         3422.96247   0.3234   0.0714     0.11084  26.08489     17.93152   3588.58841   -54.25301  0.35821  3233.89343  0.00047  56333.01799  51.70123  26.05493   20.9679    56467.771 
    14.10109  1.97701   8.98473       4.17749         2243.58475  0.33629   0.1116     0.06031   26.3397     19.90777   7728.31902   -59.69244  1.53689  3851.97381  0.04493  56327.57856   51.8539   27.1408   20.8719  56511.99957 
    12.63166  1.66097  20.71631       4.19987         2653.88636  0.34855  0.10611     0.01189  34.39172     17.46198   9880.45321   -63.54569  1.06617  4436.37018  0.00016  56323.72531  51.99687  29.47513   20.9075  56476.06386 
    13.17887  1.27908   9.84016       0.95149          2023.2517  0.30146   0.0983     0.02766  61.79951     16.89112   8115.34425   -115.8194   0.7625  2722.76381    4e-05   56271.4516  51.61432  28.04808  20.96912  56465.00671 
    12.54093  1.77183   17.5661       3.45417         2225.54453  0.26351  0.08102     0.22367  75.98466     16.70067   8049.09685   -91.35209   1.0213  2771.62756    3e-05  56295.91891   51.6435  25.30477  20.93029  56514.76386 
    13.94012  1.52535  28.17607       0.21464         5229.24088  0.41038  0.08862     0.05013  20.83048     17.02864   5236.79181   -33.03796  0.62415  5479.98922    6e-05  56354.23304  52.14144  31.72754  20.80585  56523.05671 
    12.42579  1.70583   3.93091       0.07586         3275.72494  0.28762  0.08893     0.03964  62.22918     17.70542   3699.12886   -85.52575  1.05274  2863.75067  0.00028  56301.74525  51.65863  26.78874  21.01203  56476.06386 
    13.62047  1.39476  11.83351       0.40251         2283.19633  0.41333  0.12066     0.36457   33.7941     16.26672   5118.06888   -77.98781  1.45289  3079.91864    1e-05  56309.28319  51.67859  34.84815  20.88362  56495.41386 
    13.51842  1.30341    24.595        2.8916          2412.9375  0.44931  0.14703     0.11566  65.19042     18.16218   8341.44381  -126.48178  1.55018  2026.79486  0.00081  56260.78922  51.36151  42.15039   21.0188    56467.771 
    12.25311  1.50778  24.17669       2.51025         3097.38634  0.48296  0.16113     0.05026   71.4292     17.92846   7165.69301  -135.22575  0.30464  2040.35328  0.00047  56252.04525  51.37337  45.94594  20.91292  56495.41386 
    13.01634  1.48262  20.16078       2.20574         3116.45776  0.30895     0.09     0.02493    51.176     18.85386   7292.77926   -93.29667  0.81108  2729.54528  0.00397  56293.97433  51.60355  27.90175  20.95093  56500.94243 
    12.88099  1.81339  17.65058       0.58549         2805.29819   0.4644  0.15139     0.01162  38.13317      19.2795   5380.88756   -103.0357  0.04596  2845.27921  0.01057   56284.2353  51.61867  39.96505  20.93038  56514.76386 
    15.15351  1.86593   5.49476       0.57532         3120.75499  0.48732  0.14023     0.14176  30.48857     17.62248   3083.13393   -73.36608  1.26651  3159.39863  0.00023  56313.90492  51.69298  40.36082  20.83441    56525.821 
    13.25425   1.8668  21.61381       0.12974         4350.49036   0.3939  0.09042     0.13621  29.03489     20.26841   3281.16097   -48.02125  0.48857  4887.09417  0.10307  56339.24975  52.06815  32.34523  20.90009  56498.17814 
    15.02984  1.70281   29.7369       3.39442         2856.76146  0.44259  0.08845     0.21724  20.82121     17.65236   7900.13322   -41.80033  1.20778  3955.21213  0.00025  56345.47067  51.85818  34.21471  20.99532  56498.17814 
    13.30129  1.65298  16.41341       2.35048         2319.70743  0.41057  0.14312     0.04621  61.87892     17.41715   3591.76975  -167.22711  0.30347  1901.39434  0.00015  56220.04389  51.30253  38.20732  20.79239    56564.521 
    14.34673  1.52336  25.74064        4.1931         3561.26576  0.34787  0.08332     0.32318  52.88365     20.43386   4270.18286   -95.56118  1.28711   2118.0146  0.15086  56291.70982  51.38551  31.58236  20.99737    56487.121 
    13.75056  1.62997  24.19088       4.47564         2466.13585  0.37874  0.09084     0.25462  26.68228     17.40868   7536.00234   -45.99797  0.72233  4367.83332  0.00014  56341.27303  51.96407   30.6375  21.01282    56467.771 
    14.19984  1.43791   1.73997       0.71344         3599.12301  0.47173  0.20888     0.01744  93.17738     18.11131   6064.70654  -123.95043  0.91856  2303.19835  0.00072  56263.32057  51.49583  46.69103  20.87209  56528.58529 
    13.22067  1.70651  24.44728       2.74241         3906.14857  0.46054  0.07799     0.02553  92.28979     20.22328   4193.70457   -90.16791  1.31477  1208.42735   0.0929  56297.10309    50.935  45.51968  20.95606  56489.88529 
     14.1364  1.44948  27.96122       4.80511         2422.65742   0.2887  0.08013     0.04294  39.66367     18.78096   5985.92541   -48.53927  0.38518   4554.2691  0.00335  56338.73173  52.03012  25.00943  21.05932  56462.24243 
    12.49877  1.43733   21.7841       0.28198         3013.89981  0.24576  0.07111     0.04138  92.22183     17.59097   7276.21618  -135.83026  1.22457  2026.11031  0.00022  56251.44074  51.38384  24.28775  21.01122  56476.06386 
    12.03125  1.64398   1.85344       1.55736         3479.28156  0.34044  0.09684        0.23  82.16933     18.83081   3530.06938  -123.83261  0.56894  1788.02884  0.00376  56263.43839  51.26786  33.07668  21.04365  56465.00671 
    14.15942  1.77042    20.776       4.15027           2896.102  0.45871  0.12469     0.25623  25.69639     17.21861   5495.05808   -75.89552  0.94848  3159.13924    9e-05  56311.37548  51.67974  36.85643   20.9999    56471.196 
    14.46559  1.61012   5.88452       0.03719         4973.06853  0.35907  0.12699     0.17801   32.4015     18.88615   5962.41675   -48.19242  0.95698  4726.60747  0.00427  56339.07858  52.04746  30.05445  20.97017  56489.88529 
    13.60282  1.75045  25.47451       4.79467         2974.72126  0.33224  0.11556     0.03435  47.46796     17.65899   6430.06923  -110.95788  0.45701  2726.24093  0.00025  56276.31312  51.59724   29.6439  21.00157    56462.282 
    14.67604  1.72037  10.42048       3.39638         2324.18578  0.46399  0.17578     0.24389  36.66769      17.8581   4041.82966   -113.0342   0.7002   2797.8179   0.0004   56274.2368  51.60118  39.66676  20.86005  56511.99957 
    13.57773   1.8779    5.7852       3.93891         2953.16605  0.43691  0.16937     0.03575  21.18137     16.45322   8047.54447   -79.86972    1.466  3163.49629    2e-05  56307.40128  51.66557  33.88389  20.89603  56547.93529 
    12.64592  1.69998  18.33528       0.50981         2664.40586  0.44278  0.10444     0.08288  23.15208      16.7212   3583.46652   -50.44317  0.78609  4188.56673    3e-05  56336.82783  51.91651  34.90928  21.01938  56462.24243 
    15.05954  1.84666  20.29845        3.9638          2040.3226  0.42098  0.12548     0.12574  53.95112     16.85336   7788.48182  -155.48955  1.30157  1740.57502    4e-05  56231.78145  51.21641  38.34075  20.99304  56484.35671 
    14.30538  1.81474  15.38481       0.00991         4410.60287  0.24609  0.04115     0.09987  41.57795     19.03883   5727.08742  -100.68385  1.31376  2091.77508  0.00608  56286.58715  51.35771  21.48559  20.92364  56489.88529 
    14.37402  1.85261   6.87277       0.31203         5881.06194  0.40013  0.12236     0.01533  26.35978     19.24771   5102.88046   -65.88383  0.79118  2876.92071  0.00983  56321.38717  51.60045  32.29728  21.00772    56469.272 
     14.5219  1.61835   13.9731       0.35576         5590.06251  0.44869  0.11698     0.38861  89.55381     16.85159   8933.53792   -141.3055  0.44994  1423.07122    4e-05   56245.9655  51.07509  44.15324  20.83618  56528.58529 
    14.87492  1.57104   5.21243       0.03532          4247.3843  0.48183  0.20949     0.02581  38.81285     19.00589   6577.57349   -94.41453  1.31458  4434.03044  0.00563  56292.85647   52.0053  41.58804  20.92988  56517.52814 
    13.34404  1.91314   6.62491       0.74031         2426.00506  0.29611  0.08302     0.03032  46.72795     19.46598   7840.15369   -92.79949  0.51465  2939.73716  0.01624  56294.47151  51.66162  26.35302  20.96296    56474.217 
    12.71356  1.71866    6.9518       2.86617         2452.43294  0.21893  0.06421     0.02103   45.4644     17.06263   6078.01335   -51.34024  1.44759  4904.39937    6e-05  56335.93076  52.10423  19.39745  20.92416  56489.88529 
    14.60622   1.5206  18.11465        4.8626         3011.08663  0.49238   0.1843     0.08032  35.48097     17.44884   5555.78032   -57.93881  1.27665  4448.65584  0.00016  56329.33219  52.00158  41.85973  20.99449  56495.41386 
    13.36978  1.56499  23.74156       0.00206         3434.62596  0.43133  0.15386       0.062  53.13125     16.19954   9687.92946  -124.25784  1.08189  2479.25199    1e-05  56263.01316  51.52261  39.18795  20.96394  56495.41386 
    14.77363  1.62642  29.21283       0.22353         5720.42596  0.25123  0.07799     0.06017  86.83971     16.86126   7315.43069  -146.55961  0.37942  1958.01644    4e-05  56240.71139  51.35031  24.61031  20.98597  56476.06386 
    13.47054    1.953   4.12516       0.09964         2706.46432  0.30476  0.16386     0.36928  31.83577     18.05151   4203.44064  -151.02071  1.03367  1989.75257  0.00063  56236.25029  51.29464  25.43156  21.03813  56498.17814 
    13.47725  1.80442  12.39511       3.58438         2810.06129  0.28684  0.07906     0.01892  66.39781     20.12617   7343.43556   -86.65504  0.11533  3032.62071  0.07428  56300.61596  51.71275  26.98517   20.9072  56509.23529 
    15.12913  1.59971  29.75252       4.87901         3161.28101  0.40566  0.09719     0.02099   21.7692      16.3786   3297.61635   -50.86277  1.47822  4068.99057    1e-05  56336.40823  51.88642  31.62114  21.01502  56465.00671 
    14.58043  1.74084   10.7262        3.9773         2780.41802  0.20478  0.05845     0.07768   69.0448     18.35643   4157.72759   -80.26024  1.49378  2913.74054  0.00126  56307.01076  51.68062  19.38099  20.96486  56478.82814 
    13.85436   1.7248  27.43649       0.37485         3031.71305  0.20374  0.04976     0.01529  63.89667     18.11685   4095.17431   -92.26057  0.46975  2630.68702  0.00073  56295.01043  51.58668  19.05423  20.93924  56500.94243 
    13.98285  1.55969   14.2675       0.63501         4095.69567  0.30753  0.07035      0.4384  44.58651     18.78983   3997.60713  -134.89181  1.50143  1639.48349  0.00342  56252.37919  51.15109  27.16037  21.07066    56471.196 
