 texplosion  fnickel     Pspin  log(Bfield)      Mns  thetaPB   mejecta    kappa  kappagamma     vejecta  temperature    alpha  cutoff_wavelength  log(nhhost)      A_V         MJD0  kenergy   mnickel                TSD   log(L0)  Peak_mag     Peak_MJD  log(E_rad)  log(Peak_lum)  Rise_Time     E_fold  tau_1  delta_m15     r_peak     frac 
 -197.61752  0.31615  15.85229     13.00989  2.11899  0.33524  79.60879  0.09508     0.09754  1424.33601   5153.89705  0.71842         4174.57368      17.3668  0.00013  56189.65348  0.96341  25.16814   4724363512.37311  40.52045  21.05351   56507.9417     51.1672       43.71693  215.35126  220.35943  186.0     0.0076  -20.14265   0.0001 
 -119.73346   0.4978   3.05583     13.10809  2.02772  1.00448  19.67518  0.30018     0.41051  2586.88188   4192.56489  1.17026         4276.46559      18.8332  0.00378  56267.53754  0.78541   9.79428    106878842.63433   43.5767  20.85482  56519.65247    51.26973       43.81942  190.31041  217.02065  258.0    0.00926  -20.77588  0.53279 
  -92.38061  0.49678   4.12086     13.32525  1.60912  1.32606  21.25303  0.24547     0.03494  3193.50653    9421.4689   0.8798         3817.46823     19.77922  0.03342  56294.89039  1.29296  10.55798     56739836.82241  43.49157  21.06473    56450.329    51.10573       43.74049  171.94713  178.62469  192.0    0.01029  -20.63308  0.39261 
 -101.37351  0.40285   1.82593       12.813  1.31783  0.59502   30.0432  0.21289     0.04274  3543.14513   6303.07828  2.57522         2340.35853     20.16902  0.08199  56285.89749  2.24984  12.10303     96524257.34651   43.8811  20.97128  56500.91524    51.10029       43.78867  140.22873  158.59201  326.0     0.0128  -20.94293  0.49741 
  -62.03855  0.49691    2.5113     12.80258  2.04329   0.8465  12.93814   0.1754     0.46288  5186.82778   4062.00168   1.5339           2157.549     19.42034  0.01462  56325.23245  2.07636   6.42904    297011761.40999  43.30661  20.87128  56540.73185     51.3798       43.82571  235.38393  315.51463  152.0    0.03349  -20.67767   0.5161 
  -92.98607  0.40228   2.01097     12.34255  1.44702  0.23291  32.95478   0.1531     0.03386  4245.75262   6858.02175    0.264         2319.24411     18.47787  0.00167  56294.28493  3.54368  13.25719   1122045129.41966   42.7725  20.69409  56554.78477    51.54194       43.93151  212.01248  504.15566  128.0    0.02376  -20.69303  0.01706 
 -141.11888  0.39128    1.9289     13.10211  1.01784  0.06483  53.88289  0.18461     0.44184  2647.71776   8128.29245   2.2318          3324.7043      19.6987  0.02776  56246.15212  2.25331   21.0835     21973445.82994  44.36401  20.96637  56484.52017    51.11981       43.76073  166.93896   176.9553  192.0    0.00827  -20.47635  0.03172 
 -131.31278   0.3944    2.9179     13.15237   1.3751  0.35811  39.76053  0.09483     0.09411  1987.05164   8159.76631  1.70683         3848.76293     20.56079  0.20208  56255.95822  0.93648  15.68162     53894149.13343   43.7455   20.8969  56486.86232    51.01953       43.77378  108.51032  136.88995  184.0    0.01106  -20.62333  0.19534 
 -101.12659  0.48903    3.7399     13.64876  1.88612  0.04204  26.47314  0.19864     0.45567  3325.76825   7180.23916  2.96899         3209.60217     18.06125  0.00064  56286.14441  1.74669  12.94624     12347508.10827  44.30712  20.67193  56641.44446    51.56619       43.90441  268.77172  462.42092  142.0    0.01886  -20.56652  0.01957 
 -155.00606   0.4823  12.71436     12.49635  1.63964  1.28122  48.13319  0.20436     0.33933  2231.91147   3674.98908  2.68876         3327.53724     19.67963  0.02657  56232.26494   1.4303  23.21481  25029715450.23181  39.87655  20.95429  56489.20447    51.03971       43.72497  123.53483  158.59201  166.0    0.01113  -20.46067  0.00022 
 -167.24241  0.48197   9.15498     12.73357  1.47249  1.31179  55.08659  0.20125     0.30038  2159.49642    9217.9157  1.02738          2833.2483     18.18123  0.00084  56220.02859  1.53242   26.5501   3908874406.40998  40.92153  20.91499    56490.219    51.05308       43.77538  130.21239  146.90628  204.0    0.00631  -20.20884  0.00208 
 -136.17377   0.4976   2.08036     14.93372  2.15763  0.28159  35.75233  0.23714      0.4577  2062.49281   4734.70337  0.86072         5668.63724     16.81507    4e-05  56251.09723  0.90723  17.79033        11766.27939  47.89591   20.8261  56510.28385    51.29434       43.85373  151.91445   223.6982  166.0    0.00997  -20.49105  0.77972 
 -160.65796  0.48891   3.21703     13.60626  1.23422  0.82258  33.79884  0.26551     0.49356  1828.12546   8151.78009  0.62182         4981.24443      16.5071    2e-05  56226.61304  0.67382   16.5245      7271216.95541  44.48372   21.0323  56468.12509     51.1103        43.7624  108.51032  180.29408  212.0    0.00909  -20.47515  0.37956 
  -95.25685  0.38435   2.58413     14.67607  1.61249  0.80283  35.50853  0.19658         0.5  4229.66843   8425.01734  0.21064         5020.88801     16.37126    1e-05  56292.01415  3.78942  13.64764        44442.02185  47.00392  21.03688  56500.91524    51.17716       43.75359   160.2614  212.01248  152.0     0.0106  -20.59799  0.67868 
  -85.24193  0.48344   8.50485     12.32185   1.3905  1.40615  27.59422  0.14148     0.01184  3470.89814   6694.19025  2.31357         2607.00546     19.34529   0.0123  56302.02907  1.98303  13.34028  21213912835.33422  40.22606  20.86688  56500.91524    51.16129       43.77293  136.88995  185.30224  120.0     0.0183  -20.64755  0.00089 
  -103.9035  0.28441    1.8622      12.5822  1.66461    0.601  57.10989  0.16784     0.49906  4269.26279   3216.48508  3.07654         2702.27637      18.7996   0.0035   56283.3675  6.20932  16.24262    367089234.89924  43.38534  21.01163  56458.75648    50.86265       43.65394   95.15521    128.543  156.0    0.01392  -20.83319  0.24008 
  -84.96819  0.44912   5.42144     13.90327  1.64549   0.5307  17.69361  0.22075     0.04664  3110.89805   5862.31959  1.26739         4659.62391     18.74286  0.00307  56302.30281  1.02145   7.94648      7011276.84479  44.17112  21.01574  56493.88878    51.04893       43.71844  138.55934  166.93896  156.0     0.0189  -20.70356  0.38268 
 -130.14937  0.36492   6.58069     13.78635  1.73305  1.51114  43.67025  0.13445     0.02903  2212.35858   9407.56958  0.54197         5998.36921     17.87927  0.00042  56257.12163  1.27504  15.93634     18641016.93752  43.60064  20.81427    56490.219    51.02155        43.7749  125.20422  131.88178  178.0     0.0093  -20.57189  0.19315 
 -112.42686  0.41481   4.50821      14.2894  1.82145  0.72859  29.97909  0.27351      0.3296  3414.36391   7203.37205   1.5363         3042.03701     18.25426    0.001  56274.84414   2.0848  12.43576       906661.91406  45.26381   20.9148  56531.36324    51.34856       43.80449  222.02881  300.49013  152.0    0.01633  -20.60608  0.44355 
  -87.86683  0.31632  14.58033     14.18199  2.01151  0.33763  36.08047   0.0433     0.23173  1830.71328   7628.49555  0.95713          5593.1694     17.40477  0.00014  56299.40417  0.72134  11.41294     17174421.86098  43.00995  20.89996  56491.54663    51.13492       43.80651  141.89811  163.60018  140.0    0.01978  -20.51799   0.0399 
  -57.98185  0.45268   4.00205     14.54117  1.90844  1.42403   20.1607  0.20499     0.44867  4646.31916   5969.46877  0.55894         2936.31478     17.22865    9e-05  56329.28915  2.59628   9.12634       234814.90808  45.97423  20.97719  56496.23093    51.06134       43.71052  163.60018  171.94713  122.0    0.02464   -20.6212  0.60366 
  -76.48747  0.48612   4.78444     13.76289  1.35844  1.56204  21.86745  0.22848     0.05256  3214.68215    9195.9437  0.65921         5077.63762      17.7092  0.00028  56310.78353  1.34804  10.63018      8604935.86525  44.10748   21.0446  56493.88878    51.19666       43.80379  185.82167  191.46038  152.0    0.01287  -20.68828   0.3381 
 -128.42876  0.49408  20.85426     13.98229  1.96999  1.34153  34.17863  0.10788     0.40319  1806.30667    6314.7111  0.85148         4996.35125      19.4975  0.01747  56258.84224  0.66522  16.88698     86314283.80657  41.98884  20.93062    56480.213     51.0398       43.76642  120.19605   143.5675  154.0    0.01433  -20.51662  0.01731 
  -99.36255  0.48426   6.01776     12.21772  1.59105  0.04904  27.89939  0.18218     0.49628  3066.31968   4442.50817  0.93438          3976.9818     17.31961  0.00012  56287.90845  1.56479  13.51055  19630632880.01045  40.61872  20.93237  56498.57309    51.03849       43.71967  141.89811  158.59201  128.0    0.01507  -20.55731    1e-05 
  -57.67237  0.45932   4.95633     13.82985   1.7131  0.61809  19.91844  0.23968     0.08794  3747.36936   5038.40895  3.82263         3313.23662     18.89068  0.00432  56329.59863  1.66854   9.14901      8555056.91199  44.18008  20.83085   56507.9417    51.40436       43.85757   143.5675  549.22917  148.0    0.01703  -20.87293  0.40845 
  -95.18407  0.48587   1.97858     12.68827  2.09515  1.03524  35.59549  0.26667     0.44734  3270.09737   5517.57633  1.75588         3710.20507     16.94868    5e-05  56292.08693  2.27062  17.29489     320029291.9859  43.49216  20.96605   56507.9417    51.15735       43.79148  173.61652  178.62469  520.0    0.00962    -21.067  0.43591 
 -112.16885  0.47753   2.84812      13.0375  1.71871   0.7359  43.21458  0.22834     0.19632  2959.25323   7695.99151   3.8367         2190.03118     16.66812    3e-05  56275.10215  2.25747  20.63634    108929120.38107  43.55779  21.00846    56471.196    51.00443        43.7218   126.2075  147.57239  262.0    0.00367  -20.86024  0.27629 
   -55.6815  0.46771   4.50292     12.24779  2.15478  1.44901   17.8314    0.119     0.14451  5003.50718   5760.37154  0.17846         3024.96521     17.70006  0.00028   56331.5895  2.66294   8.33984  12960739781.84648  41.18263  21.07801  56486.86232    51.12518       43.76123  170.27774   176.9553  116.0    0.04426  -20.54549  0.01292 
 -110.53928  0.44254  12.73461     12.95535  1.03014  0.76116  40.18166  0.06112     0.34099  1249.82104   6470.54363  1.52195         4970.88133     16.97589    5e-05  56276.73172  0.37441  17.78184   1905365881.23185  40.79179  21.05855  56493.88878    51.06366       43.71631  163.60018  171.94713  160.0    0.01379  -20.57088  0.00117 
  -90.51158  0.42853   5.40792     13.86766  1.80869  1.51626  23.90908  0.25014     0.26753   2944.6656   8881.26834  2.22878         3586.11751      17.5907  0.00022  56296.75942  1.23669  10.24565      9034868.10601  44.10423  20.88648  56510.28385    51.10024       43.74337  161.93079  173.61652  166.0    0.01177  -20.63206   0.3863 
  -98.98989  0.48346  16.84756     13.93567  1.37162  0.41892  24.26039  0.18376      0.3847  3178.48217   8093.70624  2.47355          3206.7037     16.72106    3e-05  56288.28111  1.46206  11.72896     48617101.96114  42.26622  21.03179    56474.217    50.99804       43.70771  134.55445  150.91117  140.0    0.01744  -20.48211  0.01279 
 -168.39515  0.49507  11.14628     12.71774  2.15894  0.55821  45.50999   0.1803     0.33647   1900.3696   8006.87385  1.22376         3222.81236      16.2062    1e-05  56218.87585  0.98042  22.53057   9137702292.71586  40.54799  20.83161  56517.31032    51.20455        43.8025  148.57567  190.31041  188.0    0.00609   -20.2955  0.00032 
 -123.78663  0.39786   8.19574     12.79593   2.1234  1.03499  49.45099  0.11739     0.45191  2145.15907    3776.8809  0.97406         5908.63409      19.0785  0.00666  56263.48437  1.35744  19.67446   3389727751.82861  41.23854   21.1063  56465.78294     50.9967        43.6752  150.76449  161.41136  152.0    0.01395  -20.73252  0.00464 
 -124.90494  0.46345  15.98584     13.90688  1.59402  1.56871  37.08165  0.15217     0.35383  2371.27402   5453.79177  0.59913         4760.78648        18.04  0.00061  56262.36606   1.2438  17.18559     58079276.30809  42.29985  21.04834  56486.86232    51.13568       43.70252  201.99614  210.34309  154.0    0.01159  -20.55808  0.02569 
 -117.71783  0.48149  11.00569     12.31949  1.73542  0.14634  32.13819  0.14123     0.45825  2328.88099   5420.26662  1.25148         5226.64747       17.857   0.0004  56269.55317  1.03978  15.47426  44819218294.40097  39.77355  21.02388  56479.83586    51.04986       43.72155   143.5675  163.60018  142.0    0.01325  -20.65535    1e-05 
  -62.14816  0.24826    2.8207     14.38757  1.97553  1.11783   39.9635   0.1525     0.39791  3909.40474   8785.98325    0.377         2558.02849     19.11353  0.00722  56325.12284  3.64344   9.92118        244948.0525  46.27474  20.97047  56484.52017    51.00857       43.72277  126.87361  151.91445  150.0    0.01374  -20.54484   0.7469 
  -83.90683  0.34273   1.73939     12.29249  1.99027   0.3041  31.81495  0.06666      0.4238  2613.77903   3742.87345  0.75962         4993.56247     18.38888  0.00136  56303.36417  1.29657  10.90393   1453920183.32326  42.92442  20.98777  56486.86232    51.07454       43.75994  148.57567  158.59201  130.0    0.02018  -20.54722  0.04793 
  -84.74077  0.42613   2.70464     12.15108  1.95069  0.36966  32.30174  0.11152     0.47975  1983.09101   7776.55723  3.32163         3937.47297     17.13477    8e-05  56302.53023  0.75777  13.76477   6607948325.33911  41.87475  20.91886  56512.62601    51.17793       43.76077  185.30224  203.66553  148.0    0.01385  -20.55176  0.00518 
  -83.65788  0.49574   7.66539     13.87957  1.67654    0.439  19.76051  0.19012     0.43884  2905.20132   9066.34006  3.62509         3579.76937     16.46504    2e-05  56303.61312   0.9949    9.7961      15927571.4378  43.52204  20.90308  56503.25739    51.12972       43.80824  151.91445  155.25323  158.0    0.01439  -20.47578  0.15616 
  -79.77979  0.49205   2.60639     14.58417  1.92867  0.70149   24.0848  0.28522     0.27514  3511.04088   5190.86853  0.63805         4535.92227     17.10558    7e-05  56307.49121   1.7711  11.85083        82568.49151  46.80521  20.95397  56500.91524    51.00323       43.71001  136.88995  151.91445  142.0    0.01385  -20.65882  0.73886 
 -131.59321  0.39984  11.19366     13.32977  1.59083  0.62445  36.65246  0.09609      0.3943  1725.81176   7490.62647  1.22173         4480.18563     17.72032  0.00029  56255.67779   0.6512  14.65519    405355404.42633  41.76469  20.96456  56486.86232     51.0473       43.75902  125.20422  153.58384  150.0    0.01343  -20.36602  0.00889 
  -83.27463  0.48288  13.03071     12.85396  1.69507  0.38077  25.60141  0.13785     0.08443  3343.96591     8672.502  2.14602         2442.85377       18.324  0.00117  56303.99637  1.70771  12.36232   5236259049.26733  40.54907  20.90004  56503.25739    51.28714       43.82313  171.94713  232.04515  130.0    0.01831  -20.53846  0.00029 
  -60.19632  0.49711   4.34628     13.23471  1.70278  1.45424  14.56724  0.20911     0.04552   3994.9468   7915.07818  1.55527         4389.49691     19.25036  0.00989  56327.07468  1.38684   7.24158    101343333.61569  43.21797  20.89934   56477.4937    51.01303       43.78036  100.43219  134.95175  170.0     0.0243  -20.76287  0.42653 
  -47.35247  0.33405   9.48111     13.93689  1.80033  0.95004  18.38578    0.052     0.26172  2855.20363   7575.38186  1.23755         5327.62916     17.64314  0.00024  56339.91853  0.89409   6.14183     20095527.96551  43.26738  21.01591   56472.8094    51.05917       43.75744  133.55117  151.91445  134.0    0.04043  -20.55063  0.22591 
  -58.84899  0.46483   8.75893     14.44407  1.48952  1.33471  17.66318  0.10392     0.05006  2899.85368   7512.63843   1.4159         5023.42698     19.04233  0.00612  56328.42201  0.88603    8.2104       1372848.7671  44.41937  21.07243  56468.12509    51.00237       43.72316  113.51849  148.57567  122.0    0.03162   -20.5849  0.19225 
 -120.70717  0.42364   4.53152     13.39709  1.86718  0.97681  32.02872   0.2592     0.41412  3443.10397   6831.17029  4.80268         2410.45049     17.95151   0.0005  56266.56383  2.26499  13.56856      57188096.2328  43.47024  20.92627  56498.57309    51.17197       43.76087  136.88995  201.99614  206.0    0.01406  -20.72517  0.31031 
  -77.82139   0.4965   3.41731     13.66737  1.30361  0.17867    15.387   0.1789     0.02081  3174.54856   4584.07205  3.49141         3154.66287     16.42553    1e-05  56309.44961  0.92501   7.63969      6540171.73618  44.50104  20.96062  56503.25739      51.121       43.75322  175.28591  180.29408  146.0    0.01847  -20.52548  0.36241 
 -137.62601  0.49289   5.45568     13.05612  1.92506  0.08947  40.12059  0.21623     0.38949  2521.14249    6281.6335  2.76951         3266.34826     18.73249    0.003  56249.64499  1.52121  19.77512    410889244.55922  42.46587  20.96767  56475.15155    51.02033       43.74747  120.19605  145.23689  172.0    0.01244    -20.499  0.00086 
  -144.7455  0.40483   2.91078     12.90395  1.63738  1.48117  52.20656  0.20619     0.40272  2106.43575   4333.00127  2.54573         3625.81983     17.98455  0.00054   56242.5255  1.38181  21.13473    200481519.05858   43.2529  20.93895  56510.28385    51.12659       43.73713  171.94713   191.9798  250.0     0.0068  -20.69749  0.27415 
  -99.28672  0.44745    5.4011      14.3575  1.16627  0.52708   21.0127   0.1926     0.31996  3252.77862   3951.44452  3.63939         3395.28561     16.63368    2e-05  56287.98428  1.32623   9.40218       608960.15806  45.08609  21.03673  56482.17801    51.05693       43.71266   160.2614  170.27774  122.0    0.02161  -20.52911  0.27363 
 -109.57092  0.27198   2.51198     12.85228  1.35817  1.07509  46.22784  0.17627     0.47921  3434.46299   9422.57887   3.5731         3408.26294     19.00863  0.00567  56277.70008  3.25273   12.5732     157125767.2979  43.40552   20.8887  56529.02108    51.22789       43.78829  188.64102  217.02065  288.0    0.00663  -20.66682  0.40453 
  -99.03464   0.4793   6.03987     13.76781  1.69053  0.71416  27.06511  0.22696     0.47293  2932.62626   6610.58079  2.01204         3756.89129     17.27833  0.00011  56288.23636  1.38851  12.97221     16682963.72959  43.71254   20.9627  56486.86232    51.25608       43.77956  135.22056   288.8044  170.0    0.01501  -20.71504  0.22816 
  -88.74403  0.48312   2.60162     14.37645  1.36574  1.37409   30.1141  0.26217     0.49738  3598.62519   8443.24399  2.16857         3632.48656     16.75855    3e-05  56298.52697  2.32632  14.54885       151626.17141  46.39295   20.9871  56493.88878    51.06537       43.77774  135.22056  150.24506  164.0    0.00906  -20.60671  0.58586 
 -111.18002  0.48633   1.55428     13.13747  1.74714  0.04223  36.71781  0.20354     0.45268  2970.51691   8387.13901  1.73558         3043.32514     16.35809    1e-05  56276.09098  1.93272   17.8568     20809660.55606  44.80985  21.00615  56465.78294    50.94377        43.6985  102.65023  137.74187  174.0     0.0102  -20.56565  0.04469 
  -44.73075  0.33435   8.14189     13.76512  1.82774  0.55827   19.6775  0.05134     0.38591  3261.22043   7940.90859  1.08346         4824.54691     17.97417  0.00052  56342.54025  1.24841   6.57908     33185248.70059  43.18836  20.88945  56496.23093    50.99064       43.70219  135.22056  150.24506  136.0    0.03888  -20.48165  0.19271 
 -115.78704  0.47389   8.84244      12.2961  2.02178  0.92044   32.3535  0.19104      0.1891  2883.63616   6640.06586  2.11381         3616.96813     18.88508  0.00426  56271.48396  1.60483  15.33214  37540020514.89229  40.10694  20.84187    56490.221     51.0752       43.74427  151.91445  163.60018  152.0    0.01544  -20.55803  0.00039 
  -61.96484   0.4952  10.77244     13.38546  2.04115  1.54847  22.82623  0.14673     0.06604  3889.82164   5643.55041  2.04827         3512.03523     18.55594    0.002  56325.30616  2.06025   11.3036    372727480.86428   41.9427  21.04069  56461.09863    51.12132        43.7494   91.81643  198.65736  128.0     0.0246  -20.69094  0.04169 
  -55.99965  0.44086    2.6996     13.87484  2.13504  0.04582  18.51747  0.13396      0.2252  4351.22347   4104.60597  1.40687         3825.61102     17.94207  0.00049  56331.27135  2.09137   8.16359      2571232.90137  45.32551  20.99013    56490.221    51.07688       43.77104   143.5675  156.92262  124.0    0.03394  -20.63582  0.26775 
  -65.12275  0.38837   5.21309     14.76302  1.37009   0.0986  21.73668  0.14431     0.47986  2618.59271   3002.72035   1.7609         4135.95459     19.02165  0.00584  56322.14825  0.88911   8.44182       102969.94054  45.95869   21.0832   56472.8094    50.94114       43.66811  126.87361  145.23689  134.0    0.01774  -20.63136  0.35118 
  -100.3376  0.33522   3.28229     12.32363  2.19036  0.85111  41.18712  0.12006     0.02009  3403.98258   5082.52375  0.37445         5225.03713     18.66895  0.00259   56286.9334  2.84684  13.80672   4936641234.03503  41.88357  21.02408  56463.44078    51.13646       43.74082   98.49399  210.34309  132.0    0.02066  -20.66229   0.0222 
  -98.74548  0.44236   5.38802     14.24011  1.61042   0.3117  23.54673  0.20632     0.16013  2685.70386   9637.15993  0.73493         4121.77634     16.75322    3e-05  56288.52552  1.01315  10.41621      1436782.22704  44.85554   20.9035  56512.62601    51.12575        43.7456  161.93079  185.30224  164.0    0.01081  -20.50706  0.33485 
 -195.77308  0.35367   1.88543      13.7043  1.68203  0.10515  74.20023  0.33638         0.5  2981.25344   8599.38141  0.79176         3090.88192     19.91509  0.04569  56191.49792  3.93396  26.24231      2167038.96541  45.60799  20.96729  56496.23093    51.09456       43.71077  168.60835  190.31041  526.0    0.00218   -20.7093  0.43218 
  -66.85327  0.44135   6.13505     13.49445  1.84869   0.7741  20.96031  0.14078     0.39045  4529.43796   4999.54466  0.55333         3887.17669     19.42822  0.01489  56320.41773  2.56515   9.25083     66286104.41482  43.13865  21.01048    56474.217    51.01475       43.73667    128.543  148.57567  136.0    0.03028  -20.71005   0.2204 
  -96.86376  0.49632   5.90897     13.85818  1.66534  0.78265  19.44986  0.24665     0.20511  2928.59474   7698.74559  1.16906         4311.53905     16.54802    2e-05  56290.40724  0.99509   9.65333     10374807.05868  43.93134  20.93176  56524.33678     51.3516       43.79908  200.32675  403.99228  150.0    0.01417  -20.64479  0.31326 
  -50.89173  0.28736   8.93083     13.05876  1.44619  1.27565  25.16757   0.0275      0.4836  2110.48514   3689.92737  1.68156         4664.42052     17.58744  0.00021  56336.37927   0.6687   7.23225    817155989.27568  41.61498  20.99072   56477.4937    51.02967       43.77431  118.52666  140.22873  134.0    0.03675  -20.35061  0.03215 
 -120.66115  0.49761   9.15152     12.78101  1.57737  1.13443  38.75613  0.21217     0.22786    2699.675   6845.29273  1.35554         3556.32762     17.78929  0.00034  56266.60985  1.68496  19.28533   3362888040.07982  41.01708  21.05568  56461.09863    50.99208       43.73414  115.18788  140.22873  164.0    0.01145  -20.58114  0.00314 
  -99.83576  0.42372   9.05585     12.92031  1.63025  0.72326  32.05351  0.11153     0.38903  2168.95829   6361.29926  1.74849         4517.42887     18.64523  0.00245  56287.43524  0.89951  13.58171   1791862307.92323  41.31394  20.83246  56519.65247    51.17631       43.80214  168.60835  183.63285  146.0    0.01686  -20.58127  0.00471 
 -110.11787  0.45227     3.343     12.29259  1.73813  0.37432   41.6668   0.1155     0.49538  1664.71313    6308.2952  1.62886         4473.67525     17.40667  0.00014  56277.15313   0.6888  18.84473   4687943664.94079  41.78967  21.00596  56484.52017    51.04852       43.77404  120.19605  141.89811  168.0    0.01194  -20.56046  0.00319 
 -140.07239  0.43242   4.59735     13.68587  2.13979  0.60065  37.47832  0.17437     0.27516  1670.32096   5878.93728   1.4907         4864.99617     17.67084  0.00026  56247.19861  0.62375  16.20625     17842607.57424  44.02274   20.9638  56491.54663    51.19788       43.78357  158.59201  193.64919  244.0    0.00705   -20.7272  0.33675 
  -82.14019  0.49174   7.29287     14.04034  1.85856  1.41382  18.44816  0.22408      0.3038  3168.96278   3906.29545  0.98528         3561.44499     17.12716    7e-05  56305.13081  1.10513    9.0717      7622665.56005  43.93012  20.96315  56493.88878    51.10867       43.75435  163.60018  173.61652  124.0    0.02227  -20.54645  0.29118 
 -116.18335  0.29069   3.63108     13.46675  1.89358  1.55904  31.86024  0.23834     0.01286  2424.39412   7659.71073  1.11146         3978.78355     16.75976    3e-05  56271.08765  1.11708   9.26154      27019432.0273  43.99438  20.96288    56474.217    51.04917       43.75266  123.53483  151.91445  196.0    0.00854  -20.80594   0.5916 
  -81.06197   0.4994   6.08206     14.51574  1.69793  0.55059  19.48973  0.24303     0.34358  3105.88323    7097.1828  1.82095         3871.81742      16.4436    2e-05  56306.20903  1.12151   9.73312       542434.54903  45.19632  20.86581  56514.96816    51.10156       43.76146  148.57567  168.60835  138.0    0.01895  -20.53247  0.33518 
 -110.36743  0.49422   11.5943      12.8585  1.59267  1.10511  29.83369  0.11905     0.27131  2816.13002   7668.94802  0.09535         4290.88796     20.13057  0.07504  56276.90357  1.41137  14.74429   3814386065.32946  40.76106   20.9009  56505.59955    51.10829       43.72097  145.23689   191.9798  126.0    0.01738  -20.57717  0.00223 
 -139.42211  0.49872   3.72461     14.33695  1.43786  0.22454  29.28257  0.31159     0.22631  2181.70121   6084.90559  1.31161         3872.26652     17.63813  0.00024  56247.84889  0.83143  14.60369        392462.9555   45.6906  21.01861  56496.23093    51.14875       43.75072  168.60835   191.9798  194.0     0.0108  -20.50391  0.40126 
  -77.81918  0.49375   9.76707     14.00758   2.0038  0.33867  29.25551  0.14933     0.07359   2594.1859   4797.35909   3.3053         3677.90525     18.19924  0.00088  56309.45182  1.17446   14.4448     17140910.43218  43.35714  20.79556  56510.28385    51.10507       43.76111  150.24506  166.93896  144.0    0.01578  -20.69399  0.06818 
 -119.20744      0.5   2.05705      14.2109  1.32917  0.84081  32.48382  0.28794     0.39301  2887.43442   8015.73027   0.8673          3104.3341     18.77358   0.0033  56268.06356  1.61554  16.24191       197736.08083  46.46985  20.94428  56510.28385    51.18277       43.74142  193.64919  217.02065  180.0    0.00899  -20.44745  0.65181 
  -76.63313  0.40637   7.10155     12.42302  1.28621  1.22409  28.78057  0.09382     0.48443  2097.52127   7931.93092  3.39989         3778.48299     18.86971  0.00412  56310.63787  0.75533  11.69569   8586215843.86456  40.74165   21.0074    56470.235    51.01044       43.75913  101.83276  138.55934  138.0     0.0192  -20.49496  0.00301 
  -86.43613  0.48298   6.09317     14.00361  2.04351  1.29897   22.8121  0.29597     0.21846  3974.39944   5495.43778  0.64627         2840.70072     17.61983  0.00023  56300.83487  2.14949  11.01789      6928849.74787  44.16888  20.88997  56503.25739    51.10817       43.79474  136.88995   160.2614  144.0    0.01816  -20.77432  0.35838 
 -108.61442  0.49633   9.32788     14.03956  1.81231  0.80621  26.56936  0.21631     0.01651  2647.16779   3469.61668  1.82478         4012.91003      17.9576   0.0005  56278.65658  1.11063  13.18724     12203691.48132  43.50102   20.9599  56493.88878    51.11615       43.77455  158.59201  168.60835  144.0    0.01385  -20.57735  0.12931 
 -177.62066  0.35223   6.29008     12.96481  1.64627  0.45664  66.04342  0.06706      0.2017  1352.55154    4871.6492  0.74676         5247.50118     20.21076  0.09026  56209.65034  0.72072  23.26247    711240835.52556  42.03602  21.04431  56486.86232    51.02694       43.71472  146.90628  158.59201  168.0    0.00955  -20.38114   0.0064 
  -78.24219  0.42549   8.91017      14.6099  1.95433  0.29697  22.30966  0.14143     0.33923   3144.4647   7415.34108  0.77964         4194.84827     19.47137  0.01645  56309.02881  1.31587   9.49256       868519.83482  44.72129   20.7285  56512.62601    51.17203        43.8265  140.22873  171.94713  128.0    0.02155  -20.60293   0.2175 
  -76.10196  0.40804   5.40198     12.81019  1.71158  1.03238   31.0519  0.13351     0.47447  2837.37537    6986.9167  4.34236         3411.09313      16.1899    1e-05  56311.16904  1.49124  12.67038    1111586394.1003  41.99119  20.63818  56559.46908    51.46048       43.88718  212.01248  499.14749  144.0    0.01737  -20.59263  0.03719 
  -71.04561  0.46855      1.68     12.70268  1.95074  0.60167  18.20521  0.21866     0.21189  4273.88879   6017.82348  3.10413         2213.39635     19.86351  0.04057  56316.22539  1.98367   8.53009    201040148.57912  43.80514  20.77759  56550.10047     51.3722       43.85685  207.00431  282.12684  604.0     0.0173  -20.91339  0.59726 
 -138.91729  0.49412  18.84366     12.63569  1.22521  0.02202  41.50697  0.10962     0.23025  1682.37368   7316.06384  0.65778         5652.73679     19.22751  0.00938  56248.35371   0.7008  20.50937  21626011137.17837  39.47175  21.05954    56456.201    50.93972       43.74297   86.80826  126.87361  158.0    0.01144  -20.54203      0.0 
  -91.78077   0.3114   4.44508     14.68726  1.38538  1.03621  36.15235  0.10132     0.07081  3073.50256   5292.01254  0.87074         4267.57254     17.07198    7e-05  56295.49023  2.03719  11.25768       107306.32819  46.08403  20.84438  56510.28385    51.13007       43.79927  155.25323  165.26957  128.0    0.01952   -20.5392  0.39192 
 -146.13378  0.49773   3.53452     12.62927  1.50003   0.3349  36.89139  0.16581      0.0549  2424.72398   7151.68926  0.60467         2089.39207     19.88332  0.04247  56241.13722  1.29383  18.36208    959481438.20306  42.36625  20.87652  56512.62601    51.11346       43.75936  153.58384  173.61652  148.0    0.01387  -20.44979  0.00979 
 -106.05968  0.48345   8.27154     12.62135   1.7362  0.63995  32.74497  0.21891     0.47396  3133.07949   6447.61303  2.92129         3204.67461     17.98487  0.00054  56281.21132  1.91741  15.83048   6307998424.76539  40.87338   21.1091    56474.217    50.99133       43.68958  138.55934  153.58384  154.0    0.01434  -20.58635  0.00122 
  -95.04418   0.4502   9.82288     13.52406  1.54097  0.96138  34.87322  0.15268     0.39031  2529.82948   6307.99511  1.67582         4054.48878     17.75455  0.00032  56292.22682  1.33138  15.69981     123586333.3112  42.38019  21.05769  56505.59955    51.14468       43.72157  201.99614  207.00431  156.0    0.01219  -20.64446  0.04208 
 -104.07993  0.44806   6.44487     12.31947  1.84706  0.94309  26.70259  0.12597     0.12772  2556.32102   7799.83554   1.0213         4517.81601     18.64992  0.00248  56283.19107  1.04091  11.96436  16360302827.22954  40.70311  21.00059  56503.25739    51.14292       43.77437  173.61652  180.29408  130.0    0.02117   -20.4928  0.00201 
  -85.01458  0.40798   3.23333      12.8106   1.6048  1.10282  34.10155   0.1005     0.17849  2284.40168    9352.0539  1.03865         4097.89865      19.6812  0.02666  56302.25642  1.06156  13.91264    372686980.46633  42.88362  20.97675  56498.57309    51.11319       43.75366  166.93896   176.9553  162.0    0.01551  -20.64323  0.20119 
 -129.61149  0.44713  14.47481     13.18903  1.71722  0.03067  28.73653  0.15741     0.29749  2501.63099   3244.07543  1.77501          3612.8098     18.00059  0.00056  56257.65951  1.07277  12.84908   1398980652.64603  41.03663  21.01351  56482.17801     51.0697       43.74038  155.25323  165.26957  134.0    0.01537   -20.3645    1e-05 
 -180.49954  0.48534   8.24039     14.50404  1.57297  0.25554  39.46302  0.20225     0.26711  1872.10882   8738.38071  1.30608         3770.50726     17.67998  0.00027  56206.77146  0.82505  19.15312        973533.3292  44.64532  21.01608   56477.4937     51.0427       43.77563  116.85727   143.5675  196.0    0.00762  -20.16428  0.10166 
 -157.75371  0.48308   1.27019     12.19181  1.98671  0.73821   50.5064  0.22963     0.42819  2507.89081   7523.67878  0.70466         2269.73211     17.94573  0.00049  56229.51729  1.89492  24.39884   1230474493.13937  43.26917   20.9838  56489.20447    51.08318       43.77814  116.85727  156.92262  298.0    0.00492  -20.61086  0.19535 
  -59.74358  0.47198   4.58284     13.41842  1.44744  1.34109   15.4953  0.23161     0.01349  3920.85367   6676.12643   2.1608         4183.90711     19.45084  0.01569  56327.52742  1.42098    7.3135     41101181.19847  43.49332  20.99615  56475.15155    51.11274         43.755  150.24506  178.62469  120.0    0.02332  -20.80596  0.41733 
  -87.69735  0.44991      5.08     13.95181  1.63621  1.03704  18.47053  0.25962     0.33401  2699.07306   7318.37572  0.96595         4594.57485     18.09256  0.00069  56299.57365  0.80267   8.31012       4895129.9765  44.38119   20.9358  56489.20447    51.08836       43.74819  138.55934  170.27774  146.0     0.0142  -20.55847  0.43605 
   -55.9728  0.45273   7.89487     14.14588   1.8428  1.45254  18.99558  0.15761     0.44887  3509.30371   6658.78748  0.72046         4299.64926     17.48325  0.00017   56331.2982  1.39547   8.59988      5447721.22295  44.00342  20.85059  56531.36324    51.34128        43.7855  200.32675  420.68618  124.0    0.02275  -20.62333  0.27103 
 -124.83468  0.48643   4.18421     14.18644  2.19735  0.05677  45.54919  0.20661     0.46721  2903.77103   4442.27212  3.01333         2446.23996     16.94562    5e-05  56262.43632  2.29104  22.15629      1513768.04763  45.18746  20.86139  56521.99462    51.21366        43.8086   160.2614  203.66553  168.0    0.00975  -20.75425  0.11737 
 -181.15321  0.38145  14.36993     13.91229  1.73277  0.14815  47.17616  0.13718     0.41416  2448.59017   8600.86931  0.88437         2821.66187     19.37328  0.01312  56206.11779  1.68726  17.99532      49761165.7313  42.49579   20.8632  56524.33678    51.39145       43.86716  180.29408  353.91059  164.0     0.0119   -20.1615  0.00263 
  -85.43568  0.26085   7.68501     14.16524  1.67958  1.13527  50.96433  0.03998     0.08391  1272.51053   6580.46862   2.2176          5950.2336     17.25157   0.0001  56301.83532  0.49228  13.29392      4303523.20365  44.08893  21.00423  56461.09863    51.22224       43.77374  100.16338  285.46562  152.0    0.01326  -20.91416  0.18153 
 -156.54305   0.4708   3.03831      13.1401  1.98373   0.6041  53.44298  0.24945     0.36882  2644.72911   5638.77833   2.2299         2071.95758     18.19899  0.00088  56230.72795  2.22987  25.16096      89201019.5158  43.65069  20.99797    56471.196    51.05533       43.77427  131.88178  148.57567  298.0     0.0066  -20.73884  0.22867 
 -102.72217   0.3671   1.01264     12.64142  1.49759  0.28022   42.5024  0.20872     0.16792  3579.44472   5966.40624  2.54721         2716.52123     20.11708  0.07274  56284.54883  3.24842   15.6026     74349288.49038  44.56205  21.03757  56521.99462    51.15957       43.73516  195.31858  203.66553  570.0    0.00845   -21.1395  0.53568 
 -118.87422  0.39137   5.77994     13.98122  1.67038  1.52259  37.36854  0.23576     0.01722  3343.75525   7093.07921  1.27428         3558.78471      17.7893  0.00034  56268.39678  2.49231  14.62503      5649886.93769  44.21577  21.00082  56489.20447      51.238       43.80951  161.93079  201.99614  154.0    0.01341  -20.65674  0.26057 
  -124.2196  0.38924   1.20362     12.27189  2.14596  1.54189  38.37965  0.25263         0.5  2611.45693   8318.97948  0.78534         5560.02629     17.47004  0.00016   56263.0514  1.56133  14.93891      825359115.514  43.52284  21.06056   56477.4937    51.02795        43.7096  145.23689  158.59201  550.0     0.0029  -21.08883  0.59035 
    -56.049  0.42447  10.54722     12.45292  1.88004  0.34113  17.30751  0.09687     0.43025  3197.52213   3059.05835  4.63169         3597.30328     16.35363    1e-05    56331.222  1.05557   7.34644    24122356930.965  40.11432   21.0203  56503.25739    51.15493       43.72943  203.66553  207.00431  112.0    0.02837  -20.41868  0.00015 
  -69.07181  0.44614    6.9536     13.73395  1.49082  0.44953  21.79196  0.12973     0.49477  3010.43752   7660.72435  1.85701         3726.32063     16.44776    2e-05  56318.19919   1.1781   9.72226     22791009.23048  43.40009  21.02682  56521.99462    51.19624       43.74962  213.68187  218.69004  140.0    0.02032  -20.54838  0.14509 
  -76.86893  0.39817   5.48844     12.42557  1.82225  0.52191   33.1879  0.11503     0.34333  3304.63316   5637.89734  2.14515         3034.86411      18.9439  0.00488  56310.40207  2.16199  13.21438   7180894802.46178  41.19438  21.04959  56498.57309    51.17509       43.74418  178.62469   208.6737  132.0    0.02234  -20.64162  0.00215 
  -86.90956  0.43314   3.43065     13.33397  1.88199  0.45854  31.20773  0.16523     0.10349  3622.79592   4583.52849  0.65509         2062.94125     19.71639  0.02891  56300.36144   2.4433  13.51733     44181664.33888  43.82747  20.97009  56524.33678    51.23402       43.76109  210.34309  235.38393  174.0     0.0167  -20.85666  0.31864 
  -71.25142  0.48392   6.03754     13.68047  2.14052  0.88488  12.70717  0.20621      0.4514  4422.13636   5101.01112  1.78844         2285.86537     19.56747  0.02052  56316.01958  1.48231   6.14931     31557737.66441  43.53854  20.99872  56486.86232    51.08227       43.76371  138.55934   160.2614  158.0    0.03074  -20.62827  0.44169 
 -107.16422  0.49499   3.19276     13.59734  1.50335  0.17444  24.31908  0.21332     0.02855  3098.84916   5848.25649  0.78968         2255.37607      18.2155  0.00091  56280.10678  1.39308   12.0376      9089052.89415  44.47905  20.94067  56482.17801    51.03364       43.78421  126.87361  136.88995  194.0    0.01585  -20.60068  0.27729 
  -66.31996  0.47095    2.8452     12.76309  1.38421  0.84029  24.85592  0.17417     0.25364  3603.72114   6492.72513  4.70791         3174.06716     18.08394  0.00067  56320.95104  1.92557  11.70579     309781024.1952  43.01077  20.97274  56500.91524    51.27319       43.80148  173.61652  235.38393  168.0    0.01819  -20.73629  0.22205 
 -101.47045    0.464   6.38518     14.20959  1.68513   0.6292  22.17094  0.24488     0.48639  3069.11903   5686.88984  1.63741         3533.66408     18.96404  0.00511  56285.80055  1.24577  10.28721      2430026.68995  44.49952  20.96704  56503.25739    51.17313       43.78389  175.28591  188.64102  146.0    0.01798  -20.56574   0.2916 
  -74.28846  0.49818   6.91467      13.7599  1.40182  0.75274  17.98095  0.17868     0.02329  3211.29526   4450.36112  2.12547         3602.68824     17.19346    9e-05  56312.98254  1.10612    8.9578     18804161.93475  43.46174  20.91999  56498.57309    51.04968       43.72044  153.58384  163.60018  126.0    0.02207  -20.56982  0.20003 
  -98.07969   0.4816   7.66643     13.09763   1.8438  0.00929  31.47548  0.19537     0.14904   3623.2517   6443.36925  2.12844         2919.43709     18.03684   0.0006  56289.19131  2.46488   15.1585    641888905.83158  41.95791  20.97261   56472.8094    51.03241       43.76253  113.51849   143.5675  142.0    0.01639  -20.67781      0.0 
 -114.14298  0.44604   4.13393     13.75847  1.43499  1.19594  34.12237  0.28894     0.27227  2752.49928   7561.59694  2.68658         3344.70137     17.42077  0.00015  56273.12802  1.54213  15.22011      6925471.78209  44.35252  21.01209  56500.91524    51.02521       43.68056  140.22873  168.60835  182.0    0.00947  -20.67027  0.34219 
  -98.02315  0.43785   4.63263     12.74108  1.26003  0.08411   34.0847   0.1423     0.37091  3122.44249   7986.46269  0.61115         3357.11136      19.6366  0.02406  56289.24785  1.98233  14.92412    827356633.80645  42.11988  20.81321  56498.57309    51.05517       43.76233  125.20422  151.91445  130.0     0.0174  -20.62538  0.00046 
  -89.19367  0.39647    4.3281     12.63144  1.26673  0.01828  25.62887  0.11939     0.39023   2754.0809   3099.41966  2.25614         3656.52255     17.74673  0.00031  56298.07733   1.1596  10.16103   1202850540.76867  42.01872  21.02598  56479.83586    51.05926        43.7547  141.89811  155.25323  126.0    0.02329  -20.41827    3e-05 
  -54.73147   0.0887   1.51306     12.67412  2.14859  0.29027  78.39499  0.02763     0.02656  4605.39424   4529.79594  1.19856         4218.87014     20.05718  0.06337  56332.53953  9.91857   6.95333    204850628.78248  43.92985  20.92327  56503.25739    51.11888       43.76589  151.91445  171.94713  148.0     0.0352  -20.65928  0.41318 
  -96.60786  0.43826   5.89754     13.92707  1.66192  0.55404   26.5125   0.1796     0.29451  2341.36283   8051.68014     1.49         4641.33487     16.81929    4e-05  56290.66314  0.86699  11.61934      7509723.34974  44.07249  20.74326  56650.81307    51.54739       43.88264  327.20036  455.74336  162.0    0.01418   -20.6843   0.2668 
 -108.67265  0.40568   4.40421     13.98332  1.73279  0.77705  24.45871  0.32102     0.01566   2596.0238   7112.19207   4.7356         3414.63663     18.11521  0.00072  56278.59835  0.98328   9.92241      3370252.68349  44.69219  20.92911    56469.272    51.10138       43.78435   109.5136  159.25812  168.0    0.01238  -20.58187  0.48342 
  -92.08289  0.29196  17.37823     14.95791  2.10055  0.22949  38.75353   0.0811     0.01488   2723.5004    5519.9717  1.15611         5078.43261     18.91065  0.00452  56295.18811  1.71472  11.31462       715054.29285  44.25683   20.9421  56491.54663    51.09238       43.73929  148.57567  173.61652  132.0    0.02081  -20.64516  0.06203 
 -124.62491  0.30895   2.31557      12.8253  1.47094   1.0241  39.33808   0.1962     0.49435  3103.18067   3304.79838  4.57665         2311.68282     16.86993    4e-05  56262.64609  2.25972  12.15359    163728766.14545    43.493  20.98357    56456.201    50.90905       43.72144   78.46131  125.20422  228.0    0.01064  -20.76576   0.4613 
  -86.20578  0.48494  19.01878     12.41154  1.70797  1.16858  24.69137  0.08335     0.31873  2249.35679   9479.07213   0.8449         5628.46678     16.16397    1e-05  56301.06522  0.74523  11.97383   86216562867.1378  39.00737  20.99933   56507.9417    51.11979       43.73838  181.96346  185.30224  116.0    0.02053  -20.59518    5e-05 
  -86.13697  0.36403   9.48288      14.7109    1.572  0.20684  24.57865  0.10931     0.15163  3091.66386   3172.25427  1.00371         5391.25206     18.89064  0.00432  56301.13403  1.40142   8.94731       496998.78174  44.81506  20.92288    56490.221    51.03336       43.71909  146.90628   160.2614  120.0    0.02617  -20.64845  0.15768 
  -99.10245  0.43619   6.51077     14.02029  1.67343  0.85005  38.37933  0.18869      0.2897  2786.17315   3936.13554  0.72906         4412.40342     18.36142  0.00128  56288.16855  1.77722  16.74073      5999537.48872  44.08707  20.87278  56529.02108     51.1155       43.74033  178.62469  181.96346  150.0    0.01108  -20.76829  0.18993 
   -63.7332  0.47277   1.81117     12.17948  1.90982  1.14701  22.91659  0.18188     0.01982  4691.74907    7531.2877  3.30252         2140.34351     19.29438  0.01094   56323.5378  3.00917  10.83428   2545519480.03001  42.62814  20.83189  56545.41616    51.29332       43.78526  218.69004  263.76355  130.0    0.01832  -20.68938   0.1871 
 -111.17121  0.35303   2.69579     13.24837  1.39901  0.20686   42.5313  0.15055     0.42885  3453.34332   4372.41717  4.77837         2014.35785     17.80642  0.00036  56276.09979  3.02563  15.01494     30078777.30911  44.07504  21.01233  56486.86232    51.03154        43.7347  130.21239  151.91445  146.0    0.01702  -20.69393  0.17029 
 -107.05998  0.45354   8.69429     13.98568  1.54734  1.00772  33.08001  0.21331     0.40392  3205.57671   4514.91605  2.46564         3215.27731     16.61755    2e-05  56280.21102  2.02771  15.00314     11601465.25867  43.51545  20.75591  56543.07401    51.27824       43.82152  201.99614  228.70637  140.0     0.0127  -20.66655   0.1118 
  -91.37868  0.44414    9.5472     13.72347  1.65173  0.85507  24.44452  0.11516      0.1897  2895.76448   6196.13741  0.70505         4138.20219     18.91264  0.00454  56295.89232  1.22274  10.85669     49954374.50343  42.82846  21.02296    56480.213    50.99965        43.6958  131.88178  156.92262  142.0    0.02041  -20.53941  0.09568 
  -82.11395   0.4972   1.91506      14.3959  1.32145  1.34935  30.03429  0.27341     0.40283  4079.75236   8839.01135  2.26461         3620.67699     16.43193    2e-05  56305.15705  2.98203  14.93301        72682.24745   46.9641  21.01484   56477.4937    51.09297       43.80656  133.55117  148.57567  160.0    0.00964  -20.64667   0.7332 
  -51.28778  0.44543   2.45453     13.18274  2.07618  0.23658  15.14275  0.14751     0.17703  5557.80318   4259.04361  1.16634         2616.18568     18.68145  0.00267  56335.98322  2.79022    6.7451     50066316.33172  44.10663   20.9494    56469.272    51.08802       43.74166  103.50215  166.93896  130.0    0.03774  -20.62849  0.40453 
  -87.43937  0.46917   5.77089     13.63274  1.91965  0.89256  17.64694  0.19989     0.07361  2727.51384    9631.2584  3.64387          3535.3722     18.12328  0.00074  56299.83163  0.78312   8.27941     32213601.96571  43.52154  20.84815   56507.9417    51.02961        43.7052  151.91445  161.93079  178.0     0.0127  -20.52968   0.3566 
 -101.47262   0.4896  12.11193     13.64723  1.76421  0.51212  30.56545  0.15252     0.09233  2563.24066   7427.81155  2.01168         4173.29728     17.89832  0.00044  56285.79838  1.19794  14.96471    121993581.96601  42.26263  20.88205  56482.17801    51.03522       43.76853  115.91099  142.84439  146.0    0.01654  -20.66784  0.01706 
  -62.87356  0.47049   5.00822     14.12465  1.50231  1.53942   14.0449  0.23923      0.1515  3469.34169   6056.95612  1.63867         3940.66562     17.52856  0.00019  56324.39744  1.00842   6.60805      1970846.60873  44.75159  21.00189  56458.75648    50.97713       43.73319   77.89811  140.79192  124.0    0.02684  -20.49571   0.4771 
  -94.12494  0.37167   4.35064     13.48995  1.87715  1.29286  20.23622  0.24738     0.01173  3469.31488   3369.01469  0.04135         3054.81075     17.29852  0.00011  56293.14606  1.45293   7.52124     34555588.16647  43.72672  20.98561  56486.86232    51.08547       43.74777  135.22056  166.93896  126.0    0.01766  -20.73929  0.53409 
   -79.7044  0.45353   6.58598      12.2052  1.76548  0.07102   27.0642  0.11396     0.05085  2243.45036   9829.16874  2.26285         3747.28451      18.5843  0.00213   56307.5666  0.81256  12.27437  27638838835.84997  40.43695  21.00615  56484.52017    51.04861       43.70906  158.59201  166.93896  140.0    0.01326  -20.45585    1e-05 
  -73.00873  0.48407   7.53929     14.07192  1.94836  0.64526  17.90435  0.21287     0.03892  3714.10943   6492.07388   0.9263           3520.011     17.71124  0.00029  56314.26227  1.47331   8.66692      7384388.06727  43.93554  20.99312  56482.17801    51.03084       43.76271  125.47303  144.96808  136.0    0.02203  -20.63912  0.28146 
 -108.58594  0.42696   2.97058     13.56546  2.07971  0.16388  38.07154  0.20902     0.07186  3768.25897   5461.62899  1.29842         2627.43751     19.49611  0.01741  56278.68506  3.22485  16.25516      12606196.6442  44.54058  20.88674  56486.86232    51.11598       43.76166  123.53483  190.31041  206.0    0.01432  -20.83862  0.25183 
  -49.35398  0.37885  10.92548     15.04337  1.68276  0.08942  23.64337   0.0913     0.18687  3605.31887   7051.74693  1.87293         4061.13355     20.27847  0.10549  56337.91702  1.83326    8.9573       152750.97561    45.234  21.02857  56461.09863    50.95898       43.74192    80.1307  133.55117  124.0    0.02955  -20.70369  0.12867 
  -93.56422   0.4521   2.47421     12.49176  1.66692  0.35374   28.5741  0.17213     0.13814  3950.00084   5496.10549  1.42915         2729.75184     18.71257  0.00287  56293.70678  2.65946  12.91832    984191672.14565  42.71081  21.01324  56465.78294    50.94277       43.72535   95.15521  131.88178  136.0    0.01852  -20.65339  0.03334 
   -83.1138      0.5   1.32286     14.99623  1.82922   0.0006  18.56276  0.13994     0.02035  3398.73926   8119.93959  0.36558         4075.25973     16.51485    2e-05   56304.1572   1.2791   9.28138         3024.46511  48.80743  20.97991  56503.25739    51.24336       43.78142  183.63285  232.04515  122.0    0.02662  -20.47744  0.15261 
  -78.08293   0.2894   4.11457     13.06864  1.96872  1.24434  35.59043  0.08131     0.30781  2554.93622   5772.37854  1.28761         5003.23867     17.53878  0.00019  56309.18807  1.38586  10.29999    225612969.66578  42.98102  21.02035    56480.213    51.05792       43.71126  126.87361  178.62469  186.0    0.01644  -20.71142   0.2948 
 -123.32162  0.47662   11.4244       12.886  1.75641  1.01677  39.52743  0.17828     0.21793  2584.71227   7867.39198  1.02692         3656.57584     17.87451  0.00042  56263.94938  1.57525  18.83945   3598351971.18387   40.8417  21.02822  56498.57309    51.11504       43.72017  188.64102   191.9798  158.0    0.01198   -20.5728  0.00191 
  -84.50068  0.34025   9.95558     14.09588  1.65296  0.83441  28.76972  0.08934     0.13946  2716.45338   5754.17657  0.92139         4466.76378      19.5398  0.01925  56302.77032  1.26639   9.78889      9782661.23511  43.50052  20.83901  56554.78477    51.34047         43.778   240.3921   337.2167  134.0    0.02296  -20.54038  0.13799 
 -105.56155  0.37919   4.93125     13.86225  1.78397  1.26862  31.02146  0.23434     0.01658  2478.33598   6432.07805  1.38638         4553.63854     16.51655    2e-05  56281.70945  1.13661    11.763      7596568.40347   44.2537  21.01023    56451.313    50.98098       43.69835   122.7089  149.40161  172.0    0.01271  -20.66661  0.39387 
 -143.59636  0.43077   8.84314     13.45165  1.15791  0.28198   35.0225  0.06807     0.04991  1119.73049   9829.61404  1.62883         4806.13099     19.42371  0.01474  56243.67464  0.26194  15.08651    105052924.89338   42.4179   20.7756  56547.75831    51.30723       43.78741   191.9798  315.51463  148.0    0.01391  -20.28699  0.00879 
 -133.70467  0.28752   4.13361     13.91756  1.87145  0.71909  44.91649  0.15922     0.27847  1926.17427   4791.75135  0.88355         3592.76226     17.56934  0.00021  56253.56633  0.99409  12.91435      4340437.85016  44.67083  20.88588   56507.9417     51.1505       43.76023  165.26957  188.64102  182.0    0.00897  -20.53334  0.47147 
  -76.38409  0.34875   1.42987      12.7617  1.90326  0.25249  27.10041  0.15865      0.4169  4436.33988   4574.19321  0.54443         3615.40021     17.99126  0.00054  56310.88691  3.18165   9.45113    108268615.23335  44.20325  20.95567  56514.96816    51.08213       43.73334  153.58384  171.94713  196.0    0.02363  -20.74888  0.42003 
  -83.12301  0.44558   4.25577     13.18597  1.69323  0.03969  31.27072  0.13948     0.31148  3385.38933   7143.41887    1.367         2540.50819     19.60278  0.02226  56304.14799  2.13787  13.93359    120935182.14407  43.15705  20.97159  56517.31032    51.14104       43.75795  170.27774  183.63285  130.0    0.01964  -20.63389  0.00119 
  -98.46766  0.44053   3.50476     12.43801  1.91556   0.4595  32.58265  0.13218     0.45977  2326.21741   8102.34265  2.43058         3759.65731     17.41575  0.00014  56288.80334  1.05175  14.35358   2906735386.83815  41.99842  21.01393  56484.52017    51.05609        43.7163   160.2614  168.60835  144.0    0.01301  -20.55558  0.00984 
  -57.01499  0.37065   2.90294     12.13924  1.47678  1.22139  22.64831  0.10563     0.04639  4566.85547   3452.83924  4.07386          3022.4676     19.00491  0.00562  56330.25601  2.81772   8.39453   6085833944.42396  41.72816  21.03078    56457.197    50.93506       43.71782   95.15521  131.88178  104.0     0.0335  -20.55773   0.0389 
