 texplosion  fnickel    Pspin  log(Bfield)      Mns  thetaPB   mejecta    kappa  kappagamma      vejecta  temperature    alpha  cutoff_wavelength  log(nhhost)      A_V         MJD0   kenergy   mnickel             TSD   log(L0)  Peak_mag     Peak_MJD  log(E_rad)  log(Peak_lum)  Rise_Time     E_fold  tau_1  delta_m15     r_peak     frac 
 -100.52195  0.00565   0.8111     13.93133  1.69113  1.36342   36.0357  0.03514     0.11176   6185.67023    8715.3942  3.55298         3359.98049     16.71589    3e-05  56819.91799   8.22496    0.2035     141735.4612   47.5274  18.49304  56864.95029    51.68363       44.92601   24.23555   47.49016   64.5    0.13006  -20.86821   0.9993 
  -29.15655  0.24551  2.29999     14.62203   1.6375  0.33832   3.82088  0.04178     0.23354   7586.97857   9396.73282  2.47831         3202.82163     20.12316  0.07377  56891.28339   1.31198   0.93805     45856.11929  47.09818  19.36114  56922.44914     51.2743       44.81616    13.6325   21.34804   27.5    0.64245  -22.07806  0.97244 
  -25.32808  0.09654  4.36979     14.39073   1.7757  0.47442   8.46952  0.01918     0.08052   7170.10863   6812.99134  4.18296         2856.87657      17.0419    6e-05  56895.11186   2.59739   0.81765    520763.12779  45.52065  19.53893  56918.02615    51.18535       44.68315   15.14722   24.23555   58.5    0.39163  -21.49665  0.92525 
  -69.41954  0.00805  0.96812      14.9801  1.95517  0.15358  25.92954  0.01824     0.07769   3193.69438   9658.72975  3.59673         2497.08868     17.97939  0.00053   56851.0204   1.57764   0.20874      1864.93882  49.31751    19.305  56909.18017    51.33743       44.78688   18.17667   25.75028   60.5    0.13695  -20.40793  0.99924 
  -66.36365   0.0095  0.98929     14.44045  1.79716  0.44476  43.62572  0.01914     0.17755   8687.13854   7676.43376  3.91626         2282.27964     19.52441  0.01858  56854.07629  19.63918    0.4145     21485.49939  48.20064   19.7263  56922.44914    51.11272       44.67902    13.6325   22.72083   46.0    0.23669    -21.269  0.99811 
  -20.41419  0.03629  1.39668     14.32114  1.75096  0.96873   6.40909  0.01782      0.0416   7335.24564   9408.63023  0.64872         3743.84464     19.09156  0.00686  56900.02575   2.05709   0.23257     72277.90486  47.36292  18.75309  56895.91121    51.45839       44.81696   21.20611   34.01117   37.0     0.5956  -21.39142  0.99783 
  -72.76504   0.0274  2.28518     13.93314  1.78847  1.40022  42.88071  0.02021     0.06473   4563.12378   4335.63083  3.42241         2907.32642      17.8276  0.00037   56847.6749   5.32615   1.17481   1179934.97486  45.73163  19.22198  56915.81465    51.30768       44.93819   10.60305   18.17667   82.0    0.11225  -21.12435  0.96986 
   -8.95227  0.13916  3.50115      14.8455  1.81091  0.42894   2.69517  0.02485     0.09736    6273.1791   5233.33201   2.5874          3346.2779     19.51871  0.01834  56911.48767   0.63269   0.37506     41989.32105  46.81518  19.89567  56944.56408    51.63762       44.44798   78.76555  122.69249   17.0     1.0951  -21.59476  0.97816 
  -44.32014  0.03753  2.54208     14.31359  1.91282  0.61813   2.72508  0.22072     0.01262   8344.80046   6359.05927  0.79299         3036.57883     18.74015  0.00305   56876.1198   1.13198   0.10226    270821.51312  46.30746  19.38254  56915.81465    51.37213       44.80033   18.17667   24.37749   33.0    0.35698  -21.45123  0.99699 
  -56.49379  0.06972  2.33337     14.60235  1.78908  0.22609  18.40505   0.0278     0.12633   4838.15815    7896.5033  4.20921         2363.90144     20.01991  0.05816  56863.94615   2.56995   1.28323     56457.35579  47.03379  19.53247  56909.18017    51.35684       44.67769   24.23555   33.32389   77.5    0.14738  -21.25681  0.96587 
  -36.73599  0.43272  2.06063     14.10881   1.7159  1.49676   7.88819  0.08544     0.27978  10561.23216   6076.17923   0.2551         5539.19159      16.8806    4e-05  56883.70395   5.24848   3.41336    409906.19513  46.26265  19.58249  56913.60316    51.31506       44.77559   16.66194     27.265   50.0    0.28084  -21.82106  0.92834 
  -77.26493  0.00581  1.03101     14.05913    1.771  0.61888  39.99079  0.04157     0.21566   2735.66903   9371.40371  2.55588         2539.61739       18.424  0.00147  56843.17501   1.78531   0.23242    133137.93493  47.36624  18.85513  56895.91121    51.71435       45.17145   16.66194   24.23555   93.0    0.04068  -20.83465  0.99875 
  -28.01303  0.06784  1.93746     15.06192  1.51364  0.14417  21.34256  0.01121     0.08356   7090.14539   7585.09792  2.62287          3090.9969     17.37142  0.00013  56892.42691   6.40006   1.44784      3967.01276  48.27594  19.17433  56904.75718    51.41958       44.93536   15.14722   22.72083   29.5    0.50602  -21.73507  0.96707 
  -49.13724  0.00141  1.93493     14.50221  1.95763  0.33976   6.81158   0.0397      0.0148    7472.5089   6112.52235  0.47115         3157.45965     17.67632  0.00026   56871.3027   2.26886   0.00962     67369.97157  47.15878  19.48558  56926.87212    51.12035       44.65626   16.85535   22.52742   53.5    0.24804  -21.53085  0.99984 
  -59.83507  0.38293  2.06499     13.60339  1.58857  0.49988  16.33765  0.01136     0.03082   3977.34446   7825.72896  2.51981         2257.83823      19.8524  0.03955  56860.60487   1.54171   6.25612   3907387.27821  45.24813  19.77117  56940.14109    51.68196       44.42595   99.97166  140.86915  188.0    0.02237  -21.58721  0.84683 
  -33.84967  0.00994   2.6265     14.12854   1.7951  1.52151   8.26284  0.03204     0.41575    7618.8208   9072.26676  2.53701         2130.34645     18.81655  0.00364  56886.59027   2.86109   0.08217    636191.90676  45.88059  19.64751  56929.08362    51.00737       44.77858    7.57361   14.01669   44.5    0.33578  -21.42816  0.99717 
  -96.31244  0.00235  0.88195     13.79643  1.35745  1.10351  20.43917  0.07084     0.21919   7353.28816   3514.30954  2.84379         2364.87159      17.8453  0.00039   56824.1275   6.59255   0.04809     250361.4098  47.11211  19.53427  56920.23764    51.23373       44.75114    9.08833   24.23555   59.5    0.17176  -21.06423  0.99972 
  -17.65719  0.34496  1.89919     14.48027  1.45863  0.61792   4.13068  0.05464     0.22762  10029.59499   6696.58131  3.02028         2057.38302     20.03913  0.06079  56902.78275   2.47865   1.42492     53500.63524  47.14729  19.61624  56906.96868     51.4649       44.70102   28.77972   39.38277   35.5    0.56953  -21.43975  0.96753 
  -50.01906  0.17707  2.22207      14.4319  1.70914  0.53003  38.46611  0.01178     0.01242   5020.56404   9683.39482  4.01793         2413.63506     16.74741    3e-05  56870.42088   5.78376   6.81104    107229.66248  46.77779  19.35031  56918.02615     51.3747       45.08244    9.08833    13.6325   87.0    0.14007  -21.14554   0.8473 
  -44.33701  0.00473  1.22108     14.50023  1.86299  0.62338  12.70623  0.05223      0.0543   6053.25541   4717.33617  3.27669         2965.88172     19.48592  0.01701  56876.10293   2.77729    0.0601     25766.68621  47.95451  19.88544  56922.44914    51.15708       44.69501   12.11778   24.23555   45.5     0.2203   -21.1752  0.99963 
  -82.35291  0.08276  0.78772     12.78496  1.31539  1.30903  28.64317  0.15571     0.01908   2976.81073   8312.76754  1.58526         2384.88355     20.24128  0.09683  56838.08703   1.51409   2.37041  20403547.22215  45.28545  19.46853  56913.60316    51.33814       44.76885   19.69139     27.265  242.0    0.00795  -22.51802  0.98668 
  -32.45556  0.00935  2.38552     14.38453  1.87173  1.06954   3.59352  0.15137     0.06672  13114.19327   5862.83785  3.59626          2609.5544     17.61721  0.00023  56887.98438   3.68664    0.0336    168331.48841  46.55975  19.65016  56922.44914    51.66259       45.39904    7.57361   12.73365   28.5    0.50016  -21.89145  0.99912 
  -26.48996  0.39282  3.52825       14.519  2.12769  0.96197   7.25969  0.02911     0.37378   7930.19335   8060.09065  4.84197         2862.59974     18.60217  0.00222  56893.94998   2.72341   2.85176    225344.64563  46.14879  19.01855  56909.18017    51.49366       45.05483    9.08833   24.23555   30.0    0.59793   -21.8967  0.87973 
  -18.68217  0.02533    3.728      14.8674  1.83993  0.38931   1.90517  0.18984     0.26153  13150.92902   3724.14421  3.31295         3393.50022     18.15651   0.0008  56901.75777    1.9655   0.04825     43729.21267  46.74992  19.57107  56920.23764    51.05155       44.71063    6.05889   20.37868   22.5    0.74312  -21.75239  0.99681 
  -29.87998  0.00543  2.03504     14.18251  1.80911  1.35008   2.41598  0.13335      0.0109   9835.48264   4818.48181  0.50657         4169.13255     18.36116  0.00128  56890.55996   1.39416   0.01312    300191.26609  46.43176  19.76265  56940.14109    51.28044       44.86521   10.60305   21.20611   23.5     0.6631  -21.65999  0.99973 
  -62.84058  0.12356  1.23541     14.20531  1.50121  0.37893  15.34521  0.08018     0.01391   3400.72369   8851.41727  3.49474         2020.08822      17.0299    6e-05  56857.59936   1.05863   1.89602     82653.95052   47.3444  19.11693  56906.96868    51.31073       44.83872   15.14722   22.72083   86.5    0.05417  -20.97057  0.98144 
   -7.98441  0.01926  1.18042     14.61434  1.81128  1.07305   8.19862  0.02568     0.03039  11936.86322    7145.4014  1.42906         2272.58244     19.11483  0.00724  56912.45553   6.96865   0.15794     13842.03404  48.24156  19.87822  56929.08362    51.07759       44.72651   12.11778   16.66194   19.5    0.98481  -21.43156  0.99955 
  -28.73302   0.0271  2.19268     14.22206  1.75755  1.13829  11.38138  0.01579      0.0102   6615.24684   3804.60807  4.15527         2013.55863     19.24184   0.0097  56891.70692   2.97108   0.30848    282199.83499  46.38124  19.33733  56900.33419    51.47317       44.93253    13.6325   28.77972   40.0     0.4867  -21.53279  0.99246 
  -83.39465  0.00576  2.17736     14.04215  1.94002  0.95687  35.84328   0.0124     0.01219   3217.31595    4468.5017  4.36943         2661.45488     16.08177    1e-05  56837.04529   2.21321   0.20637    703356.48404  46.03361  19.42015  56920.52002    51.03222       44.67054   10.60305   17.36528   94.5    0.13053  -20.88175  0.99564 
  -23.42953  0.03705  2.13931     14.64486  1.72851  0.35798   4.35542  0.03055     0.31597   7165.45072   4179.22439  1.11429         3501.65531     19.08165   0.0067  56897.01041   1.33396   0.16135     37697.36394  47.26966  19.50481  56915.81465    51.42386       44.68053   30.29444   39.38277   38.0    0.56294  -21.55268  0.99615 
 -179.46734  0.00588  1.57091      14.2733  1.50867  0.14312  60.04923  0.01975     0.01046   2387.41599   9152.85902  0.79123         4414.89182     18.94185  0.00486   56740.9726   2.04169   0.35281     98198.91739  47.06303  19.58195  56922.44914    51.41905        44.9932    13.6325   19.69139  133.5    0.05116  -21.00482  0.99419 
    -9.5481  0.06533  2.11722     14.74061  1.70103  0.59357   2.02441  0.11086     0.16457  10606.78415   6360.35877  4.81658         2229.32989     17.15821    8e-05  56910.89184    1.3586   0.13226     23379.85478  47.47918   19.3181  56913.60316    51.28729       44.64529   16.66194   34.83861   22.0    0.77014  -21.43735  0.99724 
  -69.09267  0.39585  2.14695     13.72048  1.60166  0.35376  19.66484  0.01814     0.05764   3753.19844   7571.46794   2.2144         2389.60132     19.89027  0.04315  56851.34727   1.65242   7.78425   2483501.83088  45.41471   19.9165  56926.87212     51.0627       44.83336    6.05889   15.14722  223.0    0.02651  -21.55969  0.80226 
  -39.47134  0.02793  2.02861     13.90103  1.54113  1.53313   6.36595  0.03642     0.20262   7722.91448   7264.29604  0.40373         4426.71617     18.31902  0.00116   56880.9686   2.26492   0.17779    928929.49953   45.8743  19.86207  56931.55981    51.46393       44.53934   42.41222   60.58888   62.5    0.27228   -21.5802   0.9954 
  -13.36946  0.17464   2.4631     14.80033  1.73716  0.41579   2.42041  0.09871     0.06137  11083.93595   4361.22503  3.70742         2202.05101     17.87776  0.00042  56907.07048   1.77379    0.4227      24544.6436  47.33576  19.36574  56920.23764     50.9834       44.62698   10.60305   15.85056   26.0    0.68017  -21.46164  0.98725 
  -14.22102  0.00503  1.10108     14.42765  1.65346   1.0618   4.62823  0.03823     0.05136  10382.30092   4361.10973  1.45791         2302.61728     16.94858    5e-05  56906.21892   2.97597   0.02329     25974.79308  47.98905  19.55632  56922.44914    51.17489       44.87854    9.08833   15.53256   23.0    0.82017  -21.49209   0.9999 
  -24.64208  0.18549  1.98318     14.76888   1.4816  0.29423   3.83991  0.03553     0.16895   6258.54419    9971.0665  3.39105         2997.36114     17.44749  0.00016  56895.79786   0.89721   0.71225     15686.14985  47.64933  19.83753  56902.54569    51.80332       44.53868   80.28027  148.44277   21.0    0.72911  -21.91347  0.98224 
  -21.17311  0.31051  0.99473     14.68779  1.66874  0.81813  21.44885   0.0111     0.32135   8489.08323   6392.35868  2.27525         3120.67286     18.97358  0.00523  56899.26683   9.22047   6.66001      6457.01521  48.68579  19.28026  56904.75718    51.60183       44.79401   31.80916   46.95638   66.0    0.47984  -21.62835  0.98954 
  -42.47369  0.00337  2.46504     14.04376  1.80599  1.35073   3.59217  0.11724     0.17195  10114.59594   6630.74507  0.03542         4961.50169     18.00933  0.00057  56877.96625    2.1922    0.0121    833005.73543  45.82127  18.92679   56898.1227    51.54887       44.94137   15.14722    27.4463   51.0    0.28999  -21.57821  0.99963 
  -61.85827  0.37811   1.8077     14.45402  1.66511  0.34126     4.941  0.11211     0.35678   6804.83249   7537.02918  2.86493         2934.15743     16.07697    1e-05  56858.58167   1.36482   1.86824     62441.39765  47.18056  19.66151  56924.66063    51.36647       44.81785   18.17667   27.64919   60.5    0.22335  -21.45596  0.96699 
    -9.2755  0.21236  1.10118     14.65811  1.46747  0.67381   4.81199   0.0128     0.19336   5091.37762   7821.24513  1.75268         4447.22904     18.55441  0.00199  56911.16444   0.74408   1.02188      7977.93064   48.4498  19.80928  56902.54569    51.75254       44.64784   65.13305   92.39805   15.0    1.14477  -21.68749  0.99646 
  -65.05793   0.0062  1.78943     14.27583  1.67526  0.44391   4.51239  0.27549     0.02048   9661.78809   7790.43559  0.47838         3163.11659     16.91422    5e-05  56855.38201   2.51274   0.02799    139851.24975  46.84183   19.4735  56915.81465    51.58438       45.11284    9.08833   21.20611   34.0    0.28149  -21.44374   0.9995 
  -88.25189  0.06067   0.9401     14.11008   1.1407  0.40253  22.55892  0.06028     0.10988   3123.96994   7949.54083  4.95468         2488.72429     16.77104    3e-05  56832.18805   1.31329   1.36866     56385.99441   47.6285  19.67194  56909.18017    51.53957       44.77064   24.23555   48.47111   90.0     0.0658  -20.42176  0.98832 
  -60.17535  0.23316  1.63539     14.08067  1.69203  0.98538  18.86037  0.05247     0.12529     6465.764   5934.08961  0.95149         3877.70703     16.64594    2e-05  56860.26459   4.70346   4.39739    289825.16768  46.60787  19.29866  56909.18017    51.27531       44.63223   15.14722   30.29444   78.0     0.1315  -21.40526  0.93987 
  -24.75307  0.02176  3.05488     14.07525  1.58685  1.05907   5.52114  0.01926     0.09219   6412.68383   7825.62393  3.40244         2291.82677     16.93427    5e-05  56895.68687   1.35436   0.12013     972387.8254  45.51155  19.54398  56915.81465    51.23819       44.79907   15.14722     18.562   56.5    0.46359  -21.42333  0.99325 
  -71.45283  0.20593  1.69869     13.84096  1.45618  1.07793   9.07077  0.10014      0.0396   9227.37662    4350.9929  1.04899         2579.23812     17.97826  0.00053  56848.98711    4.6071   1.86798    811591.60517   46.0625  19.33834  56902.54569    51.55033       44.96351   19.69139    27.4463   54.0    0.19973  -21.61424  0.96427 
  -36.32462  0.01692  0.81874      14.2181  1.68961  1.36476  13.21001  0.04064     0.01678   3284.62086   9723.89786  4.32642         2383.87431     19.42228  0.01469  56884.11532   0.85016   0.22348     38520.72659  48.08465   19.4507  56920.23764    51.40534       45.01112    9.08833   19.69139   56.0    0.14557  -21.13988  0.99944 
  -57.46511   0.0011  2.15393      14.1423  1.80476  0.73675  15.56838  0.01372     0.01411   4522.31238   4418.95176  3.76571         2715.18889     16.49834    2e-05  56862.97483   1.89929   0.01717     403735.0323  46.25271  19.19503  56918.02615    51.32901       44.99691   10.60305   15.14722   66.0    0.27886   -21.4655   0.9996 
  -12.49231  0.00942  2.13383     14.64884  1.53215  0.51639   2.01507   0.0939      0.0153  10294.08991   4241.88152  2.01141         2421.50167     17.79645  0.00035  56907.94763   1.27378   0.01899     32640.07352  47.28208  19.47058  56926.87212    51.00132       44.73035   12.11778   15.14722   20.0     0.8822  -21.32878  0.99948 
  -37.05339  0.00522   1.0476     14.39185  2.02321  1.29285  18.14034  0.02882     0.09415   7041.12193   4886.30609  4.49947         2434.23054     16.15388    1e-05  56883.38655   5.36483   0.09469     33927.66812  48.00394   19.4429  56918.02615    51.30291       44.47161   24.23555      54.53   36.0    0.29433  -21.81591   0.9997 
  -36.55888  0.00195  2.57201     14.10392  1.67604  1.22033   4.92757  0.05431     0.01608   7508.91939   3455.64025   0.6544         4470.51034     17.84997  0.00039  56883.88106   1.65735    0.0096    637970.41584  45.86778  19.61298  56918.02615    51.15345       44.75085    9.08833   21.34804   40.0    0.36256  -21.48831  0.99965 
  -52.53195  0.00348  1.08783     14.08821  1.54571   0.8815  37.74738  0.01537     0.11617   2849.30041   6445.14045  4.26556         2447.47397     19.86061   0.0403  56867.90799   1.82806   0.13136    113146.75345  47.33121  19.61979  56925.55981    51.06168       44.69728   12.11778   15.53141   79.0    0.10307  -20.70311  0.99906 
  -25.63629  0.16483  3.29074     14.08239  1.63192  1.07642   3.53472  0.04136     0.12005   5617.39579   8256.07306  2.80529         2690.09329     17.60004  0.00022  56894.80365   0.66535   0.58263   1122822.35393  45.39665  19.40779  56915.81465    51.39474       44.82491   18.17667   28.92165   57.5    0.38554   -21.3686  0.96458 
  -23.68422  0.03305  3.62885     14.40165  1.67154  0.52851   4.16163  0.02789     0.02191   8210.36605   5036.36939  4.68808         2437.20037     17.75502  0.00032  56896.75572   1.67346   0.13754    321497.94586  45.86524  19.61642  56926.87212    50.98067       44.66818    7.57361   17.04614   39.0    0.59844  -21.62212  0.98995 
 -102.55961  0.00249  1.54328     14.04156  2.07706  0.79074  47.91175  0.06428     0.01665   4988.54883   7934.89553  3.79235         2343.82264     19.77456  0.03306  56817.88033   7.11242   0.11919    379348.66455  46.63037  19.81739  56931.55981    51.16344       44.85606   10.60305   15.28916   89.0    0.05139  -21.00069  0.99886 
  -18.77469  0.16864  1.74728     14.49313  1.54487  0.47485   5.47679  0.02394     0.26821   7853.59448   9888.44544  1.31308         2525.60955     19.92243  0.04647  56901.66525   2.01507   0.92361     45204.07278  47.31783  19.68944  56922.44914    51.12819       44.62692   15.14722   21.20611   37.5    0.56572  -21.43294  0.98304 
  -65.01444  0.02124  1.99582     13.92713  1.75229  1.35732  37.57665  0.02101     0.01612   4880.92774   5158.69055  4.92378         2150.42895     17.38766  0.00014   56855.4255   5.34011   0.79819    906568.53024  45.95481  19.66434  56966.67902     51.6501       44.53206   65.13305   103.0011   82.5     0.1099  -21.13697  0.98371 
  -34.95017  0.04746  2.11224     14.26946  1.66561  0.82535  12.07609  0.02301     0.11571   7515.31398   7873.04344  2.87642         2397.31567     17.13021    7e-05  56885.48977   4.06863   0.57314    199501.11404  46.54099  19.45957  56925.55981     50.9831       44.74231    6.05889   13.77443   40.0    0.38488   -21.6469  0.98599 
  -16.84166  0.00387  4.04439      14.2963  1.85815  1.14941    0.4779  0.18359     0.13723   6013.59053   6397.84498  2.41063         3255.46578     19.57443  0.02085  56903.59828   0.10309   0.00185    721100.67027  45.46622   19.4637  56909.18017    51.48975       44.87713   16.66194   33.32389   32.5    0.63335  -21.46829  0.99986 
  -20.12444  0.39946  1.67661     14.96745  1.47337  0.25809   9.93019  0.02931     0.23107  10760.21543   3869.70514  2.12955         2942.57195     19.36152  0.01277   56900.3155   6.85846   3.96667      4467.85433  48.33819  19.45603  56864.95029    51.91685       44.77212   68.16249  104.51582   38.5    0.56573  -21.63172  0.94165 
  -34.27268  0.00406  1.13403     14.39147  1.87686  1.03369  26.70823  0.02583     0.02019   8592.39456   6537.39091  3.76034         2258.73657     17.95292   0.0005  56886.16726  11.76253   0.10831     36944.55961  47.86548  19.20562  56922.44914    51.13812        44.8358   10.60305    13.6325   38.0    0.22943  -21.63624   0.9995 
  -48.52111  0.02279  2.49283     14.46665  1.74641  0.40614   6.28498  0.07654     0.38246   6060.52582     6407.923  4.01665         2534.31321     18.09915   0.0007  56871.91883   1.37706   0.14324    117501.25373  46.64756  19.36238  56922.44914    51.28768       45.02552    6.05889   15.14722   56.5    0.22189  -21.29014  0.99537 
  -14.01419  0.01254  2.24172     14.46257   1.7181  0.97481   9.29508  0.01263     0.02491   7461.98751   3156.59605  1.85175         3529.27014     19.80756  0.03567  56906.42575   3.08738   0.11655     95256.34806  46.82384  19.62753  56922.44914    51.46911       45.13655    9.08833   16.66194   19.5    0.90499   -21.6998  0.99703 
 -140.55606  0.35454   1.7815     13.47465  1.75527  1.11003  43.48649  0.04669     0.40474   3043.10943   3372.55567  2.36949         2109.45934     20.30688  0.11262  56779.88388   2.40224  15.41774   5813499.91021  45.24718    19.458  56997.63994    52.04876       44.59184  149.95749  275.67942  177.5    0.02923  -21.57318  0.78904 
   -24.5755  0.02625  1.39861     14.82341   1.5351   0.3453   6.86851  0.03838     0.13144   6627.89202   9185.10542  4.95072         3376.99168     16.71552    3e-05  56895.86444   1.79987    0.1803      6288.00676  48.36508  19.63263  56931.29511    51.07358       44.75688    13.6325   15.14722   23.0    0.63415  -22.18159  0.99828 
  -14.95339  0.04476  4.61552      14.6757  2.00246    0.462   4.16163  0.02151     0.05557   6363.91793   6869.10529  2.99478          2717.9626     19.71979  0.02914  56905.48655    1.0054   0.18626    176365.18613  45.99555  19.50498  56918.02615    51.45725       45.06579   12.11778   18.17667   38.0    0.62534  -21.25299  0.98336 
  -17.83819  0.00766  2.58578     14.60275  1.83038  0.56637   9.49447  0.02842     0.10579   8140.40219   5667.78725  2.08531         2305.64683     18.34408  0.00123  56902.60175   3.75309   0.07272     70799.78834  46.85617  19.70971  56911.39167     51.6136       44.47739   71.19194   99.97166   35.0     0.4306  -21.21185  0.99768 
  -42.00023  0.02697  1.63675     14.81202  1.52107   0.1506  15.74155  0.02634     0.01849   8394.70113   8080.72042  0.03474         3392.38819     17.65622  0.00025  56878.43971   6.61737   0.42461      8992.71398  48.06914  19.32504  56909.18017    51.40427       44.90992   12.11778   21.20611   45.5    0.27845  -21.37134  0.99281 
   -66.9698  0.00145  1.09543     14.11353  1.92884  1.44097  12.91519  0.05641     0.14892   5133.88973   7257.58672  2.57048          2553.0355     19.35993  0.01272  56853.47014   2.03058   0.01872    127413.31857  47.36976   19.4382  56911.39167     51.4824       44.97791   12.11778     27.265   60.5    0.16151  -20.88149   0.9999 
  -62.83737  0.05744  1.14584     14.06152  1.71246  1.35392  12.60581  0.04618     0.11785   7064.44734   6921.91443  3.87965         2904.84282     19.88503  0.04263  56857.60257   3.75279    0.7241    157270.15314  47.18757  19.64316  56906.96868    51.41044       44.65828   28.77972   39.38277   52.0    0.25352  -21.35681   0.9951 
  -11.98154  0.00542  1.70388     14.42965  1.51007  1.00591   2.85422  0.10258     0.17963  13924.83084   6690.94224  1.89786          2217.2228     20.10422  0.07062   56908.4584   3.30137   0.01547     56283.53073  47.23458  19.39104  56918.02615    51.28393       44.76137   18.17667   25.75028   22.5    0.78569  -21.51084  0.99975 
  -47.93849  0.11102  1.54171     13.85026  1.67263  1.42146   2.82748  0.20268     0.01208  13628.37946    7484.1336  2.35867         3546.06403     18.27409  0.00104  56872.50145   3.13267   0.31391    735707.48514  46.24954  19.44029  56904.75718    51.57931       45.05534   16.66194   24.23555   23.0    0.67274  -22.64984  0.99586 
  -16.28323  0.00166  0.75579     14.79017  1.78084  0.64508   2.40189  0.12043     0.06572   12071.7893   5484.88421  1.67062         3478.34207     16.34811    1e-05  56904.15671   2.08797   0.00399      2482.54387  49.36778  19.60395  56915.81465    51.17723       44.69635    13.6325   22.86277   19.0    0.87769  -21.71878      1.0 
  -13.22043  0.04006  2.14203     14.17032  1.79541  1.26626   5.23373  0.02042     0.41679   7893.36639   9092.41001  3.91665         2079.42988     20.83764  0.38227  56907.21951   1.94519   0.20965    349131.63893  46.31837  19.58734  56926.87212    50.82967       44.48338   11.13683   16.12817   29.5    0.74782  -21.98912  0.99524 
  -41.01809  0.03378   2.1282     14.48556  1.49706  0.30811   4.04055  0.04502     0.06035   8040.22126   4193.52747  4.37197         2870.51714     18.06434  0.00064  56879.42185   1.55813   0.13647     67291.50317   46.9601  18.63143  56902.54569    51.40152       44.98459    13.6325   18.17667   29.5    0.61029  -22.29934  0.99595 
  -12.09746  0.10368  4.92659     14.31536  1.66424  1.49407   1.12287  0.08956     0.12301   8015.32696   9805.22564  4.62567         3145.20121     19.06899  0.00651  56908.34248   0.43033   0.11642     877817.0492  45.16156  19.57374  56925.43994    51.47835       45.18002    9.08833    13.6325   22.0     0.8872   -21.5545  0.98436 
   -17.7939  0.16168  2.49864     14.23247  1.65195  1.56172   2.57318  0.09791     0.02654  12474.15484   8364.47863  0.24489          5444.1229     18.58223  0.00212  56902.64604   2.38847   0.41604    328312.92036  46.17515  19.04686  57110.42615    52.24812       44.87062  148.44277  201.45804   22.5    0.72483  -21.52349  0.98563 
  -29.41951  0.01853  1.60835     14.58823  2.09318   0.9268  12.85487  0.03849     0.06557   9300.15677   3599.47317  2.27812         2241.96238     17.64912  0.00025  56891.02043   6.63247    0.2382     33490.17135  47.65197  19.36852  56913.60316    51.13315       44.69631    13.6325    21.8934   31.0    0.39212  -21.38214  0.99804 
   -44.7747  0.04132  2.50495     14.06433  1.72966  1.12375   3.67329  0.12851     0.16114   9885.48134   8303.69116  2.30948         2361.55414     17.69021  0.00027  56875.66524    2.1413   0.15179    749390.74828   45.8345  19.23283  56915.81465    51.19703       44.69792   12.11778   19.83332   44.0    0.28796  -21.68389  0.99497 
  -25.78406  0.24331  1.27504      14.6512  1.94362  0.42757  12.66243  0.01184     0.20406   9836.60118    6702.2987  0.23418         3528.20136      18.6078  0.00225  56894.65588    7.3086   3.08084     14624.55428  48.18133   19.5062  56922.44914    50.87268       44.48281   12.11778   18.17667   63.5     0.4633  -21.48855  0.98041 
  -39.92658  0.05308  0.78616     14.31058  1.71508  0.99774  12.66637  0.02468     0.05483   6320.09386   4540.51296  1.56751          3920.2399     16.25403    1e-05  56880.51336   3.01805   0.67239     23548.68789  48.34014  19.56044  56922.44914    51.30139       44.94854    13.6325   16.66194   34.0    0.39119  -21.67529  0.99861 
  -19.82989  0.18959  0.71171     14.68514  1.99332   1.3287   2.25132  0.26392     0.17054  15998.54801    5357.0415  4.85282         2226.90355     19.32826  0.01183  56900.61005   3.43737   0.42683      3996.83266   49.2621  19.94681  56945.11328    51.54321       44.62455    40.8975   65.13305   23.5    0.56661  -21.50854  0.99989 
  -16.72507  0.01124  1.08255     14.41176  1.79599  1.11223    18.571  0.02922     0.02147  11757.60007   3037.19828  0.17974         4574.14218     17.84373  0.00039  56903.71487  15.31439   0.20868     29342.58893  47.98676    19.854  56931.55981    51.14377       44.93762    6.05889    13.6325   26.0    0.52582  -21.56577  0.99919 
  -40.12459  0.00587  1.84227     14.18944   1.6625  1.11086   8.09079   0.0546     0.02592   9505.05057   3217.40205  4.54939         2558.29581     19.59013  0.02162  56880.31535    4.3604   0.04749    218984.72134  46.61848  19.56087  56915.81465    51.32901       44.93295   12.11778   18.17667   34.5    0.40908  -21.89451  0.99911 
  -14.24506  0.02511   3.8218     14.78683  1.92905  0.31541   2.73921  0.04872     0.02063   8022.99446   7955.46695  4.00636         2071.10949     19.11965  0.00732  56906.19488   1.05178   0.06879     69827.61443  46.54563  19.44415  56889.27672    51.47799        44.6985   30.29444   43.92694   38.0    0.53947  -21.26303   0.9955 
  -50.95288  0.00692  0.74397     14.49718  1.43259  0.37142    6.8428  0.07428      0.1355   6266.97521   7289.79781  4.48446         2150.77284     18.45061  0.00157  56869.48706   1.60316   0.04737      7459.04373  48.80917  19.55202  56922.44914    51.37005       45.03674   10.60305   15.14722   47.5    0.22765  -20.93114  0.99986 
  -20.71306  0.25921  2.52825     14.53047  1.83109  0.99071    2.0214  0.24647     0.40746  18318.25709   4522.72414   2.6327         2782.79681     18.98458  0.00536  56899.72688    4.0462   0.52397     94452.85177   46.7507  19.79921  56882.64224    51.71611       44.60416   71.19194   92.39805   22.5    0.74351  -21.88734  0.98476 
  -62.67955  0.00281   2.8129     13.90492  1.93333  1.15615   5.67443  0.12387     0.10817   9555.17423   8006.05811   0.8582         2867.93538     17.27419   0.0001  56857.76039   3.09048   0.01594   2200858.70119  45.31425    19.718  56926.87212    50.98919       44.70837    9.08833   15.14722   58.5    0.18605  -21.76269  0.99942 
  -33.76617   0.2087  1.87173     14.92679  1.76551  0.17056   6.67097  0.04128     0.02495   8493.89715   8419.65116  0.55368         3991.05268     16.27606    1e-05  56886.67377   2.87098   1.39222      8046.24562  48.06564  19.86931  56951.19856    51.74703       44.60423   48.47111   116.6336   41.5    0.39598  -21.61464  0.97589 
  -41.58463  0.03782  1.32147     14.18103  1.61674  1.54091  35.39005   0.0153      0.2096   5233.98567   9806.05944  3.46445         3242.52203     17.36023  0.00013  56878.85531   5.78327   1.33834    113895.71484  47.17886  19.64358  56922.44914    51.49477       44.99202   15.14722   22.72083   44.0    0.21685  -21.42621  0.98747 
   -8.16539  0.00107  1.43841     14.61814  1.59729  0.79638   2.53001  0.04706     0.03797   6319.89496   9034.02622  3.09537         2396.50203     20.06327  0.06427  56912.27455   0.60279    0.0027     17810.43559  47.90579  19.69419  56926.87212     51.0579        44.7484    9.08833   15.53141   19.0    0.81591  -21.23092  0.99998 
  -66.11295   0.0427  2.52557     13.99141  1.65813   0.4523   7.86743  0.08207     0.05543   4871.64381   3610.70124  4.12798         2118.34985     18.42972  0.00149  56854.32699   1.11381   0.33595   1021725.91781  45.67441   19.4246  56911.39167    51.29623       44.68466   16.66194   33.32389  117.0    0.08503  -21.38214   0.9876 
  -24.10075  0.06142  2.55675     15.16666  1.74974  0.09979   7.83931  0.01098     0.07041   7606.84095   8219.78389  1.31499         3555.76509     18.14844  0.00078  56896.33919   2.70591    0.4815      4930.05602  48.00359  19.60536  56925.55981    51.33174       45.12264    6.05889    13.6325   40.0    0.62388  -21.72199  0.98394 
  -70.86539  0.00237  2.40835     13.90759  1.72072  0.96599   7.72453  0.07107     0.32368   6358.00861   8978.23061   2.5324         2311.39293     17.57402  0.00021  56849.57455   1.86269   0.01833   1418342.63744  45.58933   19.7324  56913.60316    51.38528       44.63751   22.72083   37.86805   64.5    0.16093   -21.3867  0.99943 
  -26.59079  0.07217  0.89681     14.48529  1.83056  1.37872  31.44037  0.01008     0.01218   6240.05179   6371.22469  2.00145         3470.71378     16.24524    1e-05  56893.84915   7.30283    2.2692     14628.88629  48.46082  19.13107  56882.64224     51.6548       44.88528     27.265   46.95638   32.0    0.40585  -21.63145  0.99679 
 -131.87308  0.07886  1.44094     13.76229  1.94776  1.47046  62.65623  0.07418     0.17197   3854.88083   3448.85273  1.46657         2407.57116     18.97572  0.00525  56788.56686    5.5541   4.94127   1122201.07347  46.19102  19.10752  56913.60316    51.33692       44.94714   12.11778   16.66194  119.0    0.03391   -20.9591  0.95629 
  -30.45033  0.02967  2.28693     14.28045  1.83232  1.03911   3.09165  0.10018     0.09061   8055.53668   8976.44606  1.25487         4195.83991     18.07962  0.00067  56889.98961   1.19676   0.09172    244584.94215  46.42491  19.70236  56925.43994     51.1128       44.50009   18.17667     27.265   32.5    0.45197  -21.85121   0.9977 
  -31.88428  0.06969  1.95129     14.25806  1.64428  1.26874   7.19287  0.06992     0.15485   9797.21797   8950.24742   3.8775          2466.3005      19.1027  0.00704  56888.55566   4.11846   0.50129    177137.37453  46.65587  19.51378  56891.48822    51.51078       44.83182   19.69139   39.76811   32.0    0.37574  -21.68396  0.98952 
  -45.41994  0.00615  2.28275     14.36754  1.66678  0.48743  13.19692  0.02082     0.02531   5672.81884    6773.4679  2.27066         3289.98665      17.6563  0.00025     56875.02   2.53336   0.08115    148432.40758  46.60228  18.97947  56891.48822    51.60571       45.00248   16.66194   31.80916   46.5     0.3121  -21.58577  0.99764 
  -24.87808  0.00375   1.7957      14.3658  1.71561  1.17073   3.40573  0.13697     0.02928   9758.11277   9112.13977  2.77458         2516.58409     19.76297  0.03219  56895.56186    1.9345   0.01276     95299.98138   47.0157  19.70414  56924.66063     51.5109       45.27551    7.57361   13.78654   27.5    0.42156  -21.52804   0.9998 
  -60.32109  0.03529   1.5095     14.46198  1.58247  0.32622   5.30372  0.15297     0.25616    8485.5241   4797.55885  3.88921         3202.37738     18.95069  0.00496  56860.11885   2.27806   0.18716     39889.31547  47.50966  19.61279  56911.39167    51.39324       44.53655   34.83861   53.01527   47.0    0.26274  -21.60399  0.99745 
  -28.16431  0.00117  2.18768     14.44051  2.11617   1.0339   7.32642  0.02438     0.05007   6446.41391   6609.39796  1.67798         4405.83622     20.15681  0.07971  56892.27563   1.81616   0.00855    123683.01372  46.82212  19.47698  56926.87212    51.00213       44.77131    7.57361    11.3064   24.5    0.61049  -22.07097  0.99984 
  -40.57541  0.38899  2.46223     14.24237  1.77793  0.81375   5.37356   0.0535     0.23021   6513.46168   4459.77943  1.84457         3297.67186     16.24681    1e-05  56879.86453   1.35992   2.09028    327827.83315  46.22046  19.73746  56922.44914    51.23005       44.70084   21.20611   25.75028   53.5    0.32652  -21.70036  0.93957 
   -7.64644  0.00854  2.09353      14.5327  1.78255  1.21345    2.3055  0.09706     0.01958  11769.57658    5189.7053   3.2061         2350.27769     18.32682  0.00118   56912.7935   1.90508   0.01968     62404.33402  47.08291  19.70433  56915.81465    51.42413       44.67143     27.265    40.8975   19.0     0.8759  -21.50774  0.99963 
  -51.08117  0.00448  2.49642     13.87827  1.57512  1.50766  11.33669  0.02247     0.08284    4091.4978   7196.82972  4.30372         2625.51472     18.75514  0.00316  56869.35877   1.13208   0.05078   1596719.31334   45.4683  19.61826  56931.29511    51.39546       44.76945   18.17667   30.29444   71.0    0.23266  -21.33531  0.99806 
  -40.65702   0.0137  1.75001     14.28989  1.72678  0.86293  21.59341   0.0193     0.01998   6598.96638   9783.06815  2.13869         2883.67587     19.88698  0.04283  56879.78292   5.60919   0.29586    129225.61154  46.90865  19.79921  56944.56408    51.63234       44.62992   45.44166   81.79499   37.5    0.28159  -21.45884  0.99531 
  -64.27382   0.1932  1.73544     14.00156  1.97561  1.26162   7.96214  0.04023     0.15109   7483.85897   7199.70031  1.03409         4551.35078     19.56864  0.02058  56856.16612   2.66016    1.5383    548540.56045  46.34652   19.3832  56915.81465    51.22138       44.76895   12.11778   19.69139   62.0     0.2708  -21.95462  0.98031 
  -44.97699  0.00901   2.8558     14.10846  2.06273  1.34268  12.18424  0.01294     0.01415   6192.15439   5140.93962   1.9326         3353.32021     19.37035  0.01303  56875.46295   2.78682   0.10974    947974.71719  45.69503  19.54285  56913.60316    51.58484       45.11097   16.66194   22.72083   53.0    0.38166  -21.79642  0.99636 
  -26.58757    0.003  3.02451      14.3512  1.64496  0.51582   3.35522  0.14122     0.02861  13191.42238   5959.78435  2.81629          2502.3163     19.02579   0.0059  56893.85237   3.48283   0.01005    277257.15544  46.08081  19.80193   56935.7181    51.76674       44.72519   33.32389   93.91277   29.0    0.46262  -21.85028  0.99947 
 -152.43552  0.00617  1.60892     13.83461  1.89111  0.57776  58.02143  0.11106     0.03361   4426.50091   8984.70081  2.38308         2364.99047     16.79417    3e-05  56768.00442   6.78167   0.35814    973609.52655  46.14411  19.75156  56920.23764    51.30317       44.80113   16.66194   21.34804  159.0    0.02074  -20.93606  0.99563 
  -19.95284  0.01527   3.6302     14.54704  2.05015   1.0869   9.19189  0.01766     0.05623   7428.94948   9892.05416  2.79411         3617.80189     17.41013  0.00014   56900.4871   3.02613   0.14037    202013.80431  46.15539  19.79255  56924.66063    51.20964       44.84846    9.08833   16.66194   21.5    0.76525  -21.74795  0.99257 
  -17.96303  0.01164  1.60705     14.31012  1.32525  0.88309   7.48379  0.03141     0.07898    11014.953   7323.29108  2.72107         2333.78215       19.716  0.02889  56902.47691   5.41644   0.08713     76195.96905  47.09715  19.76025  56924.66063    51.31244       44.57289     27.265   43.92694   24.5    0.69412  -21.63136  0.99835 
 -171.70848  0.24275   1.8022     13.61728  1.45079   0.3191  41.99885  0.02118     0.45316   3032.42941     6550.397  1.69814         2398.86954     17.02146    6e-05  56748.73146   2.30381   10.1951   2549536.84638  45.51238  19.14118  56913.60316    51.20329       44.85851   10.60305   16.66194  251.5    0.03791   -21.5194  0.78689 
  -84.15324  0.20488  1.78567     14.13665  1.66917  0.44379   6.76829  0.19513     0.30455   9183.60574   3317.86404  0.95472         2500.67809     17.47272  0.00016   56836.2867   3.40512   1.38671    263404.72755  46.56712  19.73603  56924.66063    51.38542       44.84245   18.17667   25.75028   66.0    0.16455   -21.6978  0.97573 
   -7.63674  0.19777  1.75924     14.69465  1.79087   0.9851   2.69959  0.06756      0.1908   10486.4141   8318.69392  4.86978         2577.36223     19.76143  0.03207   56912.8032   1.77084    0.5339     21000.33683  47.70903  19.64998  56925.47998    51.05286        44.6884   12.11778   16.66194   18.0    1.03141  -21.70004  0.99507 
  -59.86136  0.12692  1.30086     14.16115  1.89587  1.27532   5.44431  0.17955     0.17625  10061.08134   4158.28862  0.84691         2241.70521      18.9811  0.00532  56860.57858   3.28745   0.69098    141834.75024  47.16641   19.5828  56922.44914    51.19958       44.72856   10.60305    18.3186   46.0    0.24792  -21.32758  0.99483 
 -198.30884  0.21324  1.79107     13.62496  1.72193  0.57042  75.89187  0.01144     0.01591   3011.20677   7621.27774  0.68706         3866.91569     16.09249    1e-05   56722.1311   4.10491  16.18281   2884961.50251  45.53849  19.56708  56918.02615    51.28683       44.75038    13.6325   28.77972  173.0    0.05812   -21.6121  0.77063 
  -16.05686   0.0032  3.31181     14.36609  1.71447  0.87458   3.04079  0.02239     0.15441   5753.91173   4372.53744    2.252         3808.95065     17.60197  0.00022  56904.38308   0.60054   0.00974    323515.54899  45.95295  19.63702  56913.60316    51.27578       44.61863   22.72083   31.80916   22.0    0.85165  -21.84268  0.99943 
  -17.69352  0.12502  1.10471     14.45956  1.67955   0.9893   2.34476  0.13518     0.11003   14166.9933   9365.41536  1.43864         3304.38034     20.55402  0.19895  56902.74642   2.80725   0.29314      22929.1839  48.04715  19.42388  56924.66063    51.15257       44.90252    9.08833   12.50311   20.0     0.8725  -22.07578  0.99878 
  -31.08147  0.01672  1.41038     14.31193  1.99509  1.47461  16.03438  0.01916     0.01295  11178.18301   4068.63484   0.2997         2402.35796     18.38369  0.00134  56889.35847  11.95148   0.26814     87617.83344  47.32754  19.78408  56951.19856    51.84177       44.63072   90.88333  121.17777   33.0    0.51821   -21.5999  0.99794 
 -178.62555  0.38139  1.38259     12.84627  1.74988  1.47183  73.29246  0.04173     0.01537   2882.15688   5598.82545  0.90873         4027.38207     20.29054  0.10846  56741.81439    3.6318  27.95327  63049299.16421  44.43078  18.92713  56913.60316    51.08988       44.68767   10.60305   20.39473  356.0    0.01407  -22.14784  0.70436 
  -18.79371  0.01931  2.97886     14.21027  1.72078  1.18106   3.25226  0.09948     0.01093  13325.26451   4351.58119  0.63445         3589.87007     18.06107  0.00064  56901.64623    3.4448   0.06281    538407.18175  45.82536  19.89113  56926.87212    51.02597       44.63515   12.11778   16.66194   20.5    0.84946  -21.64739  0.99704 
  -33.99787  0.00103  1.91809     14.93073  1.72657  0.15004   4.94767    0.058        0.25  11392.78178   9014.89893   0.7227         2849.23211     20.23402  0.09522  56886.44207   3.83078   0.00507      8114.68343  48.03102  19.97462  56931.29511     51.1261        44.7022   12.11778   19.69139   34.5    0.47015  -21.83136   0.9999 
 -124.18484  0.15867  2.37552       13.573  1.70104  1.11648  44.50071  0.02303     0.18247   2954.00474   3150.65423  4.80198         2641.62926     17.38532  0.00013   56796.2551   2.31642   7.06074   6368802.19345  44.94398  19.85229  56925.55981     51.4396       44.92829   15.14722   24.62089  162.5    0.04963  -21.29256  0.81359 
  -34.49276  0.29156  1.99806     14.42773  1.87762  0.84427  14.83152  0.01287     0.13538   5824.34123   5657.19149  4.14711          2373.0667     17.69545  0.00028  56885.94718   3.00128   4.32433     97090.37259  46.95406  19.42462  56900.33419    51.54142       44.86079   21.20611   38.57139   39.0    0.46461  -21.74255  0.92737 
   -46.0113  0.00635  0.80844     14.11081   1.3223  0.87904   13.4374   0.0372     0.07556   7687.67468   7955.87529  1.25594         3085.17599     20.00795  0.05658  56874.42864   4.73732   0.08531     48174.06953  47.89207  18.71739  56889.27672    51.56548       44.97953   16.66194   30.29444   39.5    0.28999  -21.31864  0.99962 
    -67.101  0.01244  1.95984     14.30732  1.37695  0.28665  11.80973  0.05408     0.45601   6055.73575   7306.10505  3.43527         2313.25871     17.40546  0.00014  56853.33894   2.58346   0.14697    119271.18953  46.74679  19.81841  56929.08362    51.09349       44.82001    7.76702   15.09575   68.0    0.16171  -21.24477  0.99578 
  -39.36626  0.12239  2.41746     13.95311  1.51282  1.28111   2.26211  0.23064     0.09659  12678.02284   8514.84586  3.60715         2082.13725     17.38751  0.00014  56881.07368   2.16892   0.27686   1018839.58938  45.67381  18.07555  56900.33419     51.5505       45.17111   16.66194   16.66194   35.0     0.3243  -21.90678   0.9896 
  -51.11388  0.01462  1.31954     14.04795  1.67411  1.22696  22.51795   0.0126     0.07067   5093.31711   8142.29068  2.09972         2387.27177     17.63065  0.00024  56869.32606   3.48464   0.32916    217042.44415  46.91524  19.30133  56922.44914     51.1404       44.89428    6.05889   15.14722   62.5    0.23803  -21.16258  0.99688 
  -85.74924  0.20863  1.22882     14.61546  1.61586  0.11438  21.69237  0.12878     0.23583   3287.62807   4590.67477  1.05443         3971.34412     18.46194  0.00161   56834.6907   1.39862   4.52563     13312.93553    48.174   19.4916  56913.60316    51.32587        44.8497    13.6325   21.59145  122.5    0.03361  -21.28346  0.96135 
  -31.21869  0.18526  2.09399      14.3331  1.80357  1.45812   4.47965  0.07976     0.16992   7948.65199   8794.34992  3.08668         2640.75251     17.15958    8e-05  56889.22125   1.68833   0.82989    158381.25484  46.68333  19.49647  56920.52002    51.30129       44.77008    9.08833   19.83332   33.0    0.38258  -21.56264  0.98287 
  -23.98771  0.17529  4.11158     14.28343  1.83566   0.7295   2.19906  0.06495     0.12131    8092.4669   9171.34076  3.24049         2648.72885     16.23795    1e-05  56896.45223   0.85907   0.38548    781188.17958  45.41186  19.70531  56915.81465    51.44551       44.64702   31.80916   46.95638   46.5    0.43698  -21.48852  0.96909 
  -12.53991  0.23616  1.11693      14.7941  1.26379  0.37474    3.2559  0.15696     0.06394  18213.26474   8971.55305  3.75682         2291.48846     18.27809  0.00105  56907.90003   6.44278   0.76892        3778.618  48.69714  19.70076  56920.23764    51.56547       44.54087   53.01527   84.82444   18.5     0.7016  -21.73697  0.99588 
  -52.62096  0.25141  1.45623      14.7295  1.64781  0.24497  28.16244   0.0119     0.11767   6019.88636   4960.99868  2.82409         3108.12186     18.90154  0.00443  56867.81898   6.08799   7.08023     11276.84226  48.10711  19.10976   56898.1227    51.48083       44.82277   21.20611    32.1945   91.5    0.23384  -21.53284  0.92335 
  -42.33659  0.05828  1.93085     14.44767   1.9771  0.59565   4.88236  0.13615     0.06152   9960.27312   8263.91307    0.195         4168.00656     18.63875  0.00242  56878.10335   2.88934   0.28453     87096.68792  47.05338  19.38646  56925.47998     51.1803       45.00939    6.05889   10.60305   35.5    0.29435  -21.56526  0.99548 
 -138.92755  0.14742  1.67765     13.38543  1.36567  1.21106  64.91708  0.01314     0.05849   2596.82835   7190.08667  3.58752          2059.4584     17.31642  0.00012  56781.51239    2.6114   9.57017   6049378.76558  45.17308  19.47243  56913.60316    51.38644       44.73685     27.265   34.83861  179.5    0.04113  -21.22557  0.82471 
  -37.75195  0.42617  0.88521     14.51941  1.90909  0.73604  16.36629  0.01711     0.13732   7587.12998   6778.35892  0.83858         3492.05861     18.00736  0.00057  56882.68799   5.61995   6.97478     12703.29338  48.55166   19.9321  56906.96868     51.4146       44.47202   37.86805   71.19194   82.5    0.34318  -21.57176  0.98567 
  -67.48959  0.00751  0.98537     14.11175   1.9758  1.46594  73.83121  0.01157     0.06081   3900.62057   6954.59893  3.40653          2268.0097     18.39729  0.00139  56852.95035   6.70092   0.55414    106475.68058  47.55014  19.51629  56922.44914    51.48014       44.68963     27.265   45.44166   76.0    0.10152  -20.66833  0.99783 
  -38.41616  0.23057  1.47923     14.38977  1.54684  0.87253  20.03354  0.02607     0.20517   7831.00886   8290.93704  4.86335         2927.25307     18.37174  0.00131  56882.02378   7.32859   4.61903     52213.87189  47.40043   19.6737  56920.43994    51.25532       44.80616    13.6325   19.69139   46.5    0.29968  -21.71839  0.94692 
    -31.596  0.24318  3.37228     14.18879  1.95591  1.37423    2.2757  0.06527     0.04738   6960.03509   8840.38085  2.64066         2639.88893     17.21867    9e-05  56888.84394   0.65761   0.55341     865840.9904  45.56691  19.35537  56904.75718    51.50819       44.81351     27.265   36.49527   45.5    0.46143  -21.57623  0.97296 
  -57.79782  0.00473  1.81159     14.64258  1.83295  0.23146  15.31099  0.02045     0.11086   5156.98576   6029.20304   2.0748         2726.68933     19.14055  0.00768  56862.64212   2.42897   0.07244     28968.37041  47.55395  19.95781  56924.66063    51.30396       44.62251   18.17667   42.41222   70.5    0.21727  -21.30983  0.99885 
  -32.00523  0.25107  0.98988     14.35551  1.76566  1.43978   9.82915  0.04818     0.12659  14012.18118   7566.80009  0.39861         3256.45515     18.96041  0.00507  56888.43471   11.5121   2.46781       31251.642  48.02972  19.03067  56895.91121     51.5003        44.9283   18.17667     27.265   27.5    0.57001  -21.87124  0.99246 
  -23.48465  0.08962  2.67927     14.12652  1.61287   1.0687   5.27243   0.0171     0.02913    7433.6218   7890.26492  1.54284         3806.16728     18.63551   0.0024  56896.95529   1.73796    0.4725    600349.08288  45.84201  19.82615  56929.08362    51.03797       44.80128    7.76702   14.95381   38.5    0.59658  -21.89025  0.98043 
  -16.36879  0.00118  2.84777     15.00841  1.52931  0.12316   1.22719  0.19772     0.01049  10466.04974    6107.3988  1.83731         3265.04801     16.82012    4e-05  56904.07115   0.80187   0.00145      11078.9112  47.49983  19.33787  56911.39167    51.33522       44.81591   12.11778   28.77972   18.5    0.93645  -21.70339  0.99993 
  -46.09212  0.05297  0.92054     14.16581  1.61585  1.49121  58.70257  0.02684     0.03277   6397.31349   8923.79346    4.653         3328.62766     19.73773  0.03037  56874.34782   14.3311   3.10938     59247.64409   47.7765   19.7803  56922.44914    51.24951       44.77707   16.66194   21.90945   63.0    0.11005  -21.22731  0.98777 
  -24.29667   0.0031  1.60722     14.43434  1.88012  1.55455  14.65012  0.02404     0.04121   8777.10725   4987.67293  4.45339         2256.62976     16.42225    1e-05  56896.14327   6.73242    0.0454     61018.99014  47.34542   19.8131  56918.02615    51.43146       44.66855   24.23555   48.47111   28.5    0.43795  -21.51926  0.99955 
  -16.22116   0.0016  3.12472     14.79632  1.64208  0.29926   7.02109  0.01407     0.04059   4965.82243   3406.98103  2.31291         3471.02527      17.2986  0.00011  56904.21878   1.03279   0.01123     38035.90594  46.91442  19.76149  56925.43994    51.21088       44.66994   16.66194   22.72083   25.0    0.66208  -21.44651  0.99938 
  -48.38308  0.25726  1.89323     14.73451  1.96513  0.28102   6.03838  0.15351     0.06038  12974.32773   4409.02267  0.81547         2188.85473     17.83283  0.00038  56872.05686   6.06342   1.55344     22212.62824  47.66123  19.50446  56918.02615    51.11689       44.72535   12.11778   18.17667   38.0    0.28537  -21.71728   0.9765 
  -50.71405  0.00611  1.77366      14.2191  1.43943  0.48896   3.33091  0.30674     0.10541   6805.69052   7295.10888  3.79263         2342.11436     19.71974  0.02914  56869.72589   0.92031   0.02035    153303.78575  46.74374  19.71614  56924.66063    51.41151       45.11032    9.08833   15.14722   54.5    0.14705  -21.31585  0.99955 
 -162.43187  0.22776  1.36449     13.17415  1.83889  0.76741  40.42688  0.02635     0.12261   4582.32756   6544.75992  0.13605         3681.70771     20.78237  0.33659  56758.00807   5.06372   9.20767  14256489.77422  45.10945  19.62803  56933.50661    52.14948       44.84714   77.25083  174.19304  309.5    0.02873  -22.37097  0.90683 
