 texplosion  fnickel    Pspin  log(Bfield)      Mns  thetaPB   mejecta    kappa  kappagamma     vejecta  temperature    alpha  cutoff_wavelength  log(nhhost)      A_V         MJD0  kenergy  mnickel            TSD   log(L0)  Peak_mag     Peak_MJD  log(E_rad)  log(Peak_lum)  Rise_Time    E_fold  tau_1  delta_m15     r_peak     frac 
  -13.30405   0.3854  5.00878     14.14451  1.75521  1.44469   8.33484  0.05479     0.05866  4670.31244   7155.17164  4.47766         2931.14218     20.30215   0.1114  53608.52321  1.08447  3.21222  2101782.05184  44.79112  19.49083  53657.43644     51.0261       44.16354   32.44019  52.26475   84.5    0.14774  -20.95498  0.70271 
   -7.42811  0.11958  3.11162     14.60533  1.81647  0.55334   13.5638  0.05963      0.0739  4908.75607   6706.17692  4.30228         3037.61335     20.18305  0.08468  53614.39916  1.94963    1.622   100542.24104  46.53975  19.46715  53657.43644    51.28291       44.48868   21.62679  41.45135   59.5    0.14141   -20.9407  0.92879 
   -5.56667  0.00741   1.1592     14.44262  1.75058  0.80713  16.51062  0.06045     0.02633  5097.81733   4165.69037  2.40564         3175.21946     20.73304  0.30045   53616.2606  2.55952  0.12235    28449.68504  47.92964  19.51353   53659.7451    50.86249       44.06941   30.63796  48.66029   49.5     0.1418  -21.15672  0.99933 
   -7.38268  0.01415  2.75065     14.31609  1.80012   1.3262  11.95951  0.08423     0.02122  5386.23307   5811.83122  3.59318         3034.59664     19.87069  0.04125  53614.44459  2.06972  0.16927   294993.89322  46.17546   19.5152   53659.7451    50.99038       44.23438   25.23126  46.85805   51.5    0.14173  -20.91737  0.99372 
   -4.21281     0.02  1.78409     14.47754  1.78904  0.95353  15.57052  0.07162     0.03033  5076.18641   8799.18779  4.02152         3064.99429     19.96278  0.05099  53617.61446  2.39335  0.31136    58638.96661  47.25044  19.47274   53659.7451    50.90574       44.14274   28.83572  45.05582   49.5     0.1242   -20.8874  0.99555 
   -6.12224  0.00888  2.48805     14.43943  1.83107  0.98798  27.66942  0.04184     0.04122  5223.99484   4333.74932  4.91249         2989.64418     16.08821    1e-05  53615.70503  4.50436  0.24571   139119.98768  46.59644  19.47585  53662.05376    51.05705        44.3025   27.03349  44.11626   54.0    0.13057  -20.84093  0.99284 
   -9.00577  0.08927  3.76262     14.58475  1.78866  0.52007  12.37664  0.05846      0.0168  4788.26404   9019.47463  4.20914         3053.60272     16.46557    2e-05   53612.8215  1.69272  1.10487   159154.89578  46.16857  19.43988   53659.7451    50.98402       44.26034    16.2201  46.85805   52.0    0.15104  -20.85566  0.92703 
  -15.15442  0.02463   4.7329     14.18744   1.8053  0.74014  20.69994  0.02175     0.10593  4664.46812   3674.54396  4.72064           2923.257     20.21205  0.09053  53606.67285  2.68659  0.50982   1583979.5064  44.97539  19.45444  53657.43644    50.93393       44.09233   32.44019  46.85805   74.5    0.15537  -20.94086  0.94507 
  -14.61459  0.39961  5.73486       14.148  1.85594   1.3757   8.33261  0.04743      0.0174  5150.63429   5018.25302  2.44898         3015.96529     18.16507  0.00081  53607.21268  1.31865  3.32979  2866986.47506  44.56294  19.49413  53657.43644    51.07635        44.1963   30.63796  52.26475   85.5    0.14405  -20.85755  0.65244 
  -12.19846  0.22865  5.04123     14.33993  1.55988  0.58951  15.97101    0.025     0.05541  5117.78866    7256.7645  2.23684         3132.20722     18.29644   0.0011  53609.62881  2.49531  3.65177   769336.00944  45.17075  19.48281   53659.7451    50.95951       44.17647   28.83572  46.85805   93.0    0.15281  -20.86498  0.63191 
  -13.96797  0.26915  4.47558     14.02961  1.64418  1.49355   5.31488  0.08053     0.31247  5226.98598   6237.45289  1.84381         3152.19547     17.42694  0.00015   53607.8593  0.86621  1.43051  2668313.69471  44.75686  19.47125  53657.43644    51.00428       44.12371   32.44019  52.26475   77.5     0.1691  -20.87599  0.85724 
   -8.84487    0.151  3.04703     14.43132  1.85488   0.8148  21.47949  0.02863     0.27751  4634.00956    4472.1306  2.92159         3053.56662     20.58806  0.21517   53612.9824  2.75147  3.24347   219407.54878  46.22816  19.50584   53659.7451    50.93799       44.09318   28.83572  50.46252   74.5    0.14011  -21.06201  0.87505 
    -12.407  0.27884  4.84747     14.20619  1.67932  0.83034   7.16134  0.05988     0.02368  5007.68733   4439.19457  3.00019         3053.11838     19.44603  0.01552  53609.42027  1.07126  1.99685  1417772.27535  44.97134  19.45837  53657.43644    50.96718       44.11131   28.83572  48.66029   76.0    0.16367  -20.90347  0.79109 
  -11.69557  0.22184  4.52122     14.17107  1.54519  1.51901  16.03712  0.03242     0.03351  4882.51313   3249.41783  3.28318         3005.85737     16.09123    1e-05   53610.1317  2.28055  3.55775   1334025.8737  45.02215  19.46755  53657.43644    51.06084       44.20319   30.63796  50.46252   87.0    0.15029  -20.84566  0.68551 
  -13.66509  0.01932  3.26441     13.88638  1.27321  1.19487  16.95176  0.02758     0.01085   4573.3123   5155.04923  2.66975         3076.47142     20.14352  0.07731  53608.16218  2.11497  0.32753  2125998.50801  45.01857  19.48603  53657.43644    51.04395       44.16586   27.03349  52.26475   66.0    0.16566  -20.91789  0.97121 
  -14.23272  0.39343  5.62951       14.632  2.06095  0.36143   5.65455  0.05875     0.01567  4595.31067   6687.46832  1.90541         3220.72675     18.39578  0.00138  53607.59455  0.71229  2.22468   330236.07733  45.56315  19.48616   53659.7451    50.87555       44.09201   28.83572  45.05582   77.0    0.16036    -20.815  0.77364 
   -15.6477  0.03892   4.1274     13.93581  1.44705    1.114  27.71195  0.01379     0.23609  4673.35141   5158.56439  2.14683         3156.33592      18.6079  0.00225  53606.17957  3.61036  1.07862    3076282.959  44.70995  19.47799  53655.12778    51.00535       44.17947   28.83572  50.46252   83.5    0.15743  -20.83045  0.88477 
  -12.20945  0.45719   5.2371     14.46615  1.61287  0.44837   6.95648  0.05853     0.04076  4951.17259   6972.42812  4.37983         2947.41158     19.76457  0.03231  53609.61782  1.01726  3.18045     480059.141  45.35697  19.47381  53657.43644    51.00511       44.15272   27.03349  48.66029   85.5    0.16965  -20.91126  0.65738 
  -15.46719  0.10974  4.86646     14.42642   1.6293  0.27976   9.50745  0.03544     0.01014  4886.41958   7616.61775  4.29936         2972.47223     19.34516   0.0123  53606.36008  1.35417  1.04338   502797.16583  45.40503  19.49073  53657.43644    51.02813       44.15578   30.63796  52.26475   75.0    0.15319  -20.88289  0.86961 
  -13.18652  0.07124  5.11251     14.14277  1.69305  1.02857  22.89725  0.02083     0.01707  5078.00554   3267.42619  4.54383         2961.27199     16.69063    3e-05  53608.64075  3.52206  1.63125  2129232.10619  44.75203  19.48571   53659.7451     50.9697       44.17868   30.63796  46.85805   74.5    0.16546  -20.87951    0.808 
  -13.30314  0.03351  4.10895     13.93266  1.37422  0.68282  12.58127  0.02069     0.03046  4772.19659   5581.90527  4.67815         2910.44614     19.81949  0.03666  53608.52413  1.70918  0.42158  2937792.44835  44.71142  19.50614   53659.7451    50.98037       44.19825   27.03349  46.85805   95.0    0.16906  -20.90829  0.94712 
   -9.26357  0.02136   3.5335      14.3637  1.84729  0.92358  15.58955  0.06308     0.17841  5481.87259   6017.93796  4.42284         2963.19269     19.64476  0.02452   53612.5637  2.79459  0.33306   401192.74844  45.83562  19.47622   53659.7451     50.9557       44.16934   28.83572  46.85805   53.5      0.146  -20.91851  0.98046 
  -13.95695  0.00521  4.36627     14.51345  1.80694  0.25509   20.2423  0.01083      0.0622  4736.76374    6221.1048  1.32554         3514.72796     20.15944   0.0802  53607.87032  2.70926  0.10545   300664.34035  45.76749  19.52122   53659.7451     50.9656       44.20465   23.42903  48.66029   96.0    0.15832  -20.92159  0.98979 
   -4.27496  0.01398  1.26408     14.34978  1.67425  1.10512  18.91907  0.05102     0.17551  4810.88378   6585.50491  3.08916         3105.82546     20.62645  0.23506  53617.55231  2.61202  0.26444    49615.70167  47.59349  19.49261  53657.43644    51.03696       44.19073   30.63796  48.66029   52.0    0.12956  -21.09662  0.99809 
  -14.63648  0.07712  5.90031     14.01159  2.03513  1.55375  17.52487  0.01637     0.09149  5139.80279   8647.84439   3.3012         2990.81696     18.13247  0.00075  53607.19079  2.76169  1.35144   6237006.2482  44.24071    19.491   53659.7451    50.97855       44.13988   28.83572  52.26475   87.5    0.15626  -20.85435  0.82981 
  -10.13397  0.09733  3.57668     14.82007  1.72669   0.2586   6.30239  0.13021     0.44538   5009.7178   5257.64046  4.01888         2979.93483     17.67028  0.00026   53611.6933  0.94354  0.61339    46972.27013  46.72726  19.51229   53659.7451    50.95352        44.2013   21.62679  46.85805   56.0    0.14448  -20.84648     0.96 
  -14.15397  0.20341  4.97749     14.03484  1.52142  1.08583  14.35927  0.02677     0.01286  5220.66924    8331.2539  2.71368         3026.93099      19.0687  0.00651   53607.6733   2.3346  2.92082  2981244.05224  44.58268  19.52346   53659.7451    50.97573       44.09837   28.83572  52.26475   78.0    0.15284   -20.8748  0.67747 
  -15.04717  0.05961  5.33447     14.33255  1.93889  0.57588   9.15351  0.04231     0.01214  4491.71734    3835.5891  4.38352          2954.4826     16.28808    1e-05   53606.7801  1.10164  0.54568  1107798.46874  45.05776  19.49698   53659.7451    50.99908       44.22837   23.42903  48.66029   73.0    0.16248   -20.8432  0.93352 
   -8.93216  0.41468  3.94208     14.69572  1.76603  0.44467   5.95948  0.12338     0.01661  4972.81637   5434.23769  4.99959         2975.73772     16.12654    1e-05  53612.89511   0.8791  2.47128   103474.36918  46.30956  19.49886  53657.43644    50.97814       44.09532   32.44019  54.06698   64.0    0.13898  -20.84554  0.83565 
   -6.54354  0.01819  2.61656     14.85817  1.76376   0.3111   27.2491  0.03843     0.12359  5364.50672   5500.73606  4.39845         2987.96438     17.56168   0.0002  53615.28373  4.67777  0.49578    21546.06622  47.34645  19.43285  53654.75412    50.97609       44.17034   30.63796  50.46252   52.5     0.1376  -20.83834  0.98318 
  -12.59673  0.38647  4.33579     14.46569   1.3226  0.30501   7.18849  0.05022     0.01616  4684.37152    8217.9101  2.68058         3169.67363     18.60913  0.00226  53609.23054  0.94095  2.77812   270400.87408  45.68413  19.48974  53657.43644    50.98117       44.10843   28.83572  50.46252   75.0    0.16751  -20.86143  0.70386 
   -8.19092  0.19196  2.90726     14.35692  1.53395  0.79728   6.10269  0.14746     0.15963  5032.21317   9098.59955   4.5112         2978.95464     17.14779    8e-05  53613.63634  0.92186  1.17147    232671.9261  46.16095   19.4886   53659.7451    51.04112       44.23363   28.83572  45.05582   52.0    0.13501  -20.84965  0.94124 
   -8.72096  0.00809  3.25987     14.25921  1.72971  1.04366   6.53823  0.11745     0.26414  4740.02773   8366.85978  4.76558         2932.96217     20.29396  0.10932   53613.1063  0.87629  0.05288   517327.62189  45.76665  19.49997  53657.43644    51.00844       44.15795   28.83572  50.46252   51.5    0.14842  -20.95637  0.99703 
   -8.58535  0.02912   2.8432     14.20646  1.46212  1.17594  28.32141  0.03164     0.36422  4890.33265   7018.17422  4.86165         2996.64837     18.26917  0.00103  53613.24192  4.04035  0.82464   424119.26769  45.89873  19.46159  53657.43644    51.00118       44.17059   30.63796  50.46252   56.5    0.13639  -20.83601  0.95675 
   -5.32327   0.0013  2.17698     14.60004  1.81445  0.54292  15.49266  0.06253     0.03613  4650.52608    8678.0503  4.94633         2961.97491     20.49751  0.17468  53616.50399  1.99874  0.02008     50371.5574   47.1497  19.51551   53659.7451    50.98481       44.12205   25.23126  52.26475   51.5    0.12063  -20.98827  0.99954 
  -15.53616   0.1171  5.28979     13.99242  1.89246  0.99287   5.07526  0.06863     0.01546  5340.44645    6721.5811  4.60754         2874.13241     17.76714  0.00032  53606.29111  0.86346  0.59429  5091829.08044  44.39212  19.51588   53659.7451    50.84916       44.07841   25.23126  48.66029   70.0    0.15407   -20.8952  0.92477 
  -10.81051  0.17296  4.42992     14.55374  1.79616   0.5932   16.3067  0.04102     0.41329  5278.81144     6804.127  4.10474         2951.41938     19.00233  0.00559  53611.01676   2.7106  2.82039   255546.25682  45.82293   19.4848   53659.7451    50.95527       44.09561   28.83572  52.26475   73.0     0.1447  -20.88166  0.78283 
  -10.16527   0.0124  3.25966     14.05415  1.41764  1.38201   6.40924  0.11793     0.35282  4926.05161   4012.32431  4.51705         2964.48166     19.63943  0.02422    53611.662  0.92775  0.07944  1090020.98585  45.35663  19.51285   53659.7451    51.03841       44.18895   25.23126  48.66029   54.5    0.14918  -20.89087  0.99399 
  -12.69615  0.25896  4.08908     13.94727  1.39308  1.30627   7.58646  0.04834     0.10716  4442.72782   9338.68283  3.15519         3089.55207     20.07608  0.06619  53609.13112  0.89324  1.96458  2757359.49388  44.74908  19.48375  53657.43644    50.98951       44.14613   30.63796  54.06698   69.5    0.16871  -20.91631   0.8033 
   -12.4729  0.13456   5.1026     14.12831   1.9029  0.72467   7.92239  0.02722       0.184  4320.48589   7545.52078  3.48293         3088.51222     20.26355  0.10192  53609.35437  0.88216  1.06604  2547956.54597  44.72649  19.48601   53659.7451     50.8572       44.09831   21.62679  48.66029   98.0    0.16712  -20.96566  0.88252 
  -11.34957  0.00416  2.77114     14.05688   1.3643  1.30495   8.58407  0.10497     0.03585  5244.45511   7318.33477  3.35361          3057.1186     19.94479  0.04892   53610.4777  1.40838  0.03573   748645.94703  45.64416  19.51046  53662.05376    50.90888       44.13369   27.03349  48.66029   52.0    0.14092  -20.91744  0.99793 
   -7.80248  0.00567  2.75538     14.53139  1.65412  0.55092   6.61373  0.16751     0.03352  5846.94457   5838.65016  4.09083         2917.21713     16.30056    1e-05  53614.02479  1.34875  0.03747   100916.76297  46.60309  19.49567  53657.43644    51.14121       44.30853   25.23126  46.85805   50.0    0.14819  -20.88378   0.9984 
  -15.52114   0.0288  4.97133     14.02071  1.79753  1.09081   6.80938  0.04665      0.0568  4326.60935   6762.10829  4.03207         2988.44264     17.74013  0.00031  53606.30612  0.76038  0.19613   3749956.7405  44.55655   19.4842   53659.7451    50.96061       44.13894   23.42903  50.46252   82.5    0.16438  -20.83767  0.97553 
  -16.15424  0.02127  4.02174      14.2189  1.47979  0.35997   5.78334  0.05722     0.14306   4709.9803   7860.63792  4.02394         2933.64663      20.1509  0.07864  53605.67303  0.76532  0.12299   811050.05666  45.32117  19.49974  53657.43644      51.026       44.21675   28.83572  46.85805   85.5    0.14824  -20.95109  0.98628 
  -12.67455  0.24926  4.91459     14.07371  1.52567   0.7881   9.01754  0.03207      0.0301  4968.02458   7551.06251  3.35832         3032.97736     19.55154  0.01978  53609.15272  1.32765  2.24771  2436836.75645   44.6825  19.48896   53659.7451    50.87785       44.10104   27.03349  46.85805   89.0    0.16715    -20.911  0.73615 
   -7.09681  0.46138  3.78545     14.52092  1.87183   1.0848   8.62989  0.08167     0.17733  5584.42514   3485.52349  4.17071         2945.78296     19.31498  0.01147  53614.73046  1.60542  3.98163   226196.30817  46.03039  19.51732  53657.43644    50.99514       44.08198   28.83572  61.27591   81.5    0.14245  -20.88262  0.79043 
  -10.19813  0.35698  3.86211     14.30303  1.69256  1.34867   8.70966  0.08033      0.2081  4986.12282   7476.59347  4.25728         2998.14036     19.74885  0.03116  53611.62914  1.29168  3.10921      580705.32  45.55978  19.47432  53657.43644    51.02074       44.17092   30.63796  48.66029   72.5    0.13566  -20.88737  0.79789 
   -7.50328  0.03033  2.72623     14.45066  2.03182   1.1265  26.17068  0.04085     0.11536  5288.64053   6386.90766  3.61501         3015.14781     20.03678  0.06046  53614.32399  4.36647   0.7937   175995.85752   46.4601  19.49066   53659.7451    50.99397       44.15417   27.03349  48.66029   55.5    0.12831  -20.90578  0.97651 
   -12.0412  0.33115   5.1255     14.36327  1.53282  0.73333  14.20753  0.02955     0.18698  4825.73906   5988.05028  2.71304         3141.78762     18.57669   0.0021  53609.78607  1.97367  4.70477   701827.31206  45.18863  19.48991   53659.7451    50.92965       44.15447   27.03349  46.85805  104.0    0.14997  -20.84791  0.55847 
   -14.0321  0.05148  4.72363     13.84759  1.77633  1.52431   4.14909  0.05594     0.01374  5108.74576   5626.50134  2.50564         2987.19197     19.25406  0.00997  53607.79516  0.64596  0.21359  7425409.15461   44.2991  19.46703   53659.7451    50.93987       44.12057   34.24242  48.66029   71.5    0.15215  -20.86485  0.97501 
  -13.76453  0.32837  5.12685     14.38277  1.66534  0.60195   9.49697  0.05534     0.14807  5453.18166   5874.94141  3.02504         2963.95741     17.17002    8e-05  53608.06274  1.68466  3.11849   697391.51834  45.22717  19.49837  53657.43644    50.98419       44.08777   28.83572  55.86922   84.5    0.14936  -20.87131  0.68234 
   -6.42147  0.00209  2.20686     14.53283  1.76441   0.6998  33.93419  0.03392     0.34689  5582.52437   4866.55209  3.41281         3052.76151     17.97126  0.00052   53615.4058   6.3085  0.07083    68597.16255  46.99159  19.47502  53657.43644    50.95845        44.1173   30.63796  54.06698   51.0     0.1299  -20.88039  0.99829 
   -6.87828  0.00102  2.75125     14.34373  1.61524   0.8473  21.01807  0.04522     0.01749  5012.55092   4352.71955  4.53276         2990.73922     19.87248  0.04142  53614.94899   3.1502  0.02145   233158.45208  46.23037  19.47085  53657.43644    50.98675       44.14153   32.44019  50.46252   52.5    0.13957   -20.8838  0.99905 
  -11.25883  0.26433  4.41677     14.55389  1.91381  0.73574  14.39302    0.037      0.0943  5124.84702   8976.59156  1.89684         3309.78369     16.39345    1e-05  53610.56844  2.25497   3.8045   270481.32841   45.8284  19.49996  53657.43644    50.97479       44.11878   25.23126  50.46252   71.0    0.15394  -20.85593  0.74777 
   -8.56131  0.01155  2.71568     14.24565  1.76623  1.48799  11.12295  0.08093     0.01697  4828.59684    5159.7358  3.62491         3006.04976     20.28419  0.10688  53613.26596  1.54699  0.12842   390223.32035  46.05682  19.49418  53657.43644    51.01552       44.16712   27.03349  48.66029   54.0    0.13404  -20.95308  0.99519 
   -5.50407  0.34974  1.87616     14.63374  1.77385  0.49207   7.31404  0.12093     0.05961  4986.96414   8456.07193  4.07086         2950.66526     20.78723  0.34038   53616.3232  1.08507  2.55804    31317.83999  47.47543  19.46746   53659.7451    50.90431       44.08481   30.63796  48.66029   58.5    0.13443  -21.17539  0.95811 
  -12.73501  0.20457  4.96106     14.17859  1.44939  0.49046  11.16241  0.02245     0.01782  4720.95691   5005.51311  3.74285         3028.83056     17.81819  0.00037  53609.09225  1.48404  2.28351  1455388.14907   44.8759  19.50301   53659.7451    50.91874       44.14504   27.03349  46.85805   99.0    0.15952  -20.84787  0.71163 
   -13.2396  0.00234  4.86406     14.50714  1.74844  0.25885   20.7183  0.01435     0.26817  4957.63725   5399.97225  4.63773         2857.55079     19.31459  0.01146  53608.58767   3.0376  0.04846   371685.74476  45.56732  19.46615  53655.12778    51.04627       44.20737   28.83572  48.66029   84.5    0.17443  -20.89872  0.99381 
   -6.41585  0.37058  1.91191     14.50954  1.81155  0.93166  20.70897   0.0212     0.11718  4742.89602    6897.2947  1.98367         3180.25827     20.76605  0.32417  53615.41142   2.7789  7.67429    58847.79879  47.19423  19.47573  53662.05376    50.94541        44.1761   27.03349  44.11626  114.5    0.15444  -21.16294  0.88873 
  -14.56064  0.05075  4.49824      13.9415   1.5641  0.99256  13.81981  0.02047     0.07619  4504.05233   3745.41535  2.71456         3138.06428     18.44487  0.00155  53607.26663  1.67238  0.70133  3847354.41786  44.57186  19.49662   53659.7451     50.9871       44.25114   21.62679  46.85805   91.5    0.16046  -20.84918  0.91682 
  -12.09008  0.26136  3.24456     14.26438  1.17708  0.50512  16.85085  0.03034     0.02064  4908.46178   8907.53358  3.40549         2947.38932     20.53669  0.19117  53609.73718  2.42181  4.40408   340537.19967  45.78518  19.46944  53657.43644    50.99381       44.15072   32.44019  52.26475   78.0    0.14381  -21.02368  0.69462 
   -12.1568  0.36043  3.80924     14.26482  1.27083    0.494   4.75422  0.11457     0.27507  5168.66238   7375.41984  3.76997         2974.48745     18.23066  0.00094  53609.67047  0.75764  1.71357   505746.05033  45.50732  19.51421   53659.7451    51.16456        44.3967   23.42903  43.25359   67.5    0.16162  -20.88852  0.82543 
   -5.84187  0.04877  2.44526     14.36142  1.78044  1.13791  31.44601   0.0264     0.34097  4807.88291   9876.51425  4.81224         2988.58427     20.50857  0.17918   53615.9854  4.33611  1.53377   187132.42044  46.47057  19.52202   53659.7451    50.91566       44.14606   23.42903  48.66029   51.0    0.14531  -21.04123  0.95642 
   -6.21967  0.25002  2.83299     14.37029  1.75833  1.20147  12.11304  0.05968     0.09224  4948.64686   7753.24468   4.4953         2955.67329     20.48978  0.17159   53615.6076  1.76951  3.02851   238140.07332  46.23262  19.47036  53657.43644    50.96516       44.11782   30.63796  48.66029   66.0    0.13715  -21.01441  0.88985 
  -10.60729  0.14821  4.27263     14.44382  1.88596  0.80451  12.48594  0.04954     0.01546  4514.85064   6279.30627  3.70084         3079.69831     17.70276  0.00028  53611.21998  1.51822  1.85056   414098.64378  45.66588   19.4712  53657.43644    51.02378       44.17898   27.03349  50.46252   67.0    0.14431  -20.83864  0.86403 
   -3.90335  0.05782  1.41415     14.45077  1.57114  0.88697  12.47838   0.0939     0.11373  5405.78543   7101.35939   4.1601         2996.18013      19.9053  0.04467  53617.92392  2.17522  0.72149    36600.62892  47.60058  19.51166   53659.7451    51.00041          44.14   25.23126  50.46252   53.0    0.13605   -20.8783  0.99296 
   -4.38879  0.01085  1.49247     14.42465  1.92808  0.94485  12.52656  0.06534     0.12849  4095.38998   9710.65952  3.63141         3066.96375     20.81358  0.36167  53617.43848  1.25328   0.1359    56422.24558  47.45471  19.50194  53662.05376    50.88641       44.07335   30.63796  48.66029   51.0    0.13923  -21.18658  0.99878 
  -10.99724  0.32519  4.96502     14.67344  2.00465  0.46653   8.51135  0.06936     0.02733   4937.0127   7048.78821    4.474         2935.09573     20.00353  0.05601  53610.83003  1.23753  2.76781   206455.55319  45.86422  19.43053  53657.43644    51.03556       44.24318   25.23126  42.02606   73.5    0.15516  -20.91274  0.77469 
    -3.9075  0.02471  1.18896     14.27145  1.54092  1.38801  19.68485   0.0602     0.16199  5611.79061   6791.27342  3.26005         3012.11585     20.57336  0.20801  53617.91977  3.69796  0.48643    57946.57788  47.54326  19.48428  53657.43644    51.25532       44.48679   18.02233  43.82829   52.5    0.12725  -21.07984  0.99657 
  -14.33965  0.11675  4.32825     13.88574  1.57337  1.35729   6.34019  0.04961     0.01295  4571.86107   6780.08763  3.39456         3032.92793     20.22738  0.09378  53607.48762  0.79052  0.74021  4632179.15469  44.52727  19.47914   53659.7451    50.97601       44.09239   34.24242  54.06698   74.0    0.16912  -20.95064  0.91957 
  -11.71111  0.15585  4.55145     14.41158  1.86513  0.81013  16.90222  0.03577     0.08107  4869.59655   7104.16338  4.15592         2960.42141     19.90471  0.04461  53610.11616  2.39087  2.63414   539087.23475   45.4916  19.45978  53655.12778    50.92377       44.14005   32.44019  48.66029   71.5    0.14373  -20.90799  0.79421 
  -14.34138  0.27202  5.38938     14.82829  1.87643  0.17972   6.82284  0.05132     0.01596  4708.63372   9847.58755  2.57903         3068.06962     17.69956  0.00028  53607.48589  0.90236  1.85596   111595.57529  46.03145  19.46823  53657.43644    50.97383        44.1192   28.83572  50.46252   64.5    0.15343  -20.83377  0.79424 
   -4.18616  0.00229  1.29728     14.39607  1.57757  0.85934  10.12146  0.09968      0.0637  5111.11753   3958.41804  3.16138         3033.02076     20.45811  0.15953  53617.64111  1.57726  0.02313    39787.17196  47.64102  19.45217  53655.12778    50.99927       44.13481   32.44019  48.66029   49.5    0.13672  -21.04154   0.9998 
  -13.13887  0.13043  4.75314      14.0073   1.4772  1.27376  16.08733  0.02814      0.0234   5118.3971   7993.38386  4.26489         2934.90331     16.58611    2e-05   53608.6884  2.51408  2.09819   2996569.1091   44.6077  19.51323   53659.7451    50.91771       44.16323   28.83572  45.05582   74.0    0.16123  -20.87283  0.75495 
  -16.02109  0.02343  4.36493     13.82016  1.57658  1.11555   4.33195  0.07679     0.01655  5112.95565   8529.93472  4.44485         2883.70864     19.96421  0.05116  53605.80618  0.67555   0.1015  6385003.91531  44.38145  19.49744  53657.43644    50.92678       44.11438   34.24242  54.06698   64.5    0.14871  -20.91874  0.98772 
   -9.67492  0.02292  2.64749     14.33287  1.49114  0.66019   5.35342  0.15135     0.01932  4593.62935   8629.41096  3.48537         3093.72804      20.2592  0.10091  53612.15235  0.67386  0.12272   209536.12218  46.27544  19.47518  53657.43644    50.94915       44.09841   34.24242  50.46252   50.0    0.14357  -20.92927  0.99436 
  -11.90762  0.35783  5.45764      14.5282  2.16573  0.99351  11.29935  0.04356     0.08271    5045.284   3822.10228  2.10952         3246.08001     17.85923   0.0004  53609.91965  1.71574  4.04325   526063.83747   45.4094  19.45897  53655.12778      51.004       44.13706   32.44019  54.06698   91.5    0.15038  -20.83554  0.68685 
  -10.69616  0.32247  4.16379     14.26016   1.7941   1.3123   8.12877  0.07551     0.01866  5181.41089   9438.10795  3.06078          3010.5289     20.13034    0.075  53611.13111  1.30181  2.62128   871591.41841   45.3434  19.48002  53662.05376    50.90085        44.0953   30.63796  46.85805   57.0    0.15548  -20.94383  0.81403 
   -8.21157  0.00871  2.32612     14.29497  1.37395  0.61324  14.13946  0.06242      0.2354  4880.33997   6021.30312  4.86038         2923.08338     20.54534  0.19501   53613.6157  2.00891  0.12314   177466.22052  46.42444  19.48168  53655.12778    51.12186       44.31128   27.03349  43.82829   54.5    0.14595  -21.04685  0.99506 
   -9.49974  0.03044  3.16089      14.2564  1.75396    1.094   9.76041  0.08295     0.06793  4772.27328   8064.17054  4.87453         2961.40661     20.38859  0.13593  53612.32753  1.32601  0.29712    499633.2416   45.8146  19.49839   53659.7451    51.03698       44.29638   21.62679   45.9185   53.5    0.14532  -21.00837  0.98485 
   -3.64048  0.02488  1.15095     14.30985  1.51924  1.12662    8.3841  0.14796     0.04501  5295.74121   5116.97033  4.15779          2994.6477     20.52496  0.18608  53618.18678  1.40261  0.20859     44859.2159  47.67651  19.49495  53655.12778    51.02707       44.11721   30.63796  59.47368   53.5    0.11292  -21.07096  0.99863 
  -13.63637  0.29563  4.97694     14.14921  1.75049  0.68723   4.19911  0.06432     0.15328  4931.79899   6300.58937   2.0569         3135.47937      18.8355   0.0038   53608.1909  0.60925  1.24137  2025222.37894  44.81161  19.50525   53659.7451    50.89991       44.09256   30.63796  46.85805   97.0    0.15766  -20.84271  0.85776 
  -12.41667  0.32092  5.41707     14.40949  1.81894  0.78313  11.60918  0.04227     0.02224  5212.58041   4288.69591  2.64032         3064.81116     16.60182    2e-05   53609.4106  1.88163  3.72559   751926.00934  45.18496   19.4786  53657.43644    50.97927       44.14698   30.63796  54.06698   87.0    0.15393  -20.85562  0.64879 
   -3.62366  0.00267  1.53834     14.59066  1.64483  0.53746  27.35962  0.03621     0.05095  4681.80795   6842.98598  4.60656         2999.01032     20.49534  0.17381  53618.20361  3.57737  0.07315    23808.06271  47.73413  19.47478  53657.43644    50.91415       44.10574   32.44019  50.46252   53.0    0.13121  -20.97831  0.99912 
  -10.10551  0.32712  4.16506     14.47708  1.52003  0.59289  10.76623  0.05487     0.34816  4945.07606   4860.13002  4.00063         2979.13715      19.4278  0.01488  53611.72176   1.5705  3.52183   272115.14338   45.7767  19.50114   53659.7451    50.87442       44.07172   30.63796  50.46252   84.5    0.14663  -20.83918  0.71774 
   -4.10003  0.20816  1.52591     14.51089  1.50888  0.58972   7.60959  0.12409     0.02307  4974.42027   5614.45041  4.53433         2987.47548     20.59182  0.21704  53617.72724  1.12324  1.58405    31027.43125  47.58869  19.51248   53659.7451    50.86804       44.08144   27.03349  46.85805   57.5    0.12601  -21.05482   0.9788 
  -13.37359  0.43288  5.87789     14.21718  1.83637  1.33763   7.53252  0.05816     0.08887  4667.86149   7778.65354  4.24484         3003.79305     19.36916    0.013  53608.45368  0.97905  3.26069  2167012.58635   44.6585  19.46057  53657.43644    50.95769       44.15861   28.83572  48.66029   84.5    0.14651  -20.84384  0.64369 
  -12.99344  0.00263   4.9569     13.91381   1.8279  1.47868   4.35312  0.04842      0.0297  4588.78395   6471.70624  3.10899         3092.66965     16.81794    4e-05  53608.83383  0.54679  0.01144  6202640.68982   44.3478  19.50067   53659.7451    50.90262       44.08379   28.83572  48.66029   88.5    0.17294   -20.8755  0.99857 
  -10.14157  0.39886   5.0364     14.43111  1.82591  0.99573   9.46989   0.0579     0.32902   5133.0018   8018.03402  3.59056         3036.83657     17.97436  0.00052   53611.6857  1.48838  3.77713   590623.77278  45.35477  19.49649   53659.7451    50.93563       44.15711   30.63796  45.05582   77.5    0.15334  -20.85655  0.68089 
     -9.905  0.13192  2.62734     14.44611  1.25399  0.36748  15.95757  0.04069     0.07112  4863.27059   3414.48077  3.07944         3040.76196     20.44797  0.15585  53611.92227  2.25139  2.10516   103018.64063  46.51519  19.50921   53659.7451    50.88616       44.07004   30.63796  48.66029   65.0    0.14768  -21.01604   0.8892 
  -11.37811  0.48021  4.88737     14.28532   1.6984   1.5649   9.08927  0.05205     0.04411  4994.10548   5385.90008  2.65777         3043.92122      18.3888  0.00136  53610.44915   1.3523  4.36479   1012412.0405  45.11538  19.52976   53659.7451    50.94623       44.18091   25.23126  46.85805   95.5    0.15024  -20.83544  0.63721 
  -14.95217  0.05409  4.97211     14.61148  1.81824  0.23268  15.78378  0.02037     0.01503  4822.00494   8674.72923  2.64371         3026.82006     17.20503    9e-05   53606.8751  2.18924  0.85368    249793.0551  45.73784  19.46638  53657.43644    50.93286       44.08961   34.24242  48.66029   77.0    0.16041  -20.86676  0.90308 
  -14.34702  0.19551  4.97057     14.21686  1.59655  0.65959  13.21493  0.02933     0.14955   5134.7017   9855.87439  2.67279         3043.37755     19.69052  0.02724  53607.48025  2.07837  2.58367  1349217.22262  44.94913  19.47465  53657.43644     50.9062       44.08839   36.04466  52.26475   70.5    0.15562  -20.88139  0.71927 
   -8.77641  0.30082  4.68928     14.49196  2.00409  1.26319  14.08096  0.03674     0.06395  5001.08699   9976.64667  2.87188         3122.69369     16.96528    5e-05  53613.05086  2.10082  4.23586   424635.07421  45.60054  19.47585  53657.43644    50.93037       44.09742   34.24242  55.86922   69.5    0.15325  -20.85443  0.71732 
  -14.12711  0.33531  5.27182      14.0944  1.63295  1.30019   9.99637  0.03555      0.0276  5211.37662   4324.75079  2.21829         3089.01414      17.0887    7e-05  53607.70016  1.61948  3.35188  2728421.61909  44.60199  19.49582  53657.43644    51.02267       44.16989   32.44019  48.66029   93.5    0.16509  -20.85472  0.64597 
  -11.29473  0.18219  4.34526     14.22699  1.56911  0.91924    9.8202  0.05784     0.14641  4821.00421   9232.30877  4.92983         2981.55553       17.185    9e-05  53610.53254  1.36151  1.78913   967215.15295  45.20294  19.48835   53659.7451    50.95259       44.13972   27.03349  48.66029   58.0    0.15755  -20.88119   0.8274 
    -6.1821  0.25785  2.00573     14.44154   1.9641  1.34969  27.41067   0.0165     0.35721  4543.32083   8773.42421  2.17891         3218.16845     20.81681  0.36437  53615.64516  3.37515  7.06778    96038.64528  46.97502  19.48483   53659.7451    51.09767        44.3748   19.82456  45.05582   91.5    0.16122     -21.23  0.89696 
   -8.31299  0.00374  2.92834     14.39532  1.74348  0.86709   21.8045  0.04805     0.05407  5110.09711   6853.53579  4.93529         2954.34814     17.46226  0.00016  53613.51428   3.3965  0.08151   224817.67863  46.22519   19.4825   53659.7451    50.89184       44.13319   27.03349  46.85805   53.0    0.13687  -20.84219  0.99638 
   -4.52134  0.02487  1.85932     14.31126  1.76692  1.30631   8.85296  0.10712      0.0238  4592.35231   4381.51894   4.8014         2990.16336     20.65795  0.25274  53617.30593  1.11375  0.22021   135275.11883  46.84614  19.51628   53659.7451    50.88918       44.12186   23.42903  48.66029   55.0    0.13645  -21.07615  0.99629 
   -6.46397  0.00134  2.54668     14.29343  1.60888  0.97581  26.85739   0.0361     0.01178  5118.23113   4528.01448  4.98874           2953.927      20.2102  0.09014   53615.3633  4.19692  0.03589   250857.61838  46.26399  19.50785   53659.7451    50.86181       44.06944   27.03349  50.46252   52.5    0.13922  -20.96623  0.99864 
   -9.82679  0.00283  2.36909     14.53808  1.45151  0.32229  11.14469  0.07175     0.06977  5172.67037   5936.35218  2.44057         3101.71267     20.61257  0.22767  53612.00048  1.77879  0.03155    63480.87511  46.87886  19.47835   53659.7451      50.882       44.09482   28.83572  46.85805   53.0    0.15476     -21.12  0.99878 
   -5.85833  0.04392  0.71833     14.53628  1.96253  1.56992  17.75486  0.04638     0.01417  4174.66944   9535.88707  1.68395         3899.73759     19.55746  0.02005  53615.96894  1.84582  0.77974     7956.43401   48.9483  19.48584  53657.43644    51.00359       44.14041   34.24242  48.66029   46.0    0.14365  -20.89083  0.99963 
  -13.94543  0.28221  4.94491     14.25628  1.57476  0.89345  17.60115  0.02415     0.05723  4954.81313   7360.55691  2.32663         3144.29494     20.06808  0.06498  53607.88184  2.57764  4.96716  1098454.32639  45.03696  19.48457  53657.43644    50.98329       44.16172   30.63796  52.26475  101.5    0.14402   -20.9055  0.57219 
   -7.96785  0.07336  3.36555     14.35681  1.69776   0.8715   4.93783  0.16537     0.25767  4990.14485   9689.56614  4.85491         2954.34723     18.95296  0.00499  53613.85942  0.73348  0.36223   345291.43593  45.90642  19.47922   53659.7451    51.02871       44.16804   28.83572  52.26475   47.0    0.15114  -20.85966  0.97819 
   -9.94504  0.00247  3.61037     14.34079  2.19232   1.5452   9.98004  0.08796     0.07286  4962.53194   5295.07245  3.62684         3022.59385     20.31236  0.11405  53611.88223  1.46611   0.0247   552392.18748   45.7524  19.46353   53659.7451    51.01782       44.19637   30.63796  44.11626   54.5     0.1404   -20.9899  0.99881 
  -14.40351  0.11146  4.44413     14.07862  1.36906  0.69152  18.52284   0.0214     0.11868  5055.39696   5231.36442  3.43053         2973.39635     16.46757    2e-05  53607.42376  2.82387  2.06448  1748115.60243  44.86712  19.49362   53659.7451    51.10851       44.29297   27.03349  45.05582   86.5    0.15577  -20.87009  0.76052 
   -9.76669  0.15503   4.1669     14.30911  1.67039  1.06507  15.66556  0.04159     0.06031  5027.41414   6219.24459  4.45278         2943.98748     19.16345  0.00809  53612.06058   2.3619  2.42865   648693.32722     45.44  19.44942  53657.43644    50.95847       44.15671   30.63796  46.85805   70.5    0.15218  -20.85066  0.80928 
   -8.41316  0.19642  4.64098     14.40001  1.87402  1.37662  17.25883  0.03293     0.18424  5034.46974   7512.09214  4.37681         3000.13706     18.42932  0.00149  53613.41411  2.60943   3.3899   593998.49199  45.43461  19.49137   53659.7451    50.98905       44.12778   30.63796  52.26475   74.0    0.15905  -20.87489  0.74486 
  -10.98057  0.11619  4.88133     14.31949  2.08636  1.55808  30.02795  0.01773     0.12489  4723.40305   3594.16056  4.92223         2904.39955     20.47467  0.16573   53610.8467  3.99634  3.48895  1059962.83724  45.18587  19.47826  53657.43644    50.98398       44.20986   32.44019  42.31403   80.5    0.14721  -21.04184  0.74966 
   -10.5163  0.35341  5.65079     14.64577  2.07102  0.62406   13.2172  0.03528     0.40945   4856.3856   8799.19508  3.84349         2987.52845     20.15523  0.07943  53611.31097  1.85949  4.67115   313815.14715  45.58414  19.49868  53657.43644    50.97554       44.20244   28.83572  46.85805   83.0    0.14899  -20.93091  0.62309 
   -6.32614  0.32312  2.06778     14.40067  1.29072  0.75641  10.69509  0.07897     0.45748  5526.20624   8382.36831  3.21331         3051.63866     19.57904  0.02107  53615.50113  1.94834   3.4558    80967.19669  46.84036  19.45625  53657.43644    50.97562       44.13285   30.63796  50.46252   65.5    0.12574   -20.8695  0.89603 
   -4.75955  0.00193  2.19748     14.46939  1.99759  1.25747   9.49975  0.12588     0.04994  5190.34675   6256.41096  4.92675         2967.82233     18.18983  0.00086  53617.06772  1.52662   0.0183   103129.66623  46.87212  19.47651  53657.43644    50.95098       44.10439   30.63796  50.46252   52.5    0.11645  -20.83551  0.99965 
   -8.28162  0.12386  3.83348     14.67257  2.01818  0.64952   23.0188  0.03445     0.23876  5276.69618   4905.17162  4.50926          2970.9505     19.18909  0.00859  53613.54565  3.82326  2.85101   124401.15259   46.3118  19.47832  53657.43644    50.96527       44.10647   30.63796  50.46252   69.5    0.13933  -20.87718  0.85134 
  -10.22807     0.45  3.56097     14.43364  1.70459  1.13665  10.65855  0.05127     0.05459  5090.95713   9252.95063  1.91632         3231.27087      18.6384  0.00242   53611.5992  1.64787  4.79637   272447.11769  45.96205  19.46694  53657.43644    51.02054       44.18562   30.63796  46.85805   78.0    0.14131  -20.83048  0.75423 
  -14.54362   0.0605  4.86413     14.14227  1.69732  0.66602  22.55827  0.01187     0.03174  5237.58909   9057.64026  1.74775         3231.68508     17.15535    8e-05  53607.28365  3.69144  1.36475  1936650.63549  44.83755  19.49147  53657.43644    51.28059       44.47936   19.82456  43.25359   80.0     0.1631  -20.87001  0.84578 
  -10.07467   0.0462  3.30262     14.40616  1.85509  0.88262  21.03296  0.03706     0.01562  5179.36352   6009.09093  1.87375          3315.4403     17.71682  0.00029   53611.7526  3.36574   0.9717   289452.75458  46.03792  19.46961  53657.43644    51.02506       44.15777   30.63796  50.46252   55.0     0.1528  -20.87513  0.95206 
   -5.77836   0.0064  1.36075     14.38795  1.40696   0.6539  12.58058  0.07886     0.01349  4876.75213   6391.81034  3.42947         3095.17076     20.56957   0.2062  53616.04891   1.7848  0.08055    40528.70545  47.54181  19.51753  53657.43644    51.07988       44.23481   28.83572  50.46252   52.0    0.12415  -21.06295  0.99902 
  -14.52351  0.03393  4.77821      13.9918  1.72983  0.98938  19.18341  0.01696     0.01085  4779.49655   5097.09179  4.37858         2899.86291     20.04949  0.06226  53607.30376  2.61407  0.65099  3808486.30821  44.56757  19.45995   53659.7451    50.95554       44.11533   30.63796  48.66029   87.5     0.1605  -20.93078  0.92436 
   -7.06018     0.31  2.13188     14.86214  1.87245  0.28877  10.63994  0.06522     0.03276  5009.83505   7940.08461  2.38303         3071.27026     20.77716  0.33257  53614.76709  1.59299   3.2984    14910.18024  47.71025  19.47957  53657.43644    50.99976       44.20141   25.23126  46.85805   64.0     0.1532  -21.17462  0.93589 
   -4.61062  0.25357  1.86397     14.42509   1.7729  1.35878   6.85929  0.12714     0.01314  4666.56573   9878.55789  3.46185         3107.43085     19.89766  0.04389  53617.21665  0.89105  1.73933    80761.80695  47.06944  19.50402   53659.7451    51.02711       44.19962   27.03349  48.66029   51.5    0.11705  -20.83328  0.97333 
      -10.6  0.11462  5.08371     14.33048  1.88468  1.24464  25.80488  0.01903     0.02591  4552.09459   6540.47352  3.71591         3084.06253     16.60401    2e-05  53611.22727  3.18971  2.95784   987301.71526  45.13727  19.48764   53659.7451    50.91774       44.11028   30.63796  48.66029   80.5      0.157  -20.85179   0.7366 
   -6.53471  0.31575  3.75294     14.85093   1.9925  0.42417  13.41994  0.04028     0.02638  4412.51498   6078.25324  4.99716         2978.85929     20.33201  0.11933  53615.29255  1.55866   4.2373    51771.01633  46.70541  19.52264   53659.7451    50.90118       44.12093   23.42903  48.66029   86.0    0.14309  -20.96219  0.79808 
   -6.42447  0.15755  2.91196     14.63513   1.9273  0.95973  26.85202  0.02549     0.04718  5429.89532   3004.51683   2.9649         3049.08619     18.89264  0.00434   53615.4028  4.72266  4.23066    81447.68493  46.71454  19.50955   53659.7451     51.1022         44.359   23.42903  45.05582   85.0    0.15357  -20.83828  0.86783 
    -9.7846  0.05199  3.71212     14.78904  1.99157  0.34687   6.54876  0.15701     0.17377  5357.01272   3480.13812  4.86551          2903.6928     17.34381  0.00012  53612.04267  1.12107  0.34049    67324.69085  46.60062  19.48964  53657.43644    50.95614       44.12959   30.63796  50.46252   55.5    0.13606   -20.8716  0.98031 
   -9.69554  0.22735  4.19095     14.85022  1.92525   0.3245  14.60216  0.03094      0.0469  4771.75749   9940.96841  1.55024         3618.25127     18.54029  0.00193  53612.13173  1.98336  3.31981    62587.67186  46.51222  19.50458  53662.05376     51.0135       44.25527   21.62679  48.66029   61.5     0.1677  -20.88634  0.79194 
   -3.62587  0.39184  0.86383     14.49547  1.51226  0.63264  11.66792  0.05068     0.14419   4166.6316   6949.28406  2.53229         3238.45617     20.87957  0.42102   53618.2014  1.20835    4.572    10699.14181  48.54627   19.4711  53657.43644    50.97586       44.18855   32.44019  46.85805   74.5    0.15237  -21.21818  0.98756 
   -13.3022  0.24613  4.76016     14.07207  1.51385  1.40304  11.59221  0.04681     0.07835  5076.95234   9037.32595  4.93743         2925.90289     19.63599  0.02403  53608.52507  1.78238  2.85316  2285601.04193  44.73468  19.47334  53657.43644    50.98745       44.13627   30.63796  48.66029   69.0    0.14525  -20.89658  0.70231 
    -13.765  0.17153  4.85966     13.98817  1.68127  1.06498   5.21311  0.05593     0.01145   4369.1392   8830.41653  3.96209         3024.33264     19.70565  0.02821  53608.06226  0.59363  0.89422  3893295.94866  44.53095  19.49093  53657.43644    50.95949       44.15928   30.63796  50.46252   64.5    0.16218  -20.88412   0.8921 
    -9.8487  0.13735  4.59829     14.26896  1.67649  1.33596    23.626   0.0228     0.04756   4954.4702   9526.99544  3.75606          3023.2684     17.98699  0.00054  53611.97857  3.45949  3.24515   953855.98875  45.18857  19.47987   53659.7451    50.98961       44.26266   21.62679  45.05582   65.5    0.15728   -20.8695  0.72358 
   -7.48613  0.01863  2.40966     14.47035  1.56113  0.57871  15.06752  0.06309     0.05213  5042.11362   8393.15306  3.85217         2996.24609     20.06469  0.06448  53614.34114  2.28504  0.28065    96487.40132   46.7139  19.44737  53655.12778    51.00965       44.13452   32.44019  50.46252   50.5     0.1396   -20.9094  0.99015 
  -13.09439  0.02708  5.25068     14.13079  1.87585  0.84316  18.39798  0.01664     0.20652  4722.05725   3767.27231   3.9959         2988.88813     19.49567  0.01739  53608.73288  2.44715  0.49813  2629422.92625  44.68175  19.48373   53659.7451    50.89983       44.10364   30.63796  45.05582   84.5    0.17124  -20.89233  0.93747 
  -10.00573  0.28624  3.76094     14.74455  1.61591   0.2967   5.90714  0.13499     0.06441   5416.0448    6413.8454  4.83715         2947.51592     18.68305  0.00268  53611.82153  1.03364  1.69083    68822.06563  46.48894  19.47498  53654.75412    50.97799       44.12249   28.83572  57.67145   62.5     0.1523   -20.8989   0.8769 
   -7.26025  0.21959  3.24176      14.7094  1.57025  0.44575   16.4622   0.0386     0.11253   5081.3198   3564.46102  3.63404         3022.51365     16.34316    1e-05  53614.56701  2.53553  3.61501    58417.09344  46.67671  19.50049   53659.7451    50.94268       44.17997   28.83572  46.85805   80.0    0.15136  -20.83543  0.81318 
  -14.60572  0.37931  5.81021     14.17492  1.86442  1.54082   9.27472  0.04458     0.02129  4965.17452   7661.91174   2.4241         3143.06482     16.80792    4e-05  53607.22155  1.36395  3.51799   2611547.9359  44.59411  19.44916  53654.75412    51.08512        44.2086   28.83572  52.26475   85.5    0.14461  -20.85235  0.63611 
   -3.57176  0.00233  1.80399     14.61865  1.72353  0.60089   7.44503  0.17101     0.42979   5823.9155   7077.21745  4.65096         2933.32284     18.22034  0.00092  53618.25551  1.50634  0.01737    30158.42915  47.51339  19.48659   53659.7451    50.90697       44.13089   30.63796  46.85805   48.5    0.12728  -20.86361  0.99973 
   -6.94668  0.02511  2.34846     14.34316  1.66117  0.97244  15.64395  0.07101     0.01455  5392.09876   8614.83301  4.21519         2965.88158     20.17181  0.08252  53614.88059  2.71325  0.39285   175180.83271  46.50421  19.49074   53659.7451    50.85299       44.09668   27.03349  46.85805   50.0    0.13145  -20.93967  0.98816 
   -8.74865  0.44007  2.70734     14.17782  1.37716  1.50123   12.3652  0.04054     0.08578  4869.47597   5618.48661  2.41811         3127.90101     20.54908   0.1967  53613.07861  1.74901  5.44151   413276.97831   45.9265  19.47117  53655.12778    50.97149       44.12094   34.24242  48.66029   97.5    0.14653  -21.03971  0.77224 
   -3.99042  0.07966  2.03644      14.5381  1.86749  1.11403  33.76083  0.02809     0.02193  5700.79652   5789.75391  4.11223         3016.24575     20.05986  0.06377  53617.83685  6.54503  2.68922    60342.11701  47.14174  19.46711  53657.43644    51.05257       44.16154   34.24242  54.06698   65.0    0.12563  -20.93131  0.95616 
   -8.34386   0.0904  2.89569     14.25406  1.66024  1.14101  20.60737  0.03573      0.0597  4792.85859   5277.02257  4.79274         2917.51947     20.56822  0.20556  53613.48341  2.82383  1.86287   401207.79341  45.96214  19.43563  53655.12778    50.99793       44.16212   28.83572  52.26475   61.0    0.14741   -21.0566  0.91947 
   -7.02455  0.12477  3.15419     14.34899  1.69709  1.05869   8.90115  0.08957       0.021  4935.47631   8689.98978   4.6442         2980.41715     19.31255  0.01141  53614.80272   1.2934  1.11058   314279.97305  46.00346  19.48379   53659.7451    50.98272       44.11162   27.03349  52.26475   52.0    0.14889  -20.85639  0.94355 
   -9.38706  0.36572  4.71608      14.5972  1.53079  0.67518   14.9293  0.03301     0.04609  4941.67393   7852.87713   4.2352         3030.73161     18.37138  0.00131  53612.44021  2.17478  5.45994    202062.8258  45.80111  19.49524   53659.7451    50.97546       44.10676   28.83572  52.26475  101.5    0.13913  -20.82314  0.56519 
  -13.73137  0.06007   4.4997     14.16673  1.51451  0.58084  21.43069  0.01464     0.08418  4772.23801    6047.8386  2.51114         3107.39683     18.86977  0.00412  53608.09589  2.91144  1.28744   1321266.0609  45.02176  19.51871  53662.05376    50.93461       44.13133   27.03349  48.66029   87.5    0.16483  -20.85383  0.85224 
   -9.89753  0.23928  3.68993     14.65504  1.51371  0.40658  16.03941  0.03595      0.0304  5162.79692    5727.3756  2.52432          3123.0068     17.24402   0.0001  53611.92974  2.55027  3.83793    93714.84378  46.34304  19.48378  53657.43644    51.03365       44.14566   28.83572  54.06698   84.5    0.14763  -20.85304  0.74783 
   -7.99238  0.00602  3.04069     14.33383  1.88761  1.14736   9.68985  0.09583     0.29409   5143.1078   4733.79194  4.39625         2995.54407     20.31955  0.11595  53613.83489  1.52896  0.05836   348350.17524   46.0368  19.48796  53657.43644    50.94685       44.17866   30.63796  48.66029   52.0     0.1458  -20.98322  0.99751 
  -14.18392  0.08994  5.12018     14.02964  1.84562  1.42958   7.78792   0.0528     0.02124  4964.77427   4839.15382  3.76024         2955.94366     19.23599  0.00957  53607.64335  1.14511  0.70048  3919590.28809  44.52318  19.48674   53659.7451    50.99702       44.12203   32.44019  52.26475   76.0    0.16409  -20.88697  0.91675 
  -10.38807  0.19519  5.29841     14.48046  1.80885  0.90182  21.87474  0.02365     0.15153   4806.2349   5760.25096  4.75867         2960.87251     16.89828    4e-05   53611.4392  3.01426  4.26972   515918.74069  45.36538  19.47719   53659.7451    50.88382       44.11839   25.23126  46.85805   94.0    0.14403  -20.83764  0.62711 
  -12.31687  0.36599  6.20328     14.37632   1.9118  0.97651  11.40633  0.04165     0.01526  5301.39762   4031.92594  3.73962         2934.01604     17.94821  0.00049   53609.5104  1.91229  4.17465  1207445.47865  44.88318  19.50618   53659.7451     50.8748       44.10523   28.83572  46.85805   85.5    0.15537  -20.87585  0.57471 
  -13.77768  0.15701  5.13672     14.17383  1.85884  0.93383   9.14248  0.04433     0.04104  4542.15459   3629.29344  4.19919          2983.1557     20.02682  0.05909  53608.04959  1.12516  1.43542  2045324.21006  44.80595  19.47682  53657.43644    51.02333       44.18714   27.03349  46.85805   81.0    0.16138  -20.91574  0.84453 
  -12.51164  0.24431  6.06041     14.76326  1.97264  0.33598  12.86906  0.03722     0.02544   5206.1953    8035.6774  4.18144         2936.21076     17.04613    6e-05  53609.31563  2.08073  3.14402   200144.33927  45.69755  19.52936   53659.7451     51.1023       44.30324   23.42903  48.66029   77.0    0.15806  -20.86733  0.66312 
   -4.40481  0.00288  1.57016     14.32493  1.50373  0.91444  11.54747  0.09263     0.08942  5098.85999   9499.26337   3.7923          3031.7658     20.40931  0.14257  53617.42246  1.79085  0.03324    77092.53601  47.16712  19.49349   53659.7451     50.9548       44.20069   23.42903  46.85805   47.5    0.12881  -20.99882   0.9995 
