 texplosion  fnickel    Pspin  log(Bfield)      Mns  thetaPB   mejecta    kappa  kappagamma      vejecta  temperature    alpha  cutoff_wavelength  log(nhhost)      A_V         MJD0   kenergy  mnickel           TSD   log(L0)  Peak_mag     Peak_MJD  log(E_rad)  log(Peak_lum)  Rise_Time    E_fold  tau_1  delta_m15     r_peak     frac 
    -1.8501  0.35217  1.03345     14.98983  1.59229  0.78187  21.88637  0.04315     0.08689  11459.30637   4965.00475  1.71116         2790.61063     16.55676    2e-05   54137.8499  17.14421  7.70771    1654.88331  49.22352  23.48368      54185.5    51.04617        44.1063   25.19613  78.49563   95.0    0.16566  -21.08708  0.99599 
   -1.57729  0.27844  0.91954     14.94682  1.57683   1.2615  29.94465  0.02625     0.40013  11524.19328   4795.75742  1.79467         2848.06882     18.11694  0.00073  54138.12271  23.72288  8.33783     1581.6377  49.34038  23.42033      54185.8    51.02667       44.09841   23.25796  72.68114   96.5    0.17154  -21.15151  0.99818 
   -1.92621  0.45995  1.45605     14.98641  1.87153  1.25996  17.45145  0.04503     0.20357   10206.1546   5242.20732   2.1846          2774.3651     19.07356  0.00658  54137.77379  10.84383  8.02685    3922.31394  48.62114  23.34308      54182.8    50.97206       44.17597   22.28888  43.60868   90.5    0.18516    -21.333  0.99094 
   -3.15172  0.49634   3.2897     14.73137  1.95297  1.32126  10.57844    0.063     0.20285   7476.05615   3253.98953  2.85353          2764.4936     19.91605  0.04579  54136.54828   3.52691  5.25045   67620.44617  46.69515  23.47782  54186.63072    51.03582       44.10251   23.44935  75.39699   90.5    0.15358  -20.77987   0.8213 
   -5.44766  0.36402  4.29914     14.66681  1.96064  1.12573  13.28764  0.06883     0.15017   9187.64901   6042.19724   2.2518         2710.84973     18.72713  0.00296  54134.25234   6.69089  4.83693  156086.00178  46.10112  23.44203  54186.63072    50.99629       44.09485   25.00935  75.77516   85.5    0.17176  -20.86232  0.72335 
   -1.63005  0.38312  0.97759     14.94019  1.54096  1.26709  20.74734  0.03569     0.12293  11181.82049   6024.68325  1.92702         2753.46894     16.53365    2e-05  54138.06995  15.47443  7.94868    1801.14346  49.22077  23.37707      54182.8    50.92839       44.10198   22.28888  45.54684  108.0     0.1741  -21.08269  0.99772 
   -1.76525  0.31134  0.82471     15.11893  2.06553  1.13734  28.28414  0.03409     0.09708  11948.68952    6422.2295  2.05248          2679.6184     19.01159  0.00571  54137.93475  24.08855  8.80597     754.39511  49.87367   23.4486  54186.63072     50.9692       44.08775       24.4  71.89883  105.5    0.14609  -21.18225  0.99938 
   -1.86154  0.40494  1.10078     15.04021  1.68023  0.67359  20.86197   0.0552     0.11825  12091.97007   6442.69706  1.68984         2777.58474     16.71912    3e-05  54137.83846  18.19603  8.44784    1571.00945  49.21463  23.45902      54185.5    51.02743        44.0974   24.22705  76.55746  101.0    0.14983  -21.18453   0.9943 
   -1.40685  0.41255  0.84557     14.92631  1.35496   1.0782  17.09938  0.03022     0.01706    9063.8742   4410.52419  2.25536         2753.77615     18.46242  0.00161  54138.29315   8.37983  7.05437    1263.04929  49.44505  23.46846  54184.20801     50.8601       44.08494   23.25796  39.73235   30.0    0.38535  -22.35979  0.99858 
    -5.0324  0.45822  5.15602      14.7588  1.98124  0.95839   9.15231  0.06378     0.07347   8027.79714   7412.95761  2.53604         2724.32423     17.71413  0.00029   54134.6676   3.51844  4.19374  148521.74691  45.96936  23.38925      54182.3    50.91462       44.10099   22.28888  44.57776   82.5    0.20202  -20.70171  0.67913 
   -2.46714  0.27853  0.95754     14.96391  1.91792  1.56813  29.06009  0.03473     0.03809  11243.56921   6104.52805  1.80724         2819.34492     18.75224  0.00314  54137.23286  21.91455  8.09414    1928.17156  49.30422  23.41429  54189.05342    51.10294       44.14048   26.52494   85.2792   97.0    0.13865  -21.09872  0.99825 
    -2.0147  0.25181  1.14735     15.02727  1.84144  1.32827  30.95766  0.02189     0.13774   9882.48902   4888.79348  2.04859          2788.1576      18.7355  0.00302   54137.6853  18.03549  7.79553    1985.28869  49.11679  23.41948  54186.63072    51.03047       44.10471    23.6177  76.55746  103.5    0.16088    -21.039  0.99726 
    -6.3264  0.46058  5.09681      14.5739  1.89805   1.2474   9.06276   0.0856     0.14277   9793.98982   6882.04581  2.08949         2733.83842     18.63632   0.0024   54133.3736   5.18569  4.17412  325772.26269  45.61964  23.44079      54185.8    51.06265       44.11225   25.00935  79.65149   72.5    0.21651  -20.88919  0.66855 
   -1.86409  0.37868  1.01276     14.98985  1.53669  1.15223  22.35735  0.03269     0.14224  11079.41519   8359.75807  2.23095         2695.67492     18.33768  0.00121  54137.83591  16.37122  8.46631    1533.58791  49.25871  23.49404      54185.5    51.06335       44.11069   26.16521  80.43379   94.0    0.15507  -21.10287  0.99757 
    -1.7632  0.40831  1.12099     15.04111  1.63783  1.03822  20.09499  0.03633     0.03573   11436.6238   6771.99369  1.88889         2746.97602     16.95538    5e-05   54137.9368  15.67872  8.20491    1581.47596  49.18485  23.45634      54185.8    51.04416       44.10546      24.72   78.3624   91.5    0.17571  -21.10318  0.99687 
   -1.72353  0.29241  1.38416     15.06657  1.76489  1.01165  25.33994  0.02339      0.0332    9235.0957   7148.71063  2.29406         2797.96963     17.68097  0.00027  54137.97647  12.89186  7.40961     2310.8484  48.86942  23.43661  54186.63072    51.07258       44.12337       24.4   78.6824  106.0    0.16012  -20.93423    0.994 
   -3.57033  0.44665  4.54963     14.79906  2.07188  1.12671  10.19696  0.05357     0.02251   7402.81833   3003.24272  2.90447         2748.94674     18.81384  0.00362  54136.12967   3.33344   4.5545  100463.27784  46.26725  23.42779      54185.5    50.93803        44.0929      22.84   64.7371   76.5    0.19239  -20.69398   0.7348 
   -1.89985  0.43925  1.13431     14.95702  1.75517  1.27459   17.9715  0.04644     0.15174  11381.63905   9729.78817   1.8596         2752.79851     16.61056    2e-05  54137.80015   13.8874  7.89397    2556.06649  48.99613  23.46079      54185.5    51.01488       44.11034   24.22705  75.58838   77.0    0.16524  -21.08592  0.99623 
   -2.18476  0.29364  0.81578     14.88197  1.53833  1.35496  29.73803  0.03108     0.01757  11489.23673   6908.21402  1.96078         2640.80879     18.89458  0.00436  54137.51524  23.41649  8.73215    1637.09945  49.41868  23.45536      54185.8     51.0702       44.10931   26.16521  80.43379   79.5    0.14636  -21.15548  0.99848 
   -4.19527  0.49912  4.30666     14.73824  1.76527  1.07013  11.13381  0.05262     0.03067   8512.04064   5073.73749  2.76655         2746.99901     19.25918  0.01009  54135.50473   4.81214   5.5571   101489.9263  46.24095  23.47762  54186.63072    51.07562       44.13678   27.13429  82.37195   81.5    0.18581  -20.82852  0.66615 
    -1.8536  0.23419  0.81233     15.04707  1.65945  1.10966  32.23395  0.01904     0.22748  10131.63459   6581.35172  2.00681         2845.50476     17.28406  0.00011   54137.8464  19.73784  7.54889     818.65875  49.75625  23.45654  54186.63072    51.02569       44.10406      22.84  75.39699  112.0     0.1633  -20.98159  0.99928 
   -1.61476  0.37451  1.14509     15.05955  1.74252  1.02108  21.68854  0.03561     0.04646  11632.39129   5455.40502  1.87509         2738.16897     17.62368  0.00023  54138.08524  17.50635  8.12266    1612.78161  49.18477  23.46629      54185.8    51.11611       44.14594   28.04935  87.27139   96.0    0.17312  -21.12303  0.99683 
   -2.49562  0.38663  1.17001     14.96872  1.70507  1.25897  21.45456  0.03982     0.15906  11538.58093    5140.9966  1.84897         2773.36708     17.48307  0.00017  54137.20438  17.03929  8.29496    2503.24295   48.9657  23.47221  54186.63072    51.07228       44.11531   26.16521  82.37195  101.5    0.15715  -21.11736  0.99571 
   -5.50941  0.30037  4.59068     14.64989  1.91259  1.18162  13.09288  0.05166     0.26583   7781.65018   3934.82471   2.5498         2734.88723     16.69225    3e-05  54134.19059    4.7294  3.93272   187673.7276  45.95331  23.42504      54185.5    50.98607       44.12266   22.28888  68.80481   76.5    0.18539  -20.67943  0.72998 
   -5.58925   0.4298  4.23062     14.61228  1.79588  1.05944  10.61749  0.07634     0.18796   8925.05729   5234.75381   2.3154         2711.83802     18.45657  0.00159  54134.11075   5.04511  4.56345  177966.39042  46.01998  23.35641      54182.8     50.9222       44.09582   22.28888  48.45409   81.5    0.17954  -20.84099  0.71371 
   -1.90099  0.37871  0.85568      14.9487   1.4614  1.10481  21.04484  0.03274     0.12593  10743.16919   7616.17587   1.9766         2800.51977     16.20324    1e-05  54137.79901  14.48897  7.96991    1258.38283  49.46918  23.43378  54186.63072     51.1099       44.14599   26.52935  85.88414  103.0    0.16522  -21.05002  0.99853 
   -1.71865  0.44672  0.96048     14.97168  1.60748  1.12905   17.4694  0.04283     0.23335  10848.48628   5198.26115  1.84973         2783.42731     17.80789  0.00036  54137.98135  12.26432  7.80394    1568.88289  49.31442  23.40499  54186.63072    50.95382       44.10676   24.22705  65.89756  104.5    0.16229  -21.05043  0.99799 
   -1.59936  0.42807  1.03721     15.07674  1.83485  1.09343  18.06122  0.04331     0.04544  11650.26253   4253.35898  1.92092         2657.27526     17.99707  0.00055  54138.10064  14.62331  7.73156    1287.28693  49.39103  23.34989      54182.8    50.89153       44.09836    21.3198  40.70144   78.5    0.18056  -21.08478  0.99827 
   -2.28843  0.49998  2.40192     14.86533  1.78987  1.20515  13.04073  0.04889     0.19736   8493.85923   5286.00766  2.54771         2768.69228     18.96386  0.00511  54137.41157   5.61228  6.52005   17827.41322  47.50946  23.47138      54185.8    51.02844       44.10871   25.00935   78.6824  107.5    0.15629  -20.86639   0.9205 
   -2.23937  0.35538  1.13689      15.1005  1.77774  0.83987  23.57788  0.03514     0.02928  11287.84521   6686.63257  1.82204         2819.76283     16.00653    1e-05  54137.46063  17.92066    8.379    1343.15452  49.27915  23.49658  54186.63072    51.05131       44.10383   26.16521  79.46471   90.0    0.15576  -21.12669  0.99656 
    -2.3821  0.30128  1.72203     14.99384  1.69259  1.25545  22.57372  0.02052     0.02373    8027.7573   6314.10325  2.51042         2733.24472     18.64043  0.00243   54137.3179   8.67798  6.80096    4794.70988  48.34456  23.47491  54186.63072    51.01074       44.09979   26.16521  77.52654  111.0    0.15598   -20.7755  0.98557 
   -1.42487  0.41356  1.18583      15.0166  1.79447  0.97585  19.67706  0.04726     0.04162   11821.5779   5871.55067  1.77951         2741.26785     17.86262   0.0004  54138.27513  16.40357  8.13772    2170.69857  49.03814  23.37231      54185.5    50.95514       44.08448   23.25796  58.14491   75.0     0.2357  -21.53509  0.99531 
   -1.57368  0.34962  1.24207     15.02568  1.68492  0.96853  20.98257  0.03535     0.11436  10881.30483   5818.78568  2.03871         2684.99289     16.36253    1e-05  54138.12632  14.81998  7.33599    2144.47467  48.97581  23.43209  54186.63072    51.05323       44.13297   26.16521  80.43379  107.0    0.18034  -21.02971  0.99507 
   -8.21185  0.44911  6.39072     14.50487   1.9573  1.21768   7.04838  0.07786     0.13223   8929.36312   6822.19441  2.05461         2719.99103     18.35868  0.00127  54131.48815   3.35241  3.16553  725811.03556  45.08858  23.45889  54186.63072    51.06956       44.11069   25.32935  81.26965   68.0    0.25094  -20.79679  0.63698 
   -1.19873  0.41379  0.87985     15.09163  1.77841   0.7518  21.09436  0.05121     0.01151  12420.12651   8807.79354  1.90721         2658.61863      17.6632  0.00026  54138.50127  19.41089  8.72857     838.31412  49.70665   23.4505  54186.63072    51.03732       44.10019       24.4  76.74424   46.5    0.16848  -21.20634   0.9984 
   -1.24061  0.32159  1.13609     14.86034  1.40442  1.02201  21.70946   0.0298     0.08589   9378.22551   6499.35218  2.18692         2766.33571     18.94166  0.00486  54138.45939  11.38984  6.98162    3202.34545  48.80005  23.41251  54186.63072     51.0774       44.13145      24.72  81.26965  111.5    0.16496  -20.91388  0.99347 
   -1.68913  0.48551  1.37686      15.0951   1.8131  0.86403  15.70129  0.05018     0.07761  11475.65375   8035.39067  1.93234         2730.45673     16.59078    2e-05  54138.01087  12.33438   7.6231    2059.74668  48.93567  23.41047  54186.63072    50.99419       44.11264   24.22705  72.68114   88.0    0.17685  -21.07664  0.99342 
   -5.48955  0.39077  3.87878     14.53236  1.71306  1.23429  11.06214  0.07677      0.2661   9263.33262   5726.85363  2.14217         2751.62486     18.50956   0.0018  54134.21045    5.6624   4.3228  206180.52352  46.01098  23.42954  54186.63072    51.02408       44.10693   24.22705  77.52654   78.0    0.19992  -20.86956  0.74493 
   -4.65164  0.32414  2.36897     14.48236   1.4616  0.95452  15.87716  0.08459     0.03927   9166.01256   4553.15225  2.38335         2711.77353     18.98469  0.00536  54135.04836   7.95721  5.14642   82613.22731  46.76751  23.39179      54185.5    50.95895       44.09933   22.64861  66.86664   69.0    0.13093  -20.93527  0.84517 
   -2.08522  0.44584  1.20954     15.02911  1.63123  0.96832  17.57389  0.04105     0.03008  11022.99292    6366.7772  2.04613         2752.53758     17.23456   0.0001  54137.61478  12.73779  7.83518    1937.95059  49.02877  23.42894  54184.20801    50.96368       44.14255   23.25796  45.54684   87.0    0.16884   -21.0742  0.99533 
   -3.27017  0.29195  3.17264      14.7034  2.00137  1.27803  15.26396  0.06106     0.21804   7897.03988    3308.7645  2.81209         2737.28119     16.41459    1e-05  54136.42983   5.67836   4.4563   73311.73728  46.70216  23.43867  54186.63072    50.97739       44.09427   24.22705  69.77389   77.0      0.141  -20.75408  0.85487 
   -1.65485  0.31207  1.18726     15.04331  1.64302  0.75661  25.57036  0.03068     0.25235   10002.1368   6507.62244  2.20605         2826.93724     17.93219  0.00048  54138.04515  15.25983  7.97976    1761.65996  49.08948  23.45865      54185.8    51.02313       44.10885   23.32935  70.67159  110.0    0.15449  -21.06089  0.99407 
   -2.08751  0.27044  0.89856     14.94628  1.69679  1.48061  30.12031  0.03082     0.06855  12100.52258   9484.16176  1.87832         2749.15245     16.41145    1e-05  54137.61249  26.30842  8.14582    1629.20524  49.37941  23.45183      54185.5     51.0029       44.09296   24.22705   74.6193   77.0    0.17045  -21.15253  0.99851 
   -5.02867  0.43668  3.83759     14.70816  1.79644  0.99551  10.89297  0.07474     0.19882   9050.76889   6784.38594  2.27894         2742.32114     18.48126  0.00168  54134.67133   5.32285  4.75677    94195.7877  46.38111  23.41661  54184.20801     51.0427       44.14088   23.32935  70.67159   86.5    0.18012   -20.7947  0.75045 
   -1.78824  0.29671  0.83378     14.99391  1.75215  1.09915  26.23799  0.03464     0.06166  11232.38231   8204.41237    2.128         2694.60102     17.14438    8e-05  54137.91176  19.74702  7.78513     1163.2272  49.60465  23.47588  54186.63072    50.99211       44.08732   25.00935  74.80608   88.5    0.14679  -21.06933  0.99894 
   -1.42736  0.31126  1.09353     14.92831  1.64892  1.20521  25.26447  0.03137     0.18604  10443.40662   5283.50082  2.00443         2782.72464     19.04061   0.0061  54138.27264  16.43697  7.86379    2547.11256  49.00234  23.48496      54185.5    50.96577       44.12585   24.41843  50.20087   81.5    0.24621  -21.43871  0.99612 
   -2.55016  0.48763  3.09502     14.92791  1.98306  1.45273  12.75646  0.04103     0.01919   8564.99442   5893.64965  2.50013         2771.42392     17.52986  0.00019  54137.14984   5.58228  6.22042   24584.00161   47.1942  23.40247      54185.8    51.00823       44.09151   21.67953  71.71205   82.5    0.18076  -20.82283  0.87713 
   -1.84919  0.49266  1.57747     14.99277  1.78682  1.03983  15.49555  0.04761     0.12533  10411.80459   7052.64723  2.15525         2727.94389     19.22246  0.00927  54137.85081  10.02042  7.63402    4268.44678  48.49474  23.43343  54186.63072    51.02393       44.11236   25.00935   78.6824  105.0    0.15552   -21.0315   0.9861 
   -2.55882  0.39125  1.01779     14.79019  1.69478   1.5245  19.98924  0.06343     0.30201  12062.50798   6397.57416  1.66434         2768.80385     18.06986  0.00065  54137.14118  17.34997  7.82078    4284.11153  48.85078   23.4218  54184.20801    50.95227       44.07552   24.22705  57.17583   98.5    0.14701  -21.13159  0.99525 
   -1.86158  0.26674  0.72085     14.92845  1.67717  1.49594  31.14833  0.03112     0.01802  12408.09569   8603.22742  1.82189         2712.12537     16.91241    5e-05  54137.83842  28.60699  8.30862    1125.07617  49.72655  23.41015  54184.20801    50.95882       44.09187   24.22705  56.20674   67.0    0.16546  -21.15984  0.99932 
   -4.94432  0.42216  3.69171     14.64665  1.67664   0.9853  11.70037  0.06785     0.13276   8766.60059   3506.61709  2.37132          2700.9094     18.72436  0.00294  54134.75568   5.36401  4.93947  107996.97066  46.32542  23.48276      54185.8    51.06773       44.10621   25.32935  80.30057   78.0    0.16479  -20.81377  0.73643 
   -2.05851    0.421  0.94345     15.02551  1.64873  0.97448  20.62861  0.04468     0.02901  12456.71498   9487.28634  2.00769         2697.83502     16.45085    2e-05  54137.64149  19.09432   8.6846    1211.65335  49.45318  23.42064  54184.20801    50.92505       44.09221   23.25796  49.42317   64.5    0.17769  -21.21437  0.99806 
   -2.88065  0.35958  1.65114     14.91012   1.6769  1.49536  19.92953  0.02999     0.01683   8797.85795   5702.53125  2.47286         2729.55113     19.32662  0.01179  54136.81935   9.20191  7.16631    6421.73617  48.25013  23.42503      54185.5    50.91214       44.09605   23.25796  46.51593   88.5     0.1432  -20.87299  0.98297 
   -4.23286  0.38943  4.07468     14.72427  1.75919  1.12659  13.16076  0.04056     0.04422    7024.8155   4340.42338  2.89019         2674.87622     18.36108  0.00128  54135.46714   3.87416  5.12525   96555.09266   46.3092  23.47772      54185.8    51.03955       44.11378   28.04935  79.51873   95.0    0.16349  -20.64874  0.70869 
   -1.38488  0.38238   0.7904     15.03239  1.64408  0.81427  22.16088  0.04161      0.1032  11354.58551   6041.66351  1.95362          2780.9493     19.26207  0.01016  54138.31512  17.04342  8.47395     821.59204  49.77442  23.45321  54186.63072    50.99439       44.11875   26.16521  68.80481  105.5    0.14797  -21.14009  0.99883 
   -2.36704  0.44133  1.13428     14.93436  1.65183   1.1734  17.44867    0.048     0.04279  11204.54743   6200.61263  1.99095         2747.14244     17.39035  0.00014  54137.33296  13.06706  7.70067    2669.94339  48.95086  23.44332      54182.8    50.93841       44.07952   22.28888  52.33042   90.5    0.15708  -21.06077  0.99562 
   -1.97936  0.37826  1.87726     14.82486  1.76538  1.43462   17.9958  0.04168     0.05235   8635.64757   5048.24615  2.44232         2701.01743     19.33105  0.01191  54137.72064   8.00549  6.80709   12941.13053  47.85666  23.46372      54185.8     51.0465       44.10508   26.52494  82.37195  100.5    0.16262  -20.94762  0.96241 
   -2.53851  0.25923  0.88387     14.98127  1.69046  1.38512  31.44851  0.02548     0.03479  11558.91232   8905.39092  1.77784         2752.16396     19.19216  0.00865  54137.16149  25.06462   8.1523    1336.75015  49.47803  23.46842  54184.20801    51.11715       44.14547   28.04935   86.3023   80.0    0.16064  -21.09508  0.99878 
   -2.23676  0.35853  1.06441      14.9886  1.56768   0.9389  21.01523  0.03712     0.02902  11066.16814   6715.51881  1.98153         2735.03632     16.65655    3e-05  54137.46324  15.35168  7.53462    1738.16288   49.1698  23.39149      54182.8    50.82994       44.09017   22.28888  38.76327   87.5    0.16507  -21.03474  0.99661 
   -1.57648  0.39416   0.9641     15.06085  1.61314  0.70357  19.03929  0.04465     0.02919  10918.90101   8704.78112  1.92717         2698.73416     16.89943    4e-05  54138.12352  13.54053  7.50453    1052.03946  49.48624  23.45939  54186.63072    51.06823       44.11467   26.16521  82.37195   74.0    0.15794  -21.06252  0.99746 
   -2.45548  0.43229  1.32971     15.02153  1.77325  1.29867  17.30224  0.03915     0.02198  10929.78973   5542.28148   1.9043          2728.8618     18.11636  0.00073  54137.24452  12.32972  7.47953    2636.58197  48.84906  23.49151  54186.63072    51.00433       44.07761   25.00935  76.74424   78.5    0.17593  -21.00617  0.99507 
   -1.63232  0.35664  0.83425     15.02386   1.6198  0.88664  23.02177  0.03982     0.08846   12104.8563   5121.55884  1.68446         2729.21201     17.32246  0.00012  54138.06768  20.12265  8.21055     937.87795  49.66357    23.471  54189.05342    50.99925       44.08384      25.92  78.13149   98.5    0.16973  -21.15179  0.99871 
   -1.55903  0.43693  2.26826     14.99312  1.79278  0.89064  13.92172  0.03639     0.02747   7396.04954   5703.26393  3.04547         2731.75151     19.09122  0.00685  54138.14097   4.54276  6.08285    8840.82678  47.86449  23.51284  54186.63072    51.00249       44.09153   25.32935   78.3624  104.5    0.17226  -20.76003  0.94804 
   -1.44824  0.49762  0.79642     15.16927  1.86437  0.88366  17.05878  0.05159     0.01287  13073.08579    8908.4107   1.6402         2673.51738     17.53713  0.00019  54138.25176  17.39127  8.48886      503.6031    50.035  23.43871      54185.8    51.02369       44.11171   23.25796  71.71205   43.0    0.24666  -21.39744  0.99943 
   -2.11949  0.46022  1.21114     14.94697  1.67012  1.10084  16.73046  0.05212     0.15584  11377.37147   6846.01607  2.05665         2711.29637     17.87571  0.00042  54137.58051   12.9187  7.69965     2904.0511   48.8622  23.46898  54189.05342     51.0761       44.11298   27.13429  86.24828  101.5    0.16852  -21.08959  0.99427 
   -1.41239  0.24131   1.0243     15.15851  1.78072  0.79948  32.13028  0.02135     0.02705  10779.44054   7252.04822  1.99835           2784.497     16.45937    2e-05  54138.28761  22.27071  7.75337     836.06653  49.57635   23.4531  54184.20801    50.97703       44.13174   23.25796  51.36134   40.0    0.35333  -22.01044  0.99826 
   -1.43867  0.48953  0.97257     15.08508  1.66047  0.73648  16.59826  0.05492     0.04807  12091.29584   9887.98877  1.57432         2711.61734     16.76598    3e-05  54138.26133  14.47556  8.12531     985.68491  49.51949  23.41701  54184.20801    50.92885       44.08942   23.25796  50.39225   54.5    0.22083  -21.41551  0.99764 
   -2.12471  0.30748  0.97819     14.88023  1.47249  1.37043  23.68314  0.02627     0.01491   9207.52899   5885.71769  2.27259         2716.29865     18.48632   0.0017  54137.57529  11.97713  7.28215    2271.18521   49.0998  23.45221      54185.5    51.03765       44.10752   24.22705  76.55746   89.0      0.146  -20.91414  0.99739 
   -1.40501  0.31128  0.81937     14.87097   1.5092  1.19805  26.80304  0.03596     0.02646  12134.20131   5405.69832  1.73106         2680.37906     16.90547    4e-05  54138.29499  23.54147  8.34326    1704.43134  49.38906  23.43598      54185.5    51.01048        44.1043   23.44935  73.45883   37.5    0.34772  -22.52445  0.99829 
    -2.4552  0.45959  1.22853     14.94211  1.70739  1.22897  17.29699  0.05234     0.09302  12107.40562   7074.58472    1.868          2743.3569     16.65345    3e-05   54137.2448  15.12515  7.94956     3123.8809  48.82771  23.42915      54185.5     50.9864       44.13815   22.28888  65.89756   97.0    0.16728  -21.12112  0.99426 
   -1.44644  0.44249  1.23993     15.04092   1.7789  1.13788   18.3787  0.04002     0.07615  11082.49318   5423.60361  2.09412         2733.47178     17.06668    6e-05  54138.25356  13.46533  8.13246     2103.3664  49.00929  23.47473  54184.20801      51.048       44.11087   25.19613  78.49563   99.0    0.21895  -21.26448  0.99582 
   -1.50027  0.25082   0.9733     14.95053  1.67592  1.20325  30.43829  0.02685     0.02675  10878.85916    6714.9983  2.09334         2747.33131     17.31277  0.00011  54138.19973   21.4889  7.63459    1851.40595   49.2491  23.41711  54186.63072    51.04162       44.10694   24.22705  77.52654   92.0    0.16521  -21.11747  0.99786 
   -1.75259  0.22927  0.81184     15.03907  1.65426  1.35166  38.38756  0.01805     0.01959  11777.39878   5664.27237  1.88662         2630.26838     19.95558  0.05015  54137.94741  31.76263  8.80094     845.68962   49.7413  23.45186      54185.8    50.99869       44.09214   24.22705   74.6193   93.5    0.17656  -21.15216  0.99927 
   -5.82207  0.49034  5.22113     14.77807  1.97787  1.38229  11.62129  0.05018     0.07807   8201.47856   5889.13092  2.49738            2651.04     19.25131  0.00991  54133.87793     4.663  5.69836  139126.48605   45.9861  23.45028  54189.05342    51.06975       44.10841   26.16521  81.40287  104.5    0.16267  -20.75033  0.60792 
   -1.45897  0.41417   1.0715     15.02513  1.65992  0.91005  18.54445  0.03979     0.05681   10710.3686   8577.56675  1.98724         2759.34331     16.94056    5e-05  54138.24103  12.68966  7.68053    1576.27264  49.23131  23.40982      54185.8    51.02746       44.11625    23.6177  75.58838   82.0    0.20468   -21.1935  0.99687 
   -1.68999  0.35066    1.071     14.99111  1.75898  1.29163  23.15532    0.034     0.24984  10565.78508   6541.24869  2.03545         2753.68087     17.46158  0.00016  54138.01001   15.4199  8.11957    1951.78685  49.16409  23.41122      54185.5    50.95259       44.07646   23.25796  61.05215  109.0    0.15655  -21.06952  0.99739 
    -1.9512   0.4094  1.00338     14.95281  1.83485  1.51832  20.07271  0.04627     0.02027  11335.23445   7841.45185  1.81649         2776.69159     18.49967  0.00176   54137.7488  15.38488  8.21773    2131.71611  49.20079  23.43908      54185.5    51.04664       44.11235   23.25796   74.6193   69.0    0.20678  -21.32612  0.99775 
   -1.82402  0.33493  0.91366     14.89115  1.72178  1.19027  26.49826  0.04092     0.03652  11449.80646   5472.89127  1.90056         2708.83508     19.84425  0.03881  54137.87598  20.72244  8.87508    2203.25894  49.24019  23.42101  54186.63072    51.03257       44.12266   25.00935  77.71332   91.5    0.13425  -21.19028  0.99743 
    -1.3235  0.45204  0.78138     15.14225  1.70902  0.82337  16.41906  0.03646     0.08228   9464.24719   8054.61701  1.98948         2873.76629     17.27919  0.00011   54138.3765   8.77299  7.42201     503.24805  50.01409  23.47077  54186.63072    51.07275       44.11565   25.32935  82.23873  100.5    0.15846  -20.93563  0.99942 
   -2.24277  0.42403  0.73725     14.91381  1.80376  1.53264  22.11875  0.05748       0.113  13286.40115   6823.57827  1.37156         2824.24782     18.29204  0.00109  54137.45723  23.29177  9.37891    1353.93308   49.6582   23.4568  54184.20801    50.90362       44.06315   23.25796  48.45409   96.5    0.14734  -21.29265   0.9991 
   -2.15593  0.38774  1.08416      14.9441  1.42517  0.80596  21.33425  0.03885       0.122   10692.0179   5544.12559  2.00708         2797.36302     18.94799  0.00493  54137.54407  14.54869  8.27213    2012.21151  49.04885  23.39565      54185.5    50.95003       44.09792   24.22705  50.39225  107.5    0.14578  -21.10278  0.99388 
    -1.8476   0.3672  0.98312     15.01811  1.60587  1.36757  20.17115  0.02338     0.02251    9149.8961   8947.69916  2.31131         2754.51811     19.86185  0.04042   54137.8524  10.07372  7.40689    1325.92725  49.36682  23.43002  54186.63072    51.05769       44.11905   24.22705  77.52654   86.0     0.1717  -20.89892  0.99856 
    -5.5795   0.4488  4.66134     14.66929  1.82069  1.16097  10.39764  0.06057     0.09009   8741.33158   6949.02286  2.37201         2627.09554     19.35807  0.01267   54134.1205   4.73933  4.66643  168461.50539  45.96556  23.45073  54186.63072    51.05611       44.11002   25.00935  77.71332   87.5    0.20134  -20.75941  0.67345 
    -2.3645   0.4619  0.94815     15.00541   1.7217  1.38005  20.12433  0.04834     0.19715  13450.24189   5888.44799  1.53992         2724.98824     16.89084    4e-05   54137.3355  21.71745  9.29546    1401.85146  49.40435  23.41604      54185.5      51.006       44.10884   24.22705  75.58838  103.5    0.16947  -21.26722  0.99835 
   -1.69486  0.46563  0.81359     14.96107  1.43758  1.09248  16.62691  0.03859      0.0176  10227.97492    7035.9075  2.23013         2712.37065     17.89072  0.00043  54138.00514  10.37572    7.742    1057.09132  49.58155   23.4342      54185.5    51.00711        44.0894   23.32935  67.76434   75.0     0.1614  -20.99984  0.99888 
   -5.90056  0.38158   5.2092     14.59002  1.81209  1.32842   9.94934  0.05186     0.14331   8012.16961     9231.104   2.3264         2681.53108     19.30312  0.01116  54133.79944   3.80997  3.79651  301649.96614  45.61398  23.45433  54186.63072    51.02906       44.12406   25.32935  77.39332   63.0    0.22343  -20.67332  0.66509 
   -2.03655  0.32696  1.04289     15.12203   1.6424  0.65836  24.08748  0.03451     0.04194  11149.44082   6395.37592  1.80044         2789.70145     16.72059    3e-05  54137.66345  17.86178  7.87573       945.605  49.47214  23.40294  54186.63072    50.97207       44.08376   22.28888  70.74297   96.5    0.15834  -21.11051  0.99693 
   -1.72274  0.44744   1.4871     14.95122  1.76522  1.04276  17.39335  0.04789     0.10439  10075.57158   6643.40665  2.10285         2802.70353     19.27911  0.01056  54137.97726  10.53295  7.78249    4537.96255  48.51411  23.44269  54186.63072    51.02795       44.11978      24.72  77.39332  105.0    0.13454  -21.04904  0.98651 
   -1.66616  0.24975  0.71786     14.93451  1.64582  1.43497   31.7788  0.02588      0.0189  10405.78486   8520.02808  2.16676         2767.74811     16.75283    3e-05  54138.03384  20.52647  7.93691    1064.78119  49.74589  23.44219      54185.5     51.0271       44.09436   24.22705  75.58838   80.5    0.14748  -21.04999  0.99937 
   -2.83398  0.42653  3.41294     14.85919  1.95835   0.9282  12.80489  0.05424     0.06435   8241.76338   5021.77617  2.76634         2661.20248     19.15408  0.00792  54136.86602   5.18852  5.46172   40512.31172  46.88689  23.35831  54184.20801    50.87792       44.11269   23.25796  39.73235   94.0    0.16544  -20.80217  0.80985 
   -1.56004  0.43091  0.88447     15.08614  1.62568  0.74555  20.30291  0.04535     0.04585    12058.961   7780.04361  1.75201         2760.19661     17.15423    8e-05  54138.13996  17.61186  8.74869     794.23394  49.68656  23.41065  54186.63072    50.95559        44.1292   26.52494  57.17583   84.5    0.16165  -21.21163   0.9983 
   -1.95813  0.35971  1.07029     14.91519  1.61713  1.21815  22.42311  0.03938     0.21433   11395.7306   5850.04932  1.91058         2738.58711      17.7219  0.00029  54137.74187   17.3703  8.06584     2542.0563   49.0134  23.38433      54182.8    50.92093       44.10511   22.28888  54.26858  100.0    0.19934  -21.24889  0.99616 
    -1.6334  0.49265  1.23464     15.02099  1.88258  1.05513  16.23575  0.05802      0.3984  11581.24943   8283.36495  2.11128         2702.19646     18.57954  0.00211   54138.0666  12.99004  7.99849    2419.14457  48.97685  23.44431      54185.8    51.01628       44.09312      22.84  72.48975   88.5    0.16522  -21.13331  0.99519 
   -2.35087  0.44693  0.95608     15.02948   1.8354  1.46846  17.20154  0.04092     0.04736  10538.22158   8328.38546  1.89902         2789.64225     19.24703  0.00981  54137.34913  11.39539  7.68781    1360.07147  49.43803   23.3944  54189.05342    51.02432       44.12599   26.52935  75.22424   87.0     0.1615  -21.01242  0.99877 
   -1.20412  0.25419  0.91678     15.02155  1.61265  0.85768  27.68241  0.02553     0.01071   9996.91865   8277.90537  2.13374         2725.16594      16.8932    4e-05  54138.49588  16.50302  7.03649    1139.67233  49.49507  23.39222      54182.8    50.87009       44.08214    21.3198  48.45409   68.5     0.1634  -20.94468  0.99829 
   -2.33176  0.34024  1.06416     14.86387  1.39396  1.11346  21.86997  0.03306     0.07907  10502.63974   6123.73151  2.02936         2750.83717     17.85476   0.0004  54137.36824  14.39038  7.44111    2743.65013  48.92075  23.45138  54186.63072    51.08241       44.12924   25.00935  79.65149  107.0     0.1587  -20.99581  0.99521 
   -1.52943  0.20106  0.91463     15.03461  1.38815  0.71689   35.4794   0.0164     0.16161   9471.45754    7822.7258  2.11024         2768.47487     18.06559  0.00065  54138.17057  18.98616  7.13355     919.43616  49.52527  23.45538  54186.63072    51.06767       44.11176   25.32935  80.30057  103.5    0.17931  -20.94487  0.99786 
   -5.49859  0.43924  3.90539     14.52527  1.81227  1.10303   8.95665  0.10205     0.25601  10433.70728   4459.06296  2.19476          2595.7154     20.16789  0.08177  54134.20141   5.81634  3.93416  228472.51063   45.9849  23.46003  54184.20801    50.97648       44.10186   22.28888  55.23766   58.5    0.22372  -21.00783  0.77369 
   -2.61296  0.45171  1.50348     14.90613  1.52452  1.24652  16.47247  0.03528      0.1572   9202.47219   3501.42834  2.08433         2903.87794     17.20015    9e-05  54137.08704   8.32137  7.44084    4930.35164  48.40491  23.45721      54185.8    50.95781       44.08376   25.19613  55.23766   96.0    0.15015  -20.93289  0.98616 
   -1.62058  0.25932  1.01259     15.16757  1.87703   0.7628  29.00372  0.02657     0.02164  10362.59136   5627.18747  2.00007         2704.85036     17.70382  0.00028  54138.07942   18.5788  7.52125     826.04926  49.61445  23.43753  54186.63072    51.05401       44.11418   25.00935   78.6824   92.5    0.15292  -21.01008  0.99834 
   -6.30965  0.38642  4.86785     14.65254  2.05783  1.40841  10.61073  0.06595     0.37016   8681.25118    7292.1115  2.15648         2743.30023     16.82674    4e-05  54133.39035    4.7702  4.10024  224294.28973  45.85676  23.42246  54186.63072    51.09247       44.12837   26.52935  84.91506   78.0    0.20394   -20.7679  0.71957 
   -1.33272  0.29996  0.97819     15.08426   1.7376  0.82201  24.60751  0.02813     0.01379   9117.83607   6777.23173  2.47419         2749.66819     17.45109  0.00016  54138.36728  12.20333  7.38127    1047.34001  49.50786  23.49545  54186.63072    51.08179       44.11654   27.13429  84.31012   84.0    0.14233  -20.92589  0.99814 
   -6.73405  0.33252  4.84917     14.53631  1.82108  1.12362   8.34687  0.06801     0.15428   7122.55652   4396.49781  2.40304         2902.98646     16.38369    1e-05  54132.96595   2.52594  2.77547  336395.13967  45.63099  23.40343      54185.8    50.94213       44.09701   21.67953  65.89756   66.5    0.21444  -20.64234  0.75869 
   -1.45876  0.49121  0.71623     15.04585  1.63376  0.99598  16.61874  0.04198     0.24164  10314.15673   8607.33937  2.21849          2758.7603     19.54717  0.01958  54138.24124  10.54612  8.16327     630.10149  49.97252  23.41031  54184.20801     50.8889       44.07688   22.28888  46.51593   90.0    0.19726  -21.20107  0.99946 
   -6.69238  0.42896   5.3661     14.58188  1.81332  1.40601   9.74382  0.06064     0.22901   9001.36176   6013.04121  2.02725         2749.05427     17.87795  0.00042  54133.00762   4.70948  4.17972  332538.44158  45.54616  23.51903      54185.5    51.04465       44.10499   26.16521  82.37195   84.5    0.22347   -20.7691  0.62955 
   -1.24226  0.41901  0.83797     15.16371  1.95453  0.92927  21.74445  0.04366     0.14244  12563.33543   7681.09614  1.74238           2716.743     17.49812  0.00017  54138.45774  20.47319  9.11104     599.65664  49.93553   23.4361  54186.63072    51.05658       44.10929   24.22705  78.49563   96.0    0.15486  -21.22799  0.99928 
   -1.03324  0.18924  0.90101     15.16944  1.86327  0.91385   39.9872  0.01648     0.04063  10386.03649   6185.64172  2.14363         2732.09941     17.43882  0.00015  54138.66676  25.73048  7.56709     643.67099    49.821  23.40346  54184.20801    50.92509       44.10917   23.25796  46.51593  110.0    0.17249  -21.02417  0.99921 
   -2.76991  0.41838  1.16043     14.91728  1.55286  1.40645  19.19821  0.03935     0.22054  11128.62488   3971.28016  1.98592         2736.57841     16.01814    1e-05  54136.93009  14.18309   8.0321     2841.9787  48.87712  23.40747  54189.05342    51.07482       44.12072   25.32935  83.20781   84.5    0.16466  -21.06548  0.99527 
   -2.13931  0.42727  1.17679     14.94061  1.70888  1.06732  18.84523   0.0532     0.13465  11957.46737   5156.98502  1.80193         2773.77052     17.48205  0.00017  54137.56069  16.07338  8.05192    2888.78534  48.89944  23.42238  54186.63072    51.01781       44.12259   25.00935  75.77516   96.5    0.15675  -21.15331   0.9943 
    -1.3557  0.30845  0.75912     14.94861  1.40877  0.72559  24.94491  0.03567     0.06159  10675.41936   7876.11108  1.96697         2774.99204     17.04021    6e-05   54138.3443  16.95817  7.69416     955.10376  49.67702  23.44712  54186.63072    51.00935       44.09721   24.22705  75.58838   94.0    0.15276  -21.04578   0.9984 
   -1.25611  0.33636  0.98153     14.97253  1.60451  0.94043  22.23819  0.03452     0.08431  10162.20775   6779.51039  2.05532         2746.43585     18.99552   0.0055  54138.44389  13.69944  7.48007    1628.97226  49.27847  23.42152      54185.5    51.06038          44.12   25.00935  76.74424  105.0    0.14983  -20.99703  0.99738 
   -1.48716  0.38333   0.9406     15.00587  1.64606  1.07749   22.2434  0.03734     0.10851  11844.82243   5236.46718  1.83288         2741.12479      17.2412   0.0001  54138.21284  18.61596  8.52647    1316.20396  49.41916  23.31278  54184.20801    50.89922       44.11873   23.25796  39.73235  100.0    0.16886  -21.22218  0.99818 
   -1.84698  0.27598  0.78881     15.12899  1.70688  0.87108   28.7299  0.02353     0.01603  10302.44316   6298.28068  2.05974         2746.70194     17.20502    9e-05  54137.85302  18.19038  7.92878      544.4861  49.97112  23.44352      54185.5    51.02217         44.109   24.22705  76.55746   88.0    0.16124  -21.01672  0.99937 
   -2.43469  0.40475   1.3562     15.01083  1.68436  1.15523  19.14047  0.03486     0.05581  10396.55492   5545.26266  2.12213         2742.74941     17.58066  0.00021  54137.26531  12.34124  7.74718    2736.76003  48.79339  23.46167  54186.63072    50.97453       44.09012   27.49843  63.59526  103.5    0.16003  -21.00955  0.99358 
   -1.69538  0.36097  0.75155     14.99538  1.96366   1.5336   25.9328  0.05262      0.1469  15032.81359   5253.64982  1.46588         2685.37516     16.64669    2e-05  54138.00462  34.95884    9.361    1052.08472  49.78794  23.46885      54185.5    50.98689       44.09787   24.22705  73.65022   93.0    0.17636  -21.34859  0.99933 
   -7.70497  0.35103  5.48028      14.6003  1.83107  0.94148   8.73851  0.05794     0.03454   7511.79642   4039.41994  2.52832         2773.26464     17.77385  0.00033  54131.99503   2.94139   3.0675  321749.75943  45.54643  23.43302      54185.5    50.98902       44.10146   25.00935  71.89883   67.5     0.2258  -20.63868   0.6914 
   -1.55377  0.47021  0.70539     15.02686   1.6804  0.98125  17.55109   0.0517     0.13853  11636.37052   8043.89511  1.92088         2737.30436     18.63272  0.00238  54138.14623  14.17641  8.25277     686.08728  49.96102  23.42869      54185.5    50.95527       44.10653   23.44935  65.70618   92.5    0.15438   -21.1527  0.99943 
   -1.82403  0.29348  1.51345     15.02793  1.71329  0.86601  24.24423  0.02863     0.04304   9279.64837   6367.17097  2.23814         2766.20941     17.46751  0.00016  54137.87597  12.45371  7.11523    3204.28392  48.63701  23.44922      54185.8    51.06141       44.11833   25.32935  81.26965  108.0     0.1462  -20.91757  0.98799 
   -1.11818  0.28306  0.79303     15.02225  1.38501  0.63292  27.18285  0.02873     0.01871   9431.31222   7918.86047  2.31968          2726.4055     16.71503    3e-05  54138.58182  14.42336  7.69445     730.02035  49.74839   23.4266      54185.5    50.94029       44.06925   22.28888  65.89756   85.0    0.13983  -20.98412  0.99829 
   -1.57224  0.25316  0.71471     14.96678  1.62018  1.28421  30.31569  0.02604     0.02389  10714.55826   9706.72714  1.96903         2793.36291     16.69966    3e-05  54138.12776  20.76075  7.67461     895.51338  49.81807  23.39838      54185.8    50.92234       44.13583       24.4  51.54811   71.0    0.16325  -21.04672  0.99945 
   -2.06554  0.42554  1.24225     14.88762  1.52673  1.44406  17.22887  0.03355      0.0734   9366.79707   4185.56976  2.24337         2761.14347      19.6673  0.02582  54137.63446   9.01709  7.33154    3670.74186  48.69944  23.46409      54185.5     51.0471       44.10169   25.19613  78.49563   95.0    0.16599  -20.95196  0.99359 
   -1.90196  0.28427  1.09857     15.00725  2.00136  1.42923  30.16293  0.03299     0.05838   11176.1979   6948.69504  1.99952         2725.70439     18.79619  0.00347  54137.79804  22.47444   8.5743    2169.21029  49.15221  23.41824      54185.8    51.01863       44.11808    23.6177   74.6193   37.0    0.30602  -22.52607  0.99733 
   -4.71038  0.39097  3.62096     14.80494  2.05783  0.83405  12.81944  0.06315     0.07822   8554.02194    4387.9523  2.49326         2765.47731     20.05213  0.06264  54134.98962   5.59548  5.01197   61515.53362  46.67562  23.43175  54186.63072    51.02237       44.12035      24.72  76.42424   78.5     0.1668  -20.86778  0.79898 
   -5.67904  0.39554   4.6138     14.71116  2.10771  1.28527  11.45126  0.06738       0.091   8854.04058   6449.81213  2.29786          2732.7447     18.04586  0.00062  54134.02096   5.35505  4.52947  157551.67693  46.06711   23.4204  54186.63072    50.96364       44.09053   24.22705  69.77389   86.0    0.18232  -20.79606  0.73064 
   -1.81743  0.47334  1.24694     15.08347  2.03583  1.25129  16.01674  0.04681     0.11717  10793.66208   5355.93433  1.92549         2786.01887     17.56919  0.00021  54137.88257  11.13112  7.58131    2001.29834  49.08458  23.41159  54186.63072    51.02584        44.1247   25.55586  75.58838  105.0     0.1675  -21.03144    0.997 
   -2.07227  0.47774  1.41942     14.95339  1.58615  1.04641  15.33892  0.04306     0.06617  10177.94763   4953.89518  2.04615         2774.61165     18.33597   0.0012  54137.62773   9.47856  7.32809    3677.95192  48.59936  23.46361  54184.20801    51.04438        44.1146   25.00935   78.6824   98.5    0.17375  -21.00025   0.9895 
    -1.9834  0.37357  1.18548     14.96165  1.76421  1.55548  20.46961  0.03067     0.01815   10092.9033   7754.46588  2.11729         2732.19759     19.97858  0.05288   54137.7166  12.43853  7.64689    2746.92536  48.92876  23.40188  54186.63072    51.04908        44.1232       24.4   78.6824   80.5    0.20358  -21.08761   0.9961 
   -1.97493   0.4057  1.00494     14.92848  1.67338  1.10209  19.26957  0.04998     0.09319  11823.41029   4793.74409    1.778         2770.28086     18.06944  0.00065  54137.72507  16.06884  7.81761    2181.31176  49.14944  23.45927      54185.5    51.01125       44.10202       24.4  76.74424   87.0    0.19126  -21.23496  0.99698 
   -1.96837  0.25209  1.17119     15.00301  1.76783  1.36481  30.56997  0.02097     0.05381    9581.1085   6744.07457  2.19223         2760.91876     18.60763  0.00225  54137.73163  16.73993  7.70633    2220.74155  49.03254  23.40048  54186.63072    51.04532       44.15516   24.22705  75.58838  110.0    0.19236  -21.07139  0.99677 
   -1.47885  0.27512  0.80973     14.87086  1.67118  1.47736  29.58115   0.0366     0.04006  11710.06226   6292.08568   1.8716         2680.83772     17.65234  0.00025  54138.22115  24.19695  8.13834    1844.11585   49.4094    23.454      54185.8    51.03879       44.12007   25.00935   78.6824   92.0    0.19196  -21.25408  0.99861 
   -1.72945  0.27248  0.91016     14.93463  1.32065  0.83065  26.69589  0.02476     0.03085   9925.25909   4830.20923  2.24124         2747.85294     18.15525  0.00079  54137.97055  15.68755  7.27419    1372.69736  49.33383  23.38426  54184.20801    50.95174       44.11147   23.25796  48.45409   96.0    0.16392  -20.95555  0.99732 
   -5.47203  0.42074  4.57232     14.70074  1.76521  1.04918  11.58189  0.05576     0.25969   8806.54385   5647.42713  2.28925          2744.8994     17.58496  0.00021  54134.22797   5.35818  4.87302  135960.22555  46.06196  23.43979  54186.63072    51.00554       44.08408   25.00935  72.86791   93.0    0.18976  -20.77126  0.66344 
    -1.6638   0.2996  0.75667     14.92664  1.66187  0.92298   28.6405  0.04257     0.02274  11645.16505   5990.80208  1.99655         2731.44485     18.32652  0.00118   54138.0362  23.16856  8.58072    1238.66288  49.63867  23.45055  54186.63072    51.08232       44.12872   25.55586  81.40287   83.5     0.1289  -21.18989  0.99865 
   -1.47176   0.4762  1.83656     15.00691  1.94747  1.36881  14.62248  0.04359     0.02907   9831.35795   6557.48069  2.38552         2706.80144     16.79269    3e-05  54138.22824   8.43093  6.96318    5908.58029  48.25882  23.43787      54185.8    50.99063       44.11212   24.22705  72.68114   89.0    0.20037   -21.0233  0.98321 
   -4.96974  0.42584  4.00061     14.60548  1.96753  1.25979   9.91317  0.07355     0.19227   8076.34457   4179.32608  2.66831         2733.44518     20.15422  0.07924  54134.73026   3.85718  4.22138  179898.36803  46.10349  23.51483      54185.5    50.93607       44.04653   24.22705  58.14491   75.0    0.17834  -20.83787  0.77639 
   -1.71278  0.47264  1.67015     14.77932  1.55611  1.11186  14.50104  0.05612     0.03253   9442.77291   5558.43233  2.22329         2723.19671     19.20805  0.00897  54137.98722   7.71303  6.85373   11135.86052  47.96865  23.46551  54186.63072    51.06907       44.11027   25.32935  80.30057   88.5    0.13945  -20.96286  0.96416 
   -1.64088  0.48681  1.62354     15.01557   1.6521  0.77087  14.57541  0.04308     0.09915   9129.99144   8440.53299  2.36321         2757.70078      19.7892  0.03419  54138.05912   7.24751  7.09543     3763.8522  48.49032  23.48624      54185.5    51.05709        44.1108   25.32935  82.23873   95.5    0.15897  -20.94089  0.98033 
   -1.92397  0.31638  0.92809     14.92422  1.60937  1.17838    22.863  0.03198     0.03507    9844.6619    5732.5528  2.14435         2736.96902     19.02115  0.00583  54137.77603  13.21788  7.23344    1824.77159  49.27911  23.49009      54182.8    50.93818       44.06873   23.25796  55.23766   68.0     0.3024  -21.53703  0.99807 
   -1.57861   0.4696  1.20591     14.91243  1.68522  0.98752  16.08762  0.05298     0.07467  11120.46734   3430.42575  1.95734          2669.8075     19.96203   0.0509  54138.12139  11.86766  7.55467    3405.99155  48.80063  23.45427      54185.5    51.04186       44.10018   25.32935  80.30057   81.5    0.18232  -21.11654  0.99266 
   -1.52362  0.34694  1.20958     15.05469  1.82787  0.84791  20.83083  0.03654     0.02654   9328.92509   7343.88213  2.25878         2785.45085     18.29216  0.00109  54138.17638  10.81427  7.22706    1930.40384  49.07987  23.46403  54186.63072    51.06248       44.10893      24.72  79.33149   90.5    0.13773  -21.00116  0.99539 
   -4.70311  0.35311  3.04498     14.43643  1.58938  1.38843  12.03692  0.07898     0.10586   8587.09319   3258.79486  2.54564         2751.65897     20.07894  0.06663  54134.99689   5.29462  4.25038  183376.91189  46.23956  23.37399      54182.8    50.91572       44.10167    21.3198  58.14491   70.0    0.17269  -20.89178  0.81326 
   -1.20462  0.15246  0.87746     15.13086  1.68694  1.07551  45.83617   0.0106     0.05783   9368.61365   4551.99652  2.32032           2718.276     17.53897  0.00019  54138.49538  23.99862  6.98836      660.1612  49.78984  23.41285      54185.8    51.04549       44.11568   24.22705  75.58838  101.5    0.17988  -20.86267  0.99936 
   -1.72999  0.37056  0.82634     15.04567  1.69989  1.29518  21.76845   0.0324     0.03988  10942.76884   5894.30832  1.99585         2738.72312     17.52156  0.00018  54137.97001  15.54924  8.06658     873.37212  49.72375  23.49106      54182.8    51.07724       44.10968   26.16521  80.43379   98.5    0.16064  -21.06092  0.99928 
   -4.30626   0.4002  3.52972     14.75395   1.7476  0.90407  13.05215  0.05631     0.09221   8351.23418   5003.29614  2.58403         2702.02123     18.29522   0.0011  54135.39374   5.43013  5.22345   62782.73596  46.61797  23.42712  54184.20801    51.00801       44.12536   25.32935  71.57883   91.5    0.15794  -20.77927   0.7628 
    -4.6468  0.43603  4.31484     14.71978  1.88356  1.10594  12.28756  0.06028     0.09266   8955.58502   5281.90693   2.4711         2708.71344     18.78253  0.00337   54135.0532   5.87869  5.35777   118350.9069  46.20072  23.41665  54184.20801    50.95238        44.0856   24.22705  54.26858   90.5    0.17925  -20.85112   0.6917 
   -1.55233  0.18436   0.7948       14.851   1.5648  1.48393  42.70185  0.02134     0.36396  10913.63167   8699.65043  1.95215         2804.06212     17.90983  0.00045  54138.14767  30.33978  7.87262    1823.06083  49.40199  23.43145      54185.8    51.01864       44.12859   26.16521  73.65022   84.5    0.15354  -21.11526  0.99863 
    -5.6518  0.36736  4.59513     14.72932  2.02405  0.97489  11.98367  0.06269     0.07569   8575.79609   5703.73788  2.33724         2757.41314     18.56928  0.00206   54134.0482   5.25734  4.40229  138037.68636  46.11047  23.43816  54186.63072    50.96213       44.09107   23.44935  70.55159   84.0    0.18334  -20.79184  0.72451 
   -6.03875   0.3545  4.64061     14.59318  1.95298  1.22913  10.75041  0.06825      0.0864   8132.23282   3324.99167  2.47303         2786.09665     18.91621  0.00458  54133.66125   4.24104  3.81106  254271.27643  45.82109  23.36784      54185.8    50.92762       44.07012   23.25796  55.23766   71.0    0.18642   -20.7744   0.7364 
   -8.59317  0.41637  5.64222     14.36224  1.67129  1.56495   7.64734  0.07544     0.39453   9307.22304   3585.75158   2.0853         2635.08155     18.31864  0.00116  54131.10683   3.95164  3.18409  931710.70243  45.01972  23.46115  54184.20801    51.00757       44.10536   25.00935  75.77516   62.5    0.25241  -20.82489  0.63834 
   -1.74493  0.25747  0.83644     14.99095  1.71317  1.40937  32.39211  0.02602     0.02232  11910.21212   6763.94884  1.77025         2703.71993     18.48073  0.00168  54137.95507  27.40977   8.3401    1160.32471   49.5932  23.42286  54186.63072    51.02289       44.12306   25.32935  76.42424   85.5    0.16038  -21.13419  0.99905 
