 texplosion  fnickel    Pspin  log(Bfield)      Mns  thetaPB  mejecta    kappa  kappagamma     vejecta  temperature    alpha  cutoff_wavelength  log(nhhost)      A_V         MJD0  kenergy  mnickel            TSD   log(L0)  Peak_mag     Peak_MJD  log(E_rad)  log(Peak_lum)  Rise_Time    E_fold  tau_1  delta_m15     r_peak     frac 
   -10.9474  0.00144  7.16864     14.29607   1.6838  0.92463  2.01069  0.32732     0.01185  2767.23034   4024.94573  1.86401         4283.89998     18.61477  0.00229   58623.4826  0.09185   0.0029  2055140.62063  44.47142  18.10482     58686.46    50.38652       43.51605   48.04748  56.13841   56.0    0.11333  -19.79931  0.99916 
   -9.73083  0.00155  7.76967     14.51763   2.0389  0.74897  2.71375  0.33335     0.01369  3374.04503   5113.05237  2.07696         3619.48226     17.33855  0.00012  58624.69917  0.18429  0.00421  1053775.38057  44.77469   18.0795     58686.44    50.38801       43.52053   49.80525  54.38064   54.0    0.10722  -19.79999  0.99893 
  -11.62682  0.00276  6.99459     14.30413  1.67588  0.81836  2.46643  0.29204     0.01018  2969.28782    4325.0181  1.84178         3966.60539     19.68942  0.02717  58622.80318  0.12972   0.0068  1876372.51744  44.53024  18.09579     58686.46    50.39322       43.52994   48.82053  54.40825   55.0    0.11291  -19.80385  0.99811 
  -10.40315  0.00363  6.84845     14.66819  1.88251  0.47068  3.00079  0.33755     0.01015  3230.65266   6029.00882   1.7909         3760.81106      19.0992  0.00698  58624.02685  0.18683   0.0109   377890.00949  45.29503  18.08896  58687.31265    50.39014       43.53255   46.44626  53.79634   53.5    0.10638  -19.76857   0.9976 
    -9.3051   0.0021  7.00711     14.27013  1.75933   1.4239  2.29337  0.33777     0.01102  2956.16751   6219.96145  1.72737         4351.31855     17.98037  0.00053   58625.1249  0.11955  0.00482   2311968.3802  44.45913  18.09892  58687.31265    50.40205       43.53485   49.08422  55.05446   53.0    0.11361  -19.82474  0.99876 
  -11.38087  0.00186  6.93548      14.4047  1.56523  0.55976  2.33534  0.29997     0.01179  2944.48042   3231.60309  1.83701         4232.61638     19.17315  0.00828  58623.04913  0.12078  0.00435  1084293.15847  44.74612  18.09845  58687.31265    50.39938       43.53541   46.18257  55.31815   57.0    0.11241   -19.7978  0.99868 
  -12.70298  0.00233   8.4537      14.3657  2.04637  0.73019  1.94897  0.33817     0.01015  3037.17492   3321.48162  2.27915         3725.87813     16.29123    1e-05  58621.72702  0.10724  0.00454  2520595.42213  44.32423  18.11092  58687.31265    50.40079        43.5292   48.82053  56.23965   55.5    0.12685  -19.79857  0.99861 
  -11.54332  0.00371  6.69969     14.05485  1.46391  1.22082   1.9346  0.31202      0.0125  3009.15408   6231.21076  1.79422         4017.41624     17.22725    9e-05  58622.88668   0.1045  0.00718  4739641.14055  44.10651  18.08652  58687.31265    50.38035       43.50497   49.80525  55.91754   55.5    0.12283  -19.79984  0.99774 
     -12.29  0.00241  7.46628     14.11637  1.70164  1.37001  1.70903  0.33742     0.01218  2854.56719   5013.56022  1.69994         4275.74447     16.09649    1e-05     58622.14  0.08307  0.00411  5153974.07233  44.04136  18.13778    58689.431    50.38681       43.51552   46.31141  56.56915   56.0    0.12092   -19.8169  0.99871 
  -12.35181  0.00233  7.59186     14.27665  1.86593  1.01859  2.36039  0.33716     0.01001  3126.64449   5371.64645   1.8336          3861.1509     18.00457  0.00056  58622.07819  0.13765  0.00549  2793235.20951  44.33294  18.09729  58687.31265    50.40147       43.53239   49.08422  55.05446   54.5    0.12457  -19.80081  0.99846 
  -11.78718  0.00135  8.14908     14.36854  1.98115   0.8553  2.30878  0.31445     0.01012  3051.56189   3990.13574  2.09498         3787.79992     16.17342    1e-05  58622.64282  0.12825  0.00313  2238023.23467  44.39368  18.08728  58687.31265    50.40302       43.53741   48.04748   55.1813   55.0    0.12151  -19.78761  0.99908 
     -12.13  0.00397  6.83144     14.09382  1.53074  1.23313   3.1762  0.21986     0.01066  3476.08812   6795.33205  1.73138         3676.97977     17.46941  0.00016      58622.3  0.22894   0.0126  4306264.75702  44.15062  18.11274  58687.31265    50.40547       43.53021   47.48333  57.57684   54.0    0.12673  -19.82081  0.99615 
  -10.52368  0.00346  6.52284      14.2785  1.53398  0.77956  3.47517  0.26072     0.01115   3713.9084   6768.18521   1.5529         3851.97349     17.84286  0.00039  58623.90632  0.28593  0.01203  1680799.99044  44.60027  18.08774  58687.31265    50.39869       43.53162   49.08422  55.05446   52.5    0.12267  -19.85107   0.9967 
  -12.35078  0.00106  8.62522     14.34588  2.15103  1.12419  2.13476  0.32427     0.01234  3058.73269   3418.12844  1.81763         3847.38836     19.33888  0.01212  58622.07922  0.11914  0.00226  3021648.04477  44.24971  18.12094  58687.31265    50.39466       43.53125   46.44626  55.05446   55.0    0.11723  -19.79363  0.99934 
  -10.44882  0.00119  7.62514     14.20722  1.77931  1.32898  2.28215  0.30055     0.01208  3096.92256   4184.75466  2.13212         3847.07846      19.6054  0.02239  58623.98118  0.13057  0.00272  3699343.62417  44.18648  18.09532  58687.31265    50.38113       43.51415    50.1213  54.93888   55.0    0.11628  -19.80802  0.99918 
  -10.96407  0.00165  7.05989     14.20995  1.72626  1.16938  2.31513   0.3357      0.0104  3164.72511   6096.46128  1.89269         3744.92541     18.96234  0.00509  58623.46593  0.13832  0.00381  3038188.28275  44.32574  18.13671  58687.31265    50.41575        43.5451   43.82659  57.72133   54.5    0.12679  -19.81178  0.99896 
  -13.02258  0.00256  6.12708      14.2419  1.39042  0.61097   2.3179  0.32664     0.01043   3162.5506   5646.57581    1.656          3931.5288     18.77177  0.00328  58621.40742  0.13829  0.00594  1591005.97336  44.63581   18.1057  58687.31265    50.39131        43.5239   49.81446  54.37143   55.5    0.11962  -19.81151  0.99832 
  -11.53274  0.00328  7.49064     14.19454   1.7624  1.17844  2.39315    0.303     0.01034   3141.2142   3346.68417  2.35269         3678.79878     17.13534    8e-05  58622.89726  0.14086  0.00784  3748745.33778  44.19203  18.10823  58687.31265    50.37816       43.50732   49.80525  55.71327   55.5    0.12536  -19.81135  0.99767 
  -11.25104  0.00997  8.15948     14.27762  2.00838  1.45113  2.49694   0.3186     0.01046  3173.69237   3413.66296   2.4144         3602.91185      18.6101  0.00226  58623.17896  0.15003  0.02491  3457366.26065  44.20962  18.11871  58687.31265    50.38547       43.51677   46.44626  55.97596   54.5    0.11689  -19.79005  0.99285 
  -12.17133  0.00105  6.86018     14.15466  1.53835  0.97532  2.16333  0.30167     0.01043  2974.73711   3799.75948  1.80125         4028.40246     18.26138  0.00101  58622.25867  0.11419  0.00227  3297787.18982  44.26501  18.09573     58686.46    50.39569       43.53011   49.80525  54.33343   56.0    0.12368  -19.78862   0.9993 
   -9.67974    0.006  6.57275     14.45921  1.73641  0.69834  3.54409  0.31017     0.01084  3780.24669   7195.42536  1.39373         3879.62097     17.11868    7e-05  58624.75026  0.30211  0.02125   840489.34422  44.94847  18.06855  58685.56235     50.3795       43.52517   49.08422  53.17824   50.0     0.1178  -19.83236  0.99513 
  -12.11377  0.00303  7.24584     14.09791  1.61601   1.2114  2.62984    0.246     0.01032  3260.89074   3391.51033  1.69299         3928.18577     17.08198    7e-05  58622.31623  0.16681  0.00797  5018974.83898   44.0565  18.10405  58687.31265    50.40177        43.5344   49.80525  54.38064   55.5    0.12554  -19.80613  0.99745 
  -11.31927  0.00144  7.26266     14.19861  1.69145  1.21051  1.84393  0.32983     0.01056   2674.0277   4979.84205  2.01915         4074.31235     16.69536    3e-05  58623.11073  0.07865  0.00266  3319243.41826  44.25388   18.0849  58687.31265    50.39559       43.53545   49.08422  54.04332   56.0    0.12068  -19.77812  0.99921 
   -9.64227  0.00325  7.56054     14.34015  1.95038  1.28774  3.14302  0.27856      0.0104  3349.25738   5673.85768  2.46452         3486.26693     17.05967    6e-05  58624.78773  0.21032  0.01022  2161423.88031  44.46712  18.11341  58687.31265     50.4018       43.53678   48.94937  54.17817   53.0    0.11496  -19.79881  0.99738 
  -11.50309  0.00115   7.8015     14.24528  1.80999  1.05041  1.83653  0.32819     0.01141  2825.55118   3646.44747   2.0801         4022.98963     16.05684    1e-05  58622.92691  0.08746  0.00212  3305921.69402  44.22287  18.08511     58686.46    50.38897       43.51478   48.94937  55.23652   56.5    0.11862  -19.79964  0.99934 
  -12.83844  0.00215  8.12247     14.30398  1.90611  0.74077   1.6067  0.32293     0.01128  2881.26845   4846.74017  1.91348         4038.37063     19.49985  0.01756  58621.59156  0.07957  0.00345  2879893.11118  44.27024    18.092  58687.31265    50.40458       43.53221   49.08422  55.10167   55.5    0.13297  -19.82209  0.99891 
  -12.64664  0.00182   7.6785     14.18112  1.73455  1.00067  1.63981  0.32931     0.01304  2858.50304    3441.8635  1.97047         3997.29125     16.19978    1e-05  58621.78336  0.07993  0.00299    4123870.196  44.12217  18.10715  58687.31265    50.39275       43.51843   49.80525  55.71327   56.5    0.11827  -19.79536  0.99903 
  -10.92961  0.00185   7.5232      14.2848  1.84579  1.17066  2.71244  0.30459     0.01169  3322.10724   5357.23493  1.86048         3827.36209     17.88859  0.00043  58623.50039  0.17857  0.00501  2613421.83099  44.36501   18.0787     58686.44    50.39102       43.53582   48.04748  53.31309   55.0    0.11908  -19.81202  0.99861 
  -12.52296  0.01711  7.81025     14.38466  1.81061  0.62981  2.24717  0.27409     0.01028  2981.90121   5724.00037  2.07853         3758.79086     17.29129  0.00011  58621.90704  0.11919  0.03845  1744398.31957   44.4997  18.10317  58687.31265    50.38569         43.518   47.16729  55.25492   56.0    0.12426   -19.7864  0.98811 
  -12.14323  0.00515  7.03467      14.1748  1.64965  0.94611    2.424  0.33517     0.01044  3440.07732   6776.50409  2.20859         3578.73578     17.86206   0.0004  58622.28677  0.17112   0.0125  3389208.91073  44.26165  18.12411     58686.46    50.38787       43.52654   48.82053  54.06003   53.0    0.13099  -19.83297  0.99637 
   -11.6291  0.00185  7.42934     14.24775  1.85953  1.19824  2.25181  0.32357     0.01015  2992.78288    3573.1934  2.18498          3713.0747     19.83087  0.03764   58622.8009  0.12031  0.00416  3045158.96034  44.31274  18.12098  58687.31265    50.39408       43.52495   49.80525  55.25492   55.5    0.11691  -19.82498  0.99888 
  -10.29132   0.0079  7.47219     14.23054   1.7515  1.12633  2.19246  0.31219     0.01092  3108.56337   4447.62602  1.82855         4012.81222     16.12317    1e-05  58624.13868  0.12638  0.01732  3140800.76307  44.26832    18.094    58689.431    50.39353       43.53154   47.16729  54.38064   53.5    0.12438  -19.81768  0.99486 
  -11.70079  0.02478   8.2353     14.35424  2.07086  1.12019  2.90168  0.29851      0.0106   3399.3542   5253.37765    2.073          3598.4253     17.20465    9e-05  58622.72921  0.20002   0.0719  2551835.34225  44.34678  18.09882  58687.31265     50.3969       43.52823   48.04748  56.09121   54.5    0.11656  -19.80903  0.98022 
  -10.53963  0.00458   7.2356     14.24239  1.77489  1.29986  2.56131  0.30899     0.01018  3080.56507   3052.77266  2.22298          3768.0852     17.20532    9e-05  58623.89037  0.14499  0.01172  2825891.16641  44.34791  18.11628  58687.31265      50.403       43.52966   45.40951   57.0127   55.0    0.11248  -19.80343  0.99682 
  -10.46907  0.00171  7.20707     14.24284  1.70271  1.03469  2.21379  0.30089     0.01198  3059.48841   3712.32862  2.50491         3594.95629     19.48616  0.01702  58623.96093  0.12361  0.00379  2684047.98327  44.35568   18.1192  58687.31265    50.38789        43.5156   48.94937   56.1108   56.5     0.1188  -19.81328  0.99891 
  -12.25964  0.00141   7.9555     14.24754  1.90203  1.20822  2.09461  0.30163     0.01059  2818.89879   3364.71804  1.58089         4447.69435     19.47162  0.01646  58622.17036  0.09929  0.00296  3575019.44579  44.19345  18.11174  58687.31265    50.40135       43.53627   49.08422  55.05446   55.5    0.11879  -19.81997  0.99912 
  -11.66568  0.00181  7.27158     14.39232  1.94616  0.99477  3.37047  0.32002      0.0106  3516.85961   5793.48519  1.75517         3610.86525     18.33719  0.00121  58622.76432  0.24867  0.00609   1568988.8567  44.63915  18.10506  58687.31265     50.3937       43.52073   48.04748   57.0127   53.5    0.11182  -19.78619  0.99855 
  -10.37988  0.00185  7.44038      14.3021  1.84377  1.09613  2.57883  0.33415     0.01116  3331.35423   6331.51524  2.09351          3749.9581     19.16395   0.0081  58624.05012  0.17072  0.00476   2357815.1335  44.41885  18.09931    58689.431    50.39881       43.53253   49.08422  55.10167   53.0    0.11851  -19.81797   0.9987 
  -11.28276  0.00291  5.52581     14.22988  1.29627  0.67366   2.5133  0.33849     0.01007  3093.42213   5887.89976  1.85737         3819.76881     16.47557    2e-05  58623.14724  0.14347  0.00731   1275108.7437   44.7912  18.12371  58687.31265    50.38043       43.51023   49.08422  55.97596   54.5    0.11349  -19.79278  0.99815 
  -11.24548   0.0033  7.22064      14.3642  1.65897  0.61152  1.95402  0.31703     0.01078  2887.49692   3534.50115  2.73485         3571.81255     18.69426  0.00275  58623.18452  0.09719  0.00644  1501085.77245  44.59513  18.09364  58687.31265    50.40062       43.53302   49.80525  54.38064   56.5    0.12062  -19.78689  0.99805 
   -9.33113  0.00249   7.1571     14.35455  1.79823  0.92077  2.77954  0.30612     0.01131  3357.07435   5933.47166  1.77069         3715.75173      17.7967  0.00035  58625.09887  0.18686  0.00693  1671224.39005  44.59118  18.08515     58686.46     50.3902       43.52935   49.80525  53.42352   54.0    0.12085  -19.79853   0.9982 
   -9.98522  0.01141  6.09081     14.23134  1.52214  1.03361  3.94793  0.28452     0.01062  3962.90582   7064.17708  2.19091         3255.70367     16.76896    3e-05  58624.44478  0.36985  0.04505  1806935.03607  44.62501   18.1114  58687.31265    50.38709       43.52709   49.08422  54.14455   50.0    0.11505  -19.82923  0.98924 
  -10.22481   0.0012  7.10343     14.48712  1.67898   0.4793  2.16886  0.31373     0.01186  3154.59511    4002.2376  1.94926         3757.23698     19.37802  0.01327  58624.20519  0.12875   0.0026   834767.56772  44.86939  18.12861     58686.44    50.43948       43.57688   44.84537  55.39722   53.5    0.12036  -19.82322  0.99925 
  -10.86931  0.00861  8.54997     14.24876  1.99986  1.13829  2.13442  0.27053     0.01184   3184.3583    4076.5774  2.34468          3628.9508     16.63716    2e-05  58623.56069  0.12911  0.01838  4317476.45625  44.07069  18.08615  58687.31265    50.40065       43.53982   49.81446  53.41432   56.5    0.13081   -19.8167  0.99408 
  -10.75643  0.00227  6.87861      14.1605  1.61545  1.16033  2.20921   0.3332     0.01079  3088.04809   3585.38584  2.20674         3684.45819     18.90761  0.00449  58623.67357  0.12567  0.00501  3389373.42432  44.27202  18.12376  58687.31265     50.3891       43.52428   49.08422  55.05446   54.5    0.12338  -19.80206  0.99857 
  -11.41406  0.00336  7.75438     14.53268  1.94996  0.60179  2.60017  0.30777     0.01148   3116.1871   3906.88826  1.63869         4083.01528     19.62224  0.02328  58623.01594  0.15062  0.00874   936640.65083   44.8082  18.13278  58687.31265    50.38385       43.50952   48.94937  56.56915   54.5    0.11273  -19.80709  0.99763 
  -11.91051  0.00272  6.11869     14.08185  1.48956  1.54459  3.57424  0.30208     0.01088  4027.65922   7215.05574   1.6117         3117.63607     16.63376    2e-05  58622.51949  0.34587  0.00972  3552117.35834   44.3181  18.13043    58689.431    50.40073       43.52508   49.08422  56.63857   49.5    0.12788  -19.83316  0.99754 
   -9.21124  0.00409  7.08624     14.34312  1.83056  1.15111  3.60259  0.24683     0.01094   3433.3874   7300.65057  1.64569         3851.47954     18.99309  0.00547  58625.21876  0.25333  0.01472  1757857.64262  44.58561  18.08875  58687.31265    50.39676       43.53456   48.94937  53.93119   52.5     0.1119   -19.8069  0.99637 
  -10.78597  0.00267  7.00226     14.21547  1.69016  1.51918  2.86433  0.28692     0.01204  3246.13659   6014.04756  2.59661         3516.86791     17.96821  0.00052  58623.64403  0.18005  0.00764  2852853.94476  44.35102  18.10828  58687.31265    50.39045       43.52338   47.16729  55.25492   55.5     0.1135  -19.78797  0.99791 
  -12.01283  0.00511  7.68038     14.22839  1.84585  1.08305  2.15552  0.33524     0.01129  3196.76875    4326.5091  1.86213         3791.65377     19.24983  0.00988  58622.41717   0.1314  0.01102  3531834.53188  44.21628  18.11585  58687.31265    50.38698       43.52482   45.40951  56.09121   55.0    0.12436  -19.81688  0.99678 
  -12.78173  0.00107  8.51179     14.60521  2.12442  0.47377  2.41728  0.31739     0.01103  3233.41781   4464.55768  2.17515         3604.41246     18.76481  0.00323  58621.64827  0.15076  0.00259   880391.83538  44.79137  18.09651  58687.31265    50.40198       43.54028   48.04748  54.83308   54.5    0.11946  -19.80873  0.99925 
  -10.25355  0.00141  6.65636     14.26867  1.69084  1.09911   2.6523  0.33642     0.01001  3109.82389   3215.25435  2.14338         3764.32076     18.73284    0.003  58624.17645  0.15301  0.00373  2018580.47381  44.54543   18.1033     58686.46    50.38734       43.51775   49.80525  54.38064   54.0    0.10955  -19.79894  0.99908 
   -9.17549  0.01053  6.04616     14.18951   1.4113  1.01115  2.31374  0.32161      0.0106  2878.05212   3155.56672  1.79648         4380.89565     18.29574   0.0011  58625.25451  0.11432  0.02437  2001586.07842  44.55413  18.11986  58687.31265    50.40575       43.53705   49.80525  55.25492   55.0    0.11537  -19.82225  0.99354 
   -9.81224  0.00157  7.31136     14.61611  1.89478  0.50621  2.83182  0.32342     0.01009  3206.06033   3795.89154  1.94705         3874.90931     16.52248    2e-05  58624.61776  0.17363  0.00444   550996.34547  45.07726  18.11514  58687.31265    50.38815       43.52225   49.80525  54.38064   54.0    0.11636  -19.79693  0.99889 
   -9.90278  0.00282  6.84341     14.22383  1.63797  1.09253  2.82105  0.28781     0.01058  3288.95457   3072.93182  2.46417         3599.88643     19.61295  0.02279  58624.52722  0.18203  0.00796  2541031.76013   44.4076  18.11874  58687.31265    50.42263       43.55187   48.04748  56.09121   53.0    0.11894  -19.82502  0.99782 
  -10.13669  0.00295  7.56662     14.27988  1.84215  1.31887  2.22646  0.31375     0.01028  2820.87372   3335.08897  1.92821         4145.02725      17.0935    7e-05  58624.29331  0.10568  0.00657  2698842.56087  44.34519  18.12894  58687.31265    50.39328       43.52763   48.04748   55.1813   55.5    0.11236  -19.78555  0.99816 
   -10.4588  0.00417  8.09279     14.27958  1.95868  1.48458  2.38376  0.30374     0.01158  3095.49739   3779.97121  2.01662         3895.73081     16.58772    2e-05   58623.9712  0.13625  0.00994  3287157.53497  44.22779   18.1291  58687.31265    50.39326       43.52662   45.40951  56.13841   55.0    0.11567   -19.7969  0.99708 
  -11.64184  0.00174  5.49164     13.96107  1.20246  1.30706  3.58618  0.27632     0.01207  4037.14179   7379.63942  1.82992         3375.21116     17.95506   0.0005  58622.78816  0.34866  0.00623   4028640.8722  44.26435  18.11784  58687.31265    50.39457       43.53051   48.82053  54.40825   50.5    0.12393    -19.839  0.99824 
  -12.13333  0.00867  7.93166     14.29251  1.91941   0.9571  2.16803  0.32673     0.01013  3102.57397   3154.99853  2.20653         3729.22995     16.97847    5e-05  58622.29667  0.12449   0.0188   2915384.3494  44.28859  18.10864  58687.31265    50.39532       43.52137   49.08422  55.97596   54.0    0.12987  -19.81617   0.9945 
  -10.66566  0.00156   5.5797     14.30066  1.27473  0.57112  2.84316  0.28816     0.01199  3291.48033   5601.11755   2.0181           3688.393     18.25906  0.00101  58623.76434  0.18374  0.00443   922855.86321  44.91591  18.10314     58686.46    50.38626       43.51908   48.82053  54.40825   53.5    0.11421  -19.80352  0.99882 
    -11.747  0.00222  7.19913     14.39753   1.6676  0.54187  2.23915  0.30702     0.01216  3229.84135   5628.07804  1.93937         3780.97566     19.59833  0.02203    58622.683  0.13934  0.00496  1286507.08685  44.66696  18.12158  58687.31265    50.38764       43.52189   49.80525  54.33343   55.5    0.12161   -19.8301  0.99851 
  -11.73907  0.00526  7.74227     14.44108  1.82777  0.55616  1.99603  0.33667     0.01052  3006.96243   3347.14177  2.40842         3686.81186     19.09913  0.00698  58622.69093  0.10766   0.0105  1334479.26247  44.62772  18.06578  58687.31265    50.39935       43.54583   46.31141   53.3407   55.5     0.1276  -19.80013  0.99683 
  -11.73657  0.00855  7.08657     14.25985  1.72165  0.89236  2.27243  0.33392     0.01003   3067.8432   3321.04268  2.03686         3834.33289     19.80714  0.03563  58622.69343  0.12758  0.01942  2426222.93183  44.41899  18.08814    58689.431    50.40211       43.53383    50.1213  54.93888   55.0    0.11763  -19.83637  0.99468 
  -11.99781  0.00205  6.89381     14.26116  1.66025  0.84344   2.5248  0.33346     0.01015  3253.90867   4316.92955  2.14538         3553.43049     17.90039  0.00044  58622.43219  0.15946  0.00519    2200790.842  44.46952  18.13788  58687.31265    50.40547       43.53186   48.82053  56.69799   54.5    0.12222  -19.79724  0.99858 
  -11.07753  0.00266  7.60604     14.37266  1.81333  0.73025  2.19934  0.33237     0.01152  3143.20757   5604.74124  2.20123         3653.35235     18.28357  0.00107  58623.35247  0.12962  0.00585  1751023.40969  44.52171  18.10441  58687.31265     50.4032       43.53356   48.04748  56.09121   55.0    0.12162  -19.79225  0.99829 
  -11.16481  0.00816  8.17229     14.19613  1.89932  1.19212  1.69244  0.32448     0.01127  2914.48749   3947.58565  2.01265         4019.71323     18.61693   0.0023  58623.26519  0.08576   0.0138  4773480.22186  44.04392  18.10889  58687.31265    50.39113        43.5207    50.1213  54.93888   54.5    0.13389  -19.82149  0.99559 
  -12.95973  0.00261  8.07233     14.16978  1.86605  1.22277  1.79439  0.32451     0.01048  2838.32268   3445.48908  1.95593         4072.63548     16.64533    2e-05  58621.47027  0.08623  0.00469  5166186.22738   44.0126  18.10106  58687.31265    50.39924       43.54141   48.82053  53.38671   56.0    0.12393  -19.78824   0.9985 
  -10.62657  0.00396  6.73849     14.07756  1.50815  1.31127  2.02519  0.32142     0.01036  3024.27024   5686.20234  2.16272         3916.45887      17.5373  0.00019  58623.80343  0.11049  0.00801  4449009.27121   44.1419  18.11639  58687.31265    50.39067       43.51909   49.80525  55.25492   54.5    0.13212   -19.8252  0.99756 
  -11.66007  0.00913   7.9027     14.29126  1.89125   0.8959  2.05532  0.32733     0.01149   3148.8861   3859.85331  1.90122         3859.31419     19.14155   0.0077  58622.76993  0.12157  0.01876  2868067.04847  44.29245  18.11567  58687.31265    50.38727       43.51739   49.80525  55.25492   55.5    0.12925  -19.83014  0.99441 
  -10.72463  0.00173  7.65717     14.33179  1.95342    1.126  2.68882  0.33147     0.01071  3434.41868   7365.28972  1.84652         3681.53658     18.54139  0.00193  58623.70537  0.18919  0.00466  2307661.55185  44.42833  18.10101  58687.31265     50.3742       43.50761   46.44626  55.97596   51.0    0.12235  -19.81172  0.99877 
  -12.41526  0.00213  7.44099     14.15494  1.72781  1.08578  2.09904  0.32091     0.01101  3180.62347   3353.28066  1.87889         3829.40773     18.74379  0.00308  58622.01474  0.12667  0.00446  4352062.05163  44.12439  18.11202  58687.31265    50.38932       43.51983    50.1213  54.93888   55.5    0.13111  -19.81337  0.99864 
   -9.86908  0.01477  6.15888     14.14164  1.49154  1.47038   2.9903  0.28078     0.01089  3240.01591   3441.47326  1.98644         3728.38495     19.43348  0.01507  58624.56092  0.18726  0.04416  2736353.61853   44.4263  18.11501  58687.31265    50.39854       43.53472   48.82053  54.40825   54.5    0.10879  -19.81605  0.98886 
   -9.29393   0.0013  7.90694     14.44965  2.11828  1.04206  3.87616  0.25401     0.01262  3768.53994   7624.67233  2.05085         3442.87124     18.64276  0.00244  58625.13607  0.32838  0.00503  1550662.37472  44.60829  18.11166  58687.31265    50.39346       43.52534   48.82053  55.36536   52.0    0.11327  -19.83024  0.99875 
  -11.88965  0.00187  8.48943     14.24819  2.01379  1.56814  1.93706  0.32548     0.01301  3025.30233   3177.17493  1.84696         4120.76691     17.28753  0.00011  58622.54035  0.10576  0.00361  4297447.29225  44.08189  18.10996  58687.31265    50.39093       43.52274   49.08422  55.10167   56.5    0.12381  -19.82225  0.99886 
   -9.66358  0.00273  6.64127     14.25835   1.6554  1.33734  3.02903  0.28331     0.01277  3214.36268   5728.55119  2.13914         3738.87696     16.45632    2e-05  58624.76642  0.18669  0.00827  2063122.34544  44.52872  18.13711  58687.31265    50.39072       43.51621   44.84537  57.57684   55.5    0.10403  -19.77532  0.99791 
  -10.79953  0.00176   6.9936     14.31085  1.64713  0.80003  2.16056  0.33491     0.01178  3007.15317   6038.83944  2.04382         3899.10212     17.24239   0.0001  58623.63047  0.11655   0.0038  1787505.69422  44.54392  18.08651     58686.46     50.3923       43.52137   48.82053  55.31815   55.5    0.11673  -19.79836  0.99892 
  -11.77017  0.00355  7.20057      14.3156  1.71584  0.76516  2.16951  0.32948      0.0147  3293.48686   4363.96468  2.14704         3554.04524     19.86833  0.04103  58622.65983  0.14038  0.00769  1931202.68968  44.50276  18.09479    58689.431    50.39254       43.53011   45.40951   55.1813   55.5    0.11424  -19.83449   0.9978 
  -10.92244  0.00315   7.7044     14.13361  1.76271   1.4593  2.05248  0.29969     0.01212  3165.59363   5496.15501  2.15342         3799.54327     19.40623  0.01416  58623.50756  0.12269  0.00647  5251031.48543   44.0213  18.11008  58687.31265    50.39393       43.52174   49.08422  55.10167   56.0    0.12898  -19.82929  0.99795 
  -10.36271  0.04345   7.2434     14.09029  1.59188  1.36191  1.47361  0.33747        0.01  2570.31633   3574.51704  2.05616         4323.22402     17.22046    9e-05  58624.06729  0.05807  0.06403  5117142.32469  44.04184  18.12124     58686.46    50.38828       43.52289   48.82053  54.40825   55.0    0.12951   -19.8262  0.97953 
  -11.39033  0.01415  6.59844     14.15311   1.5136  0.96611   2.3204  0.32032     0.01115  3219.83284   4088.99914  1.89815         3849.69265     19.65145   0.0249  58623.03967   0.1435  0.03283  3023328.37001  44.32949   18.1161  58687.31265    50.39262       43.52864   46.18257  55.31815   55.0    0.12415  -19.83392  0.99057 
  -10.60601  0.00751  7.11554     14.24888  1.69831  0.99962  2.75302  0.29943     0.01119   3501.0308   7244.81893  2.14188         3567.09797     16.24966    1e-05  58623.82399  0.20129  0.02066  2537958.89036  44.38996  18.10379     58686.46    50.38735       43.52019   49.08422  55.05446   51.5    0.12116  -19.83396   0.9942 
  -12.25002  0.00343  6.98837     14.20986  1.63784  0.92877  2.14317  0.33511     0.01141  3157.95412   5549.94634  2.08618         3612.38955     16.71456    3e-05  58622.17998   0.1275  0.00736  2825602.14665  44.34325  18.09783  58685.56235    50.40042       43.53806   48.04748  54.15976   55.5    0.12638  -19.79804  0.99788 
   -12.2087  0.00221  8.60676     14.21765  1.99863  1.48462  2.19981  0.25458     0.01012  2874.52379   4382.00582  1.69301         4425.72694     18.89097  0.00432   58622.2213  0.10843  0.00486  5045676.62778  43.99698  18.10883     58686.44    50.39829       43.52478   48.82053  55.31815   56.5    0.11992  -19.82475  0.99841 
   -12.6161  0.01591  6.58274     14.20353  1.51121  0.82062  3.75262  0.24589      0.0103  3894.47117   7507.20805  2.27626         3211.57393     18.01277  0.00057   58621.8139  0.33952  0.05969  2381745.84293  44.43446  18.10514  58687.31265    50.39323       43.52336   48.94937  55.23652   51.0    0.12619  -19.83846  0.98302 
   -11.8251  0.00318  6.51988     14.25341   1.5035  0.74588  2.62675  0.31047     0.01086  3262.22771   5528.05471  1.80799         3880.49333     16.19987    1e-05   58622.6049  0.16675  0.00835  1847498.36618  44.55088  18.12157  58687.31265    50.40126        43.5279   48.94937  55.23652   54.5    0.11921  -19.80996  0.99762 
  -11.15361  0.00202  7.23327     14.41397  1.62623  0.49875  1.58519  0.33954     0.01164  2793.49613   3185.95596  1.69379         4350.23343      17.6841  0.00027  58623.27639  0.07379   0.0032  1174135.38401  44.69164  18.08734  58687.31265    50.39151       43.52501   50.89597  54.16421   54.5    0.12557   -19.8225  0.99899 
   -9.95884  0.00214  7.00208     14.25445  1.76052  1.38863  2.48865  0.33485     0.01017  3030.47539   5708.57019   1.9578          4042.4614     19.03085  0.00596  58624.47116  0.13634  0.00533  2483220.75125  44.42902   18.1179  58687.31265    50.41403       43.54832   49.08422  55.05446   54.5    0.11453   -19.8116  0.99863 
  -10.86675  0.00161  6.01422     14.10254  1.30775  0.89694  2.02093  0.30735     0.01024  2814.23051   4092.11625  2.11503         3896.03786     17.07274    7e-05  58623.56325  0.09548  0.00325  2739140.61224   44.3894  18.09166  58687.31265    50.38686       43.52999   49.08422  53.79634   56.0    0.12333  -19.77836  0.99903 
  -10.55068  0.00139  7.81583     14.46029  1.88944  0.65305  2.19755  0.31778     0.01151  2994.54365   4087.54045  2.11238         3796.59996     16.30846    1e-05  58623.87932  0.11755  0.00305  1286839.19414   44.6497  18.11072  58687.31265    50.39662       43.52316   49.80525  55.25492   55.0    0.11665  -19.78733  0.99911 
   -9.73066  0.00134  6.97595     14.30996  1.77497  1.02479  2.99683   0.3225     0.01082  3559.41039   6626.68813  1.65397         3786.87895     17.62024  0.00023  58624.69934  0.22649  0.00402  1924369.07331  44.54654  18.10683  58687.31265    50.39157       43.52285   49.80525  55.25492   51.5    0.12283    -19.828  0.99899 
  -10.92685  0.00401  5.79717     14.14485  1.38502  1.08043  3.87439  0.27135     0.01098   3862.0072   7237.97947  1.73761         3536.21862     17.02651    6e-05  58623.50315  0.34471  0.01552  2218241.15333  44.53786  18.10932     58686.44    50.40461       43.54328   48.04748  54.83308   50.5    0.12043  -19.83078  0.99609 
  -10.10985  0.00143  7.04683     14.21537  1.66249  1.27247  3.48318    0.209     0.01038  3172.68132   3940.19896  1.91564         3835.99532     17.73582   0.0003  58624.32015  0.20915  0.00499  2843241.37274   44.3398  18.12062  58687.31265    50.38782       43.51963   48.94937  55.18931   57.0    0.11433   -19.7952  0.99858 
   -9.49748   0.0051  6.23091     14.13134  1.42749  1.23852  2.58007  0.30282     0.01197  3162.48591   5795.95755  2.18175         3784.48943     16.49291    2e-05  58624.93252  0.15393  0.01315  2810628.75773  44.38551   18.1003  58687.31265     50.3993       43.52504   48.94937   56.1108   55.0    0.11511  -19.79277  0.99634 
  -10.54217  0.00458  6.08224     14.08613  1.38941  1.38583  2.28529  0.33985     0.01078  2961.84154   3281.56245  2.10031         4028.29486     17.88869  0.00043  58623.88783  0.11959  0.01047  3210058.52949  44.33703  18.12696  58687.31265    50.38634       43.51326    50.1213  55.63831   55.0    0.11338  -19.80017   0.9971 
  -11.98428  0.00115  8.33483     14.26991  2.02385  1.18955  2.22916  0.31779     0.01075  3162.92183   3391.47707  2.11499         3777.45535     19.26871  0.01031  58622.44572  0.13303  0.00256  3766666.78319  44.15727  18.10361  58687.31265    50.40219       43.53255   49.08422  55.05446   53.5    0.12571  -19.81686  0.99923 
  -11.34677  0.00615  7.65819     14.21273  1.77921  1.34881  2.14247  0.31033     0.01084  2839.55762   4063.73123  1.79411         4421.95182     17.93621  0.00048  58623.08323  0.10305  0.01318  3637736.19243  44.18999  18.11785    58689.431    50.40038       43.52631   46.18257  56.93908   55.5    0.11974   -19.8198  0.99599 
  -11.31617  0.00651  7.60998     14.17434  1.72113  1.08614  1.97246  0.30727     0.01157  3030.33909   4269.88999  2.20661         3929.16075      16.6562    3e-05  58623.11383  0.10805  0.01284  4146892.61393  44.12417  18.13011  58687.31265    50.40442       43.53303   48.82053  55.36536   56.5    0.12432  -19.82891   0.9959 
    -10.375  0.00488  7.82419     14.41332  1.83021  0.68183  2.37733  0.25907     0.01014   2939.2158   3254.03584  1.96172         4019.02965     16.06582    1e-05    58624.055  0.12251  0.01159  1550769.58196  44.55392  18.15428    58689.431     50.3943       43.51963   48.82053  56.90226   56.0    0.12438  -19.80912  0.99646 
  -10.13446  0.00841  7.11775     14.24398   1.7299  1.15718  3.17807  0.28141     0.01024   3628.2771   7704.21857   1.9337         3611.70998     17.86468  0.00041  58624.29554  0.24957  0.02672  2645814.77192  44.37962  18.08086  58687.31265    50.38442       43.52312   45.40951   55.1813   51.0    0.12734  -19.83345  0.99273 
   -11.5785  0.00106  8.11155     14.31857  2.01571  1.10841  2.53228  0.31627     0.01221  3422.07749   5884.89933  1.87157           3650.843     17.73408   0.0003   58622.8515   0.1769  0.00269  2839978.79909  44.30175   18.1194  58687.31265    50.38261       43.50197   49.08422  57.59569   53.0    0.12269  -19.82018  0.99924 
   -9.67576  0.00223  6.83472     14.34742  1.82626  1.07875  3.19422  0.32882     0.01167   3664.3631   6715.18787  2.08256         3470.30981     18.24153  0.00097  58624.75424  0.25585  0.00713  1599471.77421  44.65699  18.11204  58687.31265    50.38793       43.51632   50.89597  54.62256   52.5    0.11154  -19.82553  0.99836 
  -11.70038  0.00754   7.6336     14.53653  1.99836  0.63519  2.92349  0.31653     0.01022  3328.06213   3280.91415  1.79471         3752.88853     18.56505  0.00204  58622.72962  0.19316  0.02205   913884.38993  44.84317  18.10898  58687.31265     50.3957        43.5266   48.94937  55.18931   54.5    0.11365  -19.80866  0.99445 
  -10.03594  0.01088  5.79129     14.19573  1.35986  0.90219  3.20331  0.29307     0.01087  3431.92503   6559.82019  1.91061         3659.40543      16.6626    3e-05  58624.39406  0.22506  0.03486  1719500.06672  44.64139   18.0879  58687.31265    50.39765       43.52656   49.08422  55.10167   54.0     0.1165  -19.78281  0.99106 
   -8.68652  0.00211  5.95454     14.26892  1.59673  1.25082  2.71094  0.32427     0.01436   3131.8668   3188.20464  1.81663         3957.50583     19.88256  0.04239  58625.74348  0.15862  0.00573  1523742.99186  44.73947  18.11293  58687.31265    50.39429       43.52309    50.1213  54.93888   57.0    0.10272   -19.8119  0.99878 
  -11.71592  0.00183  6.71229     14.05888   1.5034  1.33371  2.14621  0.31779      0.0128   3239.7124   5187.50393  1.79355         3850.92673     18.25751  0.00101  58622.71408  0.13437  0.00392  4795852.45068  44.11131  18.12351  58687.31265    50.38709       43.51679    50.1213  54.93888   55.5    0.12278  -19.81811  0.99881 
  -10.77564  0.00141  6.71125     14.19404  1.52664  0.93741  2.92436   0.2578     0.01224  3498.66065   5405.86435  1.82245         3735.58916     18.74859  0.00311  58623.65436  0.21353  0.00411  2612588.35195   44.3819  18.09799     58686.46    50.40808       43.54044   47.48333  55.39722   53.5    0.12608  -19.83457  0.99878 
  -11.01513  0.00151  5.55358     14.05652  1.30287  1.51157  2.86178  0.32006     0.01398  3453.94689   5688.64908  1.61011         3818.27866     17.76482  0.00032  58623.41487  0.20365  0.00432  2876269.97677  44.43577  18.07478  58687.31265    50.39888       43.53223   48.94937  55.23652   54.5    0.11139  -19.80792   0.9989 
   -11.3385  0.00483  7.94177      14.2467  1.89472  1.19428   2.8086  0.25473     0.01015   3290.3281   5783.88861  1.80618         3879.22701     18.35982  0.00127   58623.0915  0.18138  0.01357  3562836.60613  44.19476  18.12807  58687.31265    50.40635        43.5326   48.82053  55.36536   53.5    0.12477  -19.82875  0.99594 
  -10.02372  0.00123  7.81593        14.34  1.92676  1.03229  2.24864  0.32561     0.01192  3099.01446   3220.42397  2.17906         3676.90057     18.01821  0.00058  58624.40628  0.12882  0.00277   2283562.1434   44.4091  18.12417  58687.31265    50.39117       43.52064   49.80525  55.25492   55.0    0.11402  -19.78911  0.99922 
  -10.89799  0.00609  6.70353     14.34637  1.52758  0.59258  2.42073  0.31237     0.01012  3135.88337   3424.43582  2.06497         3924.69761     17.60822  0.00023  58623.53201    0.142  0.01474   1293231.9977  44.68857  18.10514  58687.31265    50.40221       43.54135   49.80525  53.42352   53.0    0.12414  -19.81735  0.99568 
  -11.41201  0.00409  8.47309     14.39008  2.07493   0.9714  2.25413  0.32896     0.01278  3163.06083   5544.01036  1.65319         4069.81661     17.72593   0.0003  58623.01799  0.13453  0.00921  2294821.96782  44.36902  18.10123  58687.31265    50.39166       43.52114    50.1213  54.93888   55.0    0.11619  -19.79528  0.99727 
  -10.66562  0.00348  7.31076      14.3516  1.80446  0.84841  2.34025  0.33876     0.01197  3216.83273   5928.86283  1.99941         3665.41661     17.45706  0.00016  58623.76438  0.14446  0.00814  1773763.28871  44.54837  18.10774  58687.31265    50.41139        43.5501   49.08422  54.04332   54.5    0.12015  -19.80176  0.99779 
   -10.7697  0.00153  7.85532     14.32286  1.93778  1.24875  2.52563  0.28638     0.01182  2990.09414   4201.49597  1.63908         4279.60339     16.03787    1e-05   58623.6603   0.1347  0.00388  2510354.66577  44.36609  18.13953    58689.431    50.39537       43.51534   48.94937  57.73054   55.5    0.11017  -19.80301  0.99892 
  -10.67473  0.00768  7.20786     14.31318  1.76266  0.91133  2.69717  0.30385     0.01077  3293.79968   5553.92729  1.63542          3937.8569     18.54275  0.00194  58623.75527  0.17455  0.02073  2010185.58484  44.49616  18.11917    58689.431    50.39934       43.53032   49.08422  55.10167   54.0    0.11632  -19.81884  0.99437 
  -10.89315  0.00252  7.72314     14.41185  1.97986   0.9015  2.73897  0.30713     0.01031   3241.9649   5965.39536  1.87187         3772.50557     18.90935  0.00451  58623.53685  0.17172   0.0069  1645655.17095  44.57355   18.0939     58686.46    50.39339       43.52963   49.80525  53.42352   53.0    0.11943  -19.80054  0.99819 
   -11.3397  0.00431  6.81749     14.17522  1.63791  1.44597  2.79994  0.31301     0.01186  3389.37235   4919.16287  1.76548         3819.47608     16.69971    3e-05   58623.0903  0.19187  0.01206  3154459.44678  44.31696  18.11144  58687.31265    50.40073       43.53318   47.48333  55.74544   54.5    0.11479   -19.8112  0.99672 
  -11.49505  0.00125  8.09541     14.29139  1.86555  0.93541  1.86596   0.3036     0.01131  2806.53503   5046.83511  1.81611         4256.67398     18.66765  0.00258  58622.93495  0.08767  0.00233  2966957.16578  44.25086  18.10501  58687.31265    50.40698       43.53676   49.08422  55.10167   56.5    0.11899  -19.80259  0.99925 
  -11.68583  0.00887  7.72931     14.36771  1.81199  0.69288  1.96538   0.3358     0.01089  2983.86847   3825.76419  1.95578         3886.24793     16.18385    1e-05  58622.74417  0.10438  0.01743  1848546.05699  44.48389  18.11547  58687.31265    50.38922         43.522    50.1213  54.06459   55.5    0.12597  -19.78708  0.99471 
   -9.58509  0.01756  7.15913     14.33254   1.9059  1.18808  3.42465  0.33983     0.01183  4190.81529   6954.26668  1.99344          3254.6061     18.76201  0.00321  58624.84491  0.35879  0.06014  1961370.77122  44.54666  18.10812  58687.31265    50.40718       43.53845    50.1213  54.93888   48.5    0.13222  -19.87071  0.98587 
  -11.74275  0.00274   7.6416     14.41908   1.8871  0.65545  2.46088  0.33119     0.01064  3322.87479   5558.49919  1.65133         3876.71671     18.15683   0.0008  58622.68725  0.16209  0.00675  1485338.91718  44.60645  18.11968    58689.431     50.3974       43.52629    50.1213  54.93888   54.0    0.12195  -19.83043  0.99812 
  -10.38138  0.00166  6.33799     14.20766  1.50792  0.99593  3.11858  0.25629     0.01031  3167.11403   3757.16167  2.28079         3590.45928      19.5697  0.02063  58624.04862   0.1866  0.00518   2161565.1371  44.50855  18.12136  58687.31265    50.39156        43.5242   49.81446  54.37143   56.5     0.1115  -19.79403  0.99862 
  -11.05845  0.00213  7.90729     14.39786  1.91478   0.7985  3.16117  0.23231     0.01023  3281.70712   6018.08987  1.99438         3704.28333     18.26064  0.00101  58623.37155  0.20308  0.00672   1779394.0355  44.50464  18.08529     58686.44    50.39007       43.53072   49.08422  53.79634   55.5    0.11896    -19.811  0.99804 
  -12.28515  0.00128  7.46429     14.38961  1.81231  0.67685  2.43735  0.33409     0.01023   3226.0034   5689.40131  1.68514         3956.87217     18.84181  0.00386  58622.14485  0.15131  0.00313  1558833.46535   44.5883  18.11717     58686.46    50.38338       43.50981   49.80525  55.25492   54.5     0.1189   -19.8109  0.99912 
  -12.09236  0.00308  8.41241     14.48969  2.06495  0.59737  2.15149  0.30643     0.01016  3128.90255   5728.75377  1.70178         3889.69976     16.65401    3e-05  58622.33764  0.12565  0.00664  1422965.17873  44.58072  18.08188     58686.46    50.38261        43.5265   49.80525  53.07531   54.0    0.13136  -19.80939  0.99803 
  -10.95956  0.00394  7.23793     14.43776  1.68295  0.56204  2.80076  0.26093     0.01003  3149.55456   3830.04217  2.12398         3797.74588      19.1758  0.00833  58623.47044  0.16573  0.01104  1090405.90999   44.7381  18.08884  58687.31265     50.4026       43.53722   49.80525  54.33343   55.0    0.11813  -19.80414  0.99674 
  -10.35084  0.00527  8.10459     14.32315    2.003  1.26425  2.67942  0.29806     0.01136  3258.90117   5757.20795  1.99706         3799.17283      18.0412  0.00061  58624.07916  0.16975  0.01412  2758365.25093  44.31241  18.10869  58687.31265    50.39032       43.53133   48.94937  53.93119   54.5    0.11325  -19.80038  0.99599 
   -9.27097   0.0212  7.36889     14.33308  1.82819  1.14933  2.45951  0.33996     0.01164  3147.21062   6221.22904  2.05378         4026.91087     16.89465    4e-05  58625.15903  0.14532  0.05213  1988319.60038  44.49758  18.10303  58687.31265    50.39577       43.52732   49.81446  54.37143   53.0    0.11109  -19.80993  0.98618 
  -11.91876  0.01387  7.65424     14.36333  1.82237  0.69848  2.14156  0.33701     0.01007  3047.73411   3509.12029  2.40493         3681.00809     19.00492  0.00562  58622.51124  0.11866  0.02969  1860372.86143  44.49208   18.1116  58687.31265    50.40969       43.53945   46.18257  56.23965   55.5    0.12405  -19.80373  0.99127 
  -10.97348  0.00113  7.12759     14.26168  1.77764  1.18209  3.34151  0.30469     0.01255  3969.84564   7129.32706   2.3345         3059.26803     17.42327  0.00015  58623.45652  0.31414  0.00379  2512928.76923  44.41263    18.097  58687.31265    50.40785       43.53726   45.40951   57.0127   50.5    0.11959  -19.81726  0.99901 
   -9.41032  0.00367  7.44983     14.42425  1.97389  1.00151  2.91404  0.29455     0.01044  3139.97702   5661.16067  2.24979         3656.69454     17.29623  0.00011  58625.01968  0.17139   0.0107  1441869.83525  44.66095  18.09601  58687.31265    50.39445       43.52504   49.08422  55.10167   55.0    0.10722  -19.78098  0.99739 
  -10.59828  0.00618  6.28175     14.23125  1.48027  0.89131  2.63108  0.29666     0.01027  3055.62691   3231.26525  1.83857         3978.94313     16.49447    2e-05  58623.83172  0.14654  0.01627  1869907.78052   44.5712  18.10616  58687.31265    50.38543       43.52081   49.80525  54.38064   55.0    0.11316  -19.79799  0.99565 
  -10.37035  0.00103  7.28878     14.31713  1.82225  1.10995   2.5096  0.32363      0.0122  3197.47108   5796.09555  1.94361         3745.31254     16.92404    5e-05  58624.05965  0.15305  0.00259  2086738.88579  44.48468  18.11392  58687.31265    50.38671       43.51732   49.08422  55.97596   55.0    0.11254  -19.78356  0.99932 
   -10.5119  0.00255  7.34944     14.26877  1.82767  1.25907  2.62926  0.31515     0.01002   3167.6283   6052.14043  2.03174           3782.808     16.56817    2e-05   58623.9181  0.15737   0.0067  2658751.24868  44.37356   18.1107  58687.31265    50.39442       43.52908   47.16729  54.38064   54.5    0.11867  -19.79783   0.9982 
  -10.49557  0.00162  6.88917     14.34523  1.65367  0.79306  2.43164   0.3328     0.01132   3091.5868    5917.4574  1.81687         4044.17191     16.80684    4e-05  58623.93443  0.13864  0.00394  1486419.65204  44.63882  18.11966     58686.46    50.39387       43.52969   49.08422  54.14455   54.5    0.11787  -19.78836  0.99892 
   -11.7025  0.00399  7.73335     14.23075   1.8883  1.30131  2.58484  0.30473     0.01075  3334.63197   5705.67716  1.81167         3769.37303      18.1052  0.00071   58622.7275  0.17146  0.01032  3623390.36434  44.20907  18.11793    58689.431    50.39698       43.53611   46.31141  55.18931   53.0    0.12501  -19.82426  0.99706 
  -10.50672  0.00316  8.14059     14.26329  1.97678  1.43108  1.98063  0.33781     0.01132  2983.08148   3039.26755   2.3327         3821.56878     18.35169  0.00125  58623.92328  0.10514  0.00625  3618271.79561  44.18499  18.10204  58687.31265    50.39532       43.53036   46.18257  55.36536   54.0    0.12623  -19.82183  0.99816 
  -10.26312  0.00462  6.52565     14.30825  1.56096  0.76391  2.69513  0.33242     0.01145  3493.34958   7436.60154  1.97344         3607.45792     17.02413    6e-05  58624.16688   0.1962  0.01245  1492661.05842  44.65903  18.09887  58687.31265    50.40725       43.54972   48.82053  54.06003   50.5    0.12129  -19.80855  0.99667 
   -9.89565  0.00241  7.69861     14.34084  2.03063  1.24857  2.20336  0.30236     0.01222  2879.84673   3443.60898  2.00793         4027.61387      20.3342  0.11993  58624.53435  0.10901  0.00531  2325915.07774  44.43706  18.09391     58686.44    50.39861       43.53529   48.94937   54.2794   56.0    0.11009  -19.88645  0.99867 
  -11.03082  0.00474  7.00532     14.18899  1.60571  0.86182  2.06544  0.30872     0.01046  3079.95737   5213.32722  1.88951         3960.77954     19.51282  0.01809  58623.39918  0.11688  0.00979  3064539.69667  44.29729  18.11308  58687.31265    50.39562       43.52988    50.1213  54.93888   55.5    0.12785  -19.84044  0.99706 
  -10.49961  0.00253   7.2127     14.24273  1.64502  0.91706   1.9841  0.33336     0.01306  3070.42684   5743.47268  2.15831         3765.15776     19.01934  0.00581  58623.93039  0.11158  0.00503  2598481.64492   44.3541  18.12881    58689.431     50.4017       43.52436   48.94937  56.81023   55.5    0.12291  -19.79105  0.99847 
  -11.01737  0.00201  7.19173     14.46863  1.78748  0.65684  2.62773  0.33448     0.01166  3217.20025   6008.38367  2.04315          3782.8789     17.91835  0.00046  58623.41263  0.16224  0.00529    991881.2367  44.81096  18.10136    58689.431    50.41194       43.54607   49.08422  55.05446   55.0     0.1086  -19.78319   0.9986 
  -11.15485  0.00323  6.37528     14.37018  1.55282  0.64721  2.80817  0.31068     0.01081  3200.12524   3742.27477  1.98163         3674.59958     17.36119  0.00013  58623.27515  0.17155  0.00906  1065552.22689  44.82339  18.11526  58687.31265    50.40038       43.53541   44.84537  56.65535   54.0    0.11163  -19.78494  0.99767 
  -11.69658  0.02977  7.57271     14.37661  1.79222  0.69517  2.04862  0.33912     0.01136  3105.40944   3058.62836  1.80327         3964.69867      16.4342    2e-05  58622.73342  0.11785  0.06099  1684598.28324  44.53724  18.12643     58686.46    50.39308       43.51833   48.04748   57.0127   54.0     0.1282   -19.8213  0.98224 
   -9.83714  0.00388  7.58237     14.37132  1.89055  0.93217  2.83867  0.29914     0.01098  3334.71845   3101.21718  2.01946         3759.78258     19.09414   0.0069  58624.59286   0.1883  0.01103  1825469.77758  44.52445  18.10641  58687.31265    50.40119       43.53383   49.81446  54.37143   54.5    0.11867  -19.81491  0.99702 
   -8.98602  0.00263  6.25219     14.24882  1.58711  1.19283  3.69267  0.28171     0.01093  3726.14124   7224.16458  2.01209         3519.13084     18.42785  0.00149  58625.44398  0.30583  0.00971  1831690.32479  44.61454   18.1099  58687.31265    50.40309       43.52507    50.1213  55.63831   50.5    0.11546  -19.80985  0.99769 
  -10.27659  0.00172  6.30313     14.05913  1.40325   1.3966   2.0155  0.33072     0.01438  3146.60907   5474.28918  1.74168         3959.07438     17.71994  0.00029  58624.15341  0.11904  0.00346  3942754.60192  44.22107  18.11573    58689.431    50.39339       43.52246   49.80525  55.71327   55.5    0.11782  -19.81343  0.99898 
  -11.20848   0.0141  8.55081     14.41446  2.00554  0.73626  2.53704  0.25783     0.01046  3177.33045   3031.37188  2.16211         3830.15482     19.13337  0.00755  58623.22152  0.15278  0.03577  2019048.37711  44.40192  18.08256  58687.31265    50.38197       43.51705   46.31141  55.23652   56.0    0.12269  -19.81675  0.98865 
  -11.04435  0.00223  5.45623     14.03005  1.20279  0.93981  2.71693  0.29184     0.01074  3308.02288   6289.51221  2.25744         3506.77672     19.53431  0.01901  58623.38565  0.17735  0.00607  2895308.19848  44.41356  18.11765    58689.431    50.38459        43.5144   47.16729  55.91754   54.5    0.12012  -19.81468  0.99831 
  -11.32913  0.00313  7.56089     14.47651  1.85379  0.55529  2.08767  0.32146     0.01033  2968.67334   5674.53499  1.96888         3811.02844     19.56312  0.02032  58623.10087  0.10975  0.00654  1096498.12003  44.73975  18.11784  58687.31265    50.38071       43.51497   46.18257  55.36536   55.5    0.12401  -19.81777  0.99817 
  -10.90871  0.00175  7.00642     14.31324  1.74832  0.87087  3.07397   0.3368     0.01152  3874.48191   7224.60465  2.28975         3200.19292     18.53994  0.00193  58623.52129  0.27527  0.00539  1883458.94102  44.54552  18.10272    58689.431    50.39527       43.53226   49.81446  54.32423   50.0    0.12632  -19.82946   0.9986 
