# Wavelength Flux
# STATUS = PUBLIC
# OBJECT = 2019hge
# TELESCOPE = P200
# INSTRUMENT = DBSP
# DATE-OBS = 2019-07-01 09:51:31
# MJD =
# EXPTIME =
# SLIT =
# DISPERSER =
# SOURCE = 2019TNSCR2859....1D
# FILTER =
# FLUX_STANDARD =
# EXTINCTION_CORRECTED =
# PHOTOMETRY_CALIBRATED =
# FLUX_UNITS =
# QUALITY =
# MIN_WAVE =
# MAX_WAVE =
# COMMENT =
3400.0 2.9741e-16
3401.534 2.904e-16
3403.068 3.1795e-16
3404.602 3.582e-16
3406.136 3.1253e-16
3407.67 2.961e-16
3409.204 3.0851e-16
3410.738 2.8445e-16
3412.271 2.6304e-16
3413.805 2.8382e-16
3415.339 2.5774e-16
3416.873 2.4218e-16
3418.407 3.2732e-16
3419.941 3.0678e-16
3421.475 3.3616e-16
3423.009 3.1234e-16
3424.543 2.9824e-16
3426.077 3.1366e-16
3427.611 3.4496e-16
3429.145 3.857e-16
3430.679 3.6399e-16
3432.213 3.335e-16
3433.746 3.1362e-16
3435.28 3.4493e-16
3436.814 3.6021e-16
3438.348 3.4942e-16
3439.882 3.7059e-16
3441.416 3.548e-16
3442.95 3.2886e-16
3444.484 3.6696e-16
3446.018 3.2735e-16
3447.552 3.2323e-16
3449.086 3.017e-16
3450.62 2.8846e-16
3452.154 3.2939e-16
3453.688 3.5905e-16
3455.221 2.6658e-16
3456.755 3.5514e-16
3458.289 3.2261e-16
3459.823 3.1273e-16
3461.357 2.9336e-16
3462.891 2.7532e-16
3464.425 2.7816e-16
3465.959 3.008e-16
3467.493 3.2309e-16
3469.027 2.8106e-16
3470.561 2.8568e-16
3472.095 3.3003e-16
3473.629 2.769e-16
3475.163 2.9113e-16
3476.697 3.2149e-16
3478.23 3.3489e-16
3479.764 3.5744e-16
3481.298 3.3209e-16
3482.832 2.9354e-16
3484.366 3.8206e-16
3485.9 3.6087e-16
3487.434 3.8292e-16
3488.968 3.9629e-16
3490.502 3.7244e-16
3492.036 3.3533e-16
3493.57 3.5186e-16
3495.104 4.0199e-16
3496.638 4.2912e-16
3498.171 4.0796e-16
3499.705 3.5943e-16
3501.239 3.9226e-16
3502.773 3.9704e-16
3504.307 3.6749e-16
3505.841 4.0719e-16
3507.375 4.2203e-16
3508.909 3.5366e-16
3510.443 3.1878e-16
3511.977 3.281e-16
3513.511 3.3861e-16
3515.045 2.9881e-16
3516.579 2.8126e-16
3518.113 2.7152e-16
3519.646 3.3459e-16
3521.18 2.8014e-16
3522.714 2.8043e-16
3524.248 2.6833e-16
3525.782 2.6831e-16
3527.316 2.5479e-16
3528.85 2.7001e-16
3530.384 2.8881e-16
3531.918 2.6172e-16
3533.452 2.8676e-16
3534.986 2.7097e-16
3536.52 2.8161e-16
3538.054 2.9357e-16
3539.588 2.9572e-16
3541.122 2.7888e-16
3542.656 2.9409e-16
3544.189 2.7489e-16
3545.723 2.5864e-16
3547.257 2.7818e-16
3548.791 2.3185e-16
3550.325 2.5605e-16
3551.859 2.9338e-16
3553.393 2.7157e-16
3554.927 2.8261e-16
3556.461 2.5677e-16
3557.995 2.9104e-16
3559.529 3.3601e-16
3561.063 3.1974e-16
3562.596 3.1645e-16
3564.13 3.7554e-16
3565.664 3.5098e-16
3567.198 3.4353e-16
3568.732 3.557e-16
3570.266 3.3125e-16
3571.8 3.2998e-16
3573.334 3.2194e-16
3574.868 3.4525e-16
3576.402 3.456e-16
3577.936 3.0639e-16
3579.47 2.9994e-16
3581.004 3.0099e-16
3582.538 3.4089e-16
3584.072 3.1389e-16
3585.605 2.8566e-16
3587.139 2.7985e-16
3588.673 2.9753e-16
3590.207 3.0812e-16
3591.741 2.8575e-16
3593.275 2.7226e-16
3594.809 2.6692e-16
3596.343 2.7061e-16
3597.877 2.8396e-16
3599.411 2.8347e-16
3600.945 3.0097e-16
3602.479 2.9318e-16
3604.013 2.9114e-16
3605.547 2.998e-16
3607.081 2.9577e-16
3608.615 3.1132e-16
3610.148 2.6365e-16
3611.682 2.3359e-16
3613.216 2.6151e-16
3614.75 2.7768e-16
3616.284 2.5506e-16
3617.818 2.5888e-16
3619.352 2.816e-16
3620.886 2.4395e-16
3622.42 2.5285e-16
3623.954 2.6519e-16
3625.488 2.7743e-16
3627.021 2.588e-16
3628.555 2.4374e-16
3630.089 2.8011e-16
3631.623 2.9948e-16
3633.157 2.9133e-16
3634.691 2.8728e-16
3636.225 2.4574e-16
3637.759 2.6575e-16
3639.293 2.8879e-16
3640.827 3.2503e-16
3642.361 3.3786e-16
3643.895 3.1907e-16
3645.429 3.0927e-16
3646.963 3.4405e-16
3648.497 3.4494e-16
3650.031 3.2961e-16
3651.564 2.9134e-16
3653.098 3.1963e-16
3654.632 3.5133e-16
3656.166 3.3543e-16
3657.7 3.1975e-16
3659.234 2.7142e-16
3660.768 3.2359e-16
3662.302 3.4057e-16
3663.836 3.2218e-16
3665.37 3.4349e-16
3666.904 3.389e-16
3668.438 3.423e-16
3669.972 3.1765e-16
3671.506 3.2209e-16
3673.04 3.3517e-16
3674.573 3.3255e-16
3676.107 3.1922e-16
3677.641 3.1911e-16
3679.175 2.9079e-16
3680.709 3.0092e-16
3682.243 2.7534e-16
3683.777 2.7603e-16
3685.311 2.8607e-16
3686.845 2.6309e-16
3688.379 2.5036e-16
3689.913 2.635e-16
3691.447 2.5427e-16
3692.98 2.4498e-16
3694.514 2.5157e-16
3696.048 2.6326e-16
3697.582 2.6484e-16
3699.116 2.5062e-16
3700.65 2.3852e-16
3702.184 2.3153e-16
3703.718 2.7278e-16
3705.252 2.5285e-16
3706.786 2.5057e-16
3708.32 2.58e-16
3709.854 2.3449e-16
3711.388 2.2867e-16
3712.922 2.228e-16
3714.456 2.2662e-16
3715.99 2.5137e-16
3717.523 2.5666e-16
3719.057 2.9005e-16
3720.591 2.449e-16
3722.125 2.4993e-16
3723.659 2.4712e-16
3725.193 2.4545e-16
3726.727 2.2553e-16
3728.261 2.4955e-16
3729.795 2.459e-16
3731.329 2.6261e-16
3732.863 2.6857e-16
3734.397 2.7647e-16
3735.931 2.9383e-16
3737.465 2.796e-16
3738.999 2.799e-16
3740.532 3.0108e-16
3742.066 3.0471e-16
3743.6 2.9731e-16
3745.134 3.1084e-16
3746.668 3.086e-16
3748.202 3.1279e-16
3749.736 3.3457e-16
3751.27 3.2109e-16
3752.804 3.1614e-16
3754.338 3.3373e-16
3755.872 3.0914e-16
3757.406 3.121e-16
3758.939 3.0888e-16
3760.473 3.0613e-16
3762.007 3.1909e-16
3763.541 3.176e-16
3765.075 3.0792e-16
3766.609 3.2848e-16
3768.143 3.315e-16
3769.677 2.967e-16
3771.211 2.6173e-16
3772.745 2.9095e-16
3774.279 2.9392e-16
3775.813 2.9113e-16
3777.347 3.1726e-16
3778.881 3.1533e-16
3780.415 3.0287e-16
3781.948 2.9154e-16
3783.482 2.8171e-16
3785.016 2.8844e-16
3786.55 3.0799e-16
3788.084 2.9994e-16
3789.618 2.9485e-16
3791.152 2.7585e-16
3792.686 2.9433e-16
3794.22 3.0444e-16
3795.754 3.1254e-16
3797.288 2.8219e-16
3798.822 2.7674e-16
3800.356 2.7664e-16
3801.89 2.7821e-16
3803.424 2.8095e-16
3804.958 2.6855e-16
3806.491 2.8459e-16
3808.025 2.7795e-16
3809.559 2.5211e-16
3811.093 2.4386e-16
3812.627 2.5728e-16
3814.161 2.671e-16
3815.695 2.779e-16
3817.229 2.6083e-16
3818.763 2.6074e-16
3820.297 2.7566e-16
3821.831 2.8755e-16
3823.365 2.6498e-16
3824.898 2.6082e-16
3826.432 2.8052e-16
3827.966 2.9822e-16
3829.5 3.0536e-16
3831.034 2.8373e-16
3832.568 2.7628e-16
3834.102 2.7426e-16
3835.636 2.6467e-16
3837.17 2.9138e-16
3838.704 2.7964e-16
3840.238 2.6188e-16
3841.772 2.6905e-16
3843.306 2.8355e-16
3844.84 2.6233e-16
3846.374 2.899e-16
3847.907 2.9025e-16
3849.441 2.9549e-16
3850.975 2.7978e-16
3852.509 2.6804e-16
3854.043 3.0858e-16
3855.577 3.3572e-16
3857.111 3.0512e-16
3858.645 3.0299e-16
3860.179 3.224e-16
3861.713 3.3688e-16
3863.247 3.5219e-16
3864.781 3.3277e-16
3866.315 3.3295e-16
3867.849 3.5055e-16
3869.383 3.2981e-16
3870.917 3.0033e-16
3872.45 3.1071e-16
3873.984 3.2591e-16
3875.518 3.2462e-16
3877.052 3.4566e-16
3878.586 3.4999e-16
3880.12 3.4825e-16
3881.654 3.2309e-16
3883.188 3.4023e-16
3884.722 3.5166e-16
3886.256 3.232e-16
3887.79 3.1471e-16
3889.323 2.9654e-16
3890.857 3.1228e-16
3892.391 3.3253e-16
3893.925 3.1469e-16
3895.459 3.3014e-16
3896.993 3.0842e-16
3898.527 3.3072e-16
3900.061 3.4206e-16
3901.595 3.3208e-16
3903.129 3.2929e-16
3904.663 3.183e-16
3906.197 3.0903e-16
3907.731 3.0624e-16
3909.265 3.0795e-16
3910.799 3.115e-16
3912.333 3.0223e-16
3913.866 2.9748e-16
3915.4 3.194e-16
3916.934 3.0705e-16
3918.468 3.0226e-16
3920.002 2.7747e-16
3921.536 2.8231e-16
3923.07 3.0105e-16
3924.604 3.1454e-16
3926.138 3.0152e-16
3927.672 2.9217e-16
3929.206 2.833e-16
3930.74 2.9457e-16
3932.274 2.9293e-16
3933.808 3.0634e-16
3935.342 3.1423e-16
3936.875 3.1822e-16
3938.409 3.118e-16
3939.943 3.0602e-16
3941.477 2.7481e-16
3943.011 2.8413e-16
3944.545 2.9128e-16
3946.079 2.9582e-16
3947.613 2.9693e-16
3949.147 2.9998e-16
3950.681 2.6867e-16
3952.215 2.6609e-16
3953.749 3.1416e-16
3955.282 3.0468e-16
3956.816 2.7979e-16
3958.35 2.803e-16
3959.884 2.7221e-16
3961.418 2.5595e-16
3962.952 2.4849e-16
3964.486 2.5675e-16
3966.02 2.7579e-16
3967.554 2.5125e-16
3969.088 2.4109e-16
3970.622 2.5978e-16
3972.156 2.5645e-16
3973.69 2.5886e-16
3975.224 2.5805e-16
3976.758 2.4614e-16
3978.292 2.6413e-16
3979.825 2.6988e-16
3981.359 2.7158e-16
3982.893 2.7354e-16
3984.427 2.6181e-16
3985.961 2.5779e-16
3987.495 2.6327e-16
3989.029 2.9197e-16
3990.563 2.6399e-16
3992.097 2.5519e-16
3993.631 2.6734e-16
3995.165 2.6786e-16
3996.699 2.547e-16
3998.233 2.6262e-16
3999.767 2.6746e-16
4001.301 2.4804e-16
4002.834 2.7267e-16
4004.368 2.7427e-16
4005.902 2.799e-16
4007.436 2.779e-16
4008.97 2.6073e-16
4010.504 2.5108e-16
4012.038 2.8445e-16
4013.572 3.0196e-16
4015.106 2.7413e-16
4016.64 2.8625e-16
4018.174 3.0289e-16
4019.708 2.9744e-16
4021.241 2.6719e-16
4022.775 2.6433e-16
4024.309 2.733e-16
4025.843 2.9853e-16
4027.377 2.9221e-16
4028.911 2.9808e-16
4030.445 3.1867e-16
4031.979 2.9172e-16
4033.513 2.8916e-16
4035.047 2.6638e-16
4036.581 2.8103e-16
4038.115 2.8949e-16
4039.649 3.0536e-16
4041.183 2.9079e-16
4042.717 2.8986e-16
4044.25 2.9636e-16
4045.784 2.8167e-16
4047.318 2.9572e-16
4048.852 3.032e-16
4050.386 2.9798e-16
4051.92 3.2295e-16
4053.454 2.9411e-16
4054.988 2.8159e-16
4056.522 2.7148e-16
4058.056 2.6123e-16
4059.59 2.9628e-16
4061.124 2.8333e-16
4062.658 2.882e-16
4064.192 2.8174e-16
4065.726 2.6349e-16
4067.26 2.6527e-16
4068.793 2.7534e-16
4070.327 2.8254e-16
4071.861 2.8064e-16
4073.395 2.7608e-16
4074.929 2.6272e-16
4076.463 2.6629e-16
4077.997 2.7417e-16
4079.531 2.5596e-16
4081.065 2.4443e-16
4082.599 2.471e-16
4084.133 2.4535e-16
4085.667 2.2687e-16
4087.2 2.3163e-16
4088.734 2.3538e-16
4090.268 2.3844e-16
4091.802 2.3716e-16
4093.336 2.2711e-16
4094.87 2.3977e-16
4096.404 2.6733e-16
4097.938 2.5141e-16
4099.472 2.3106e-16
4101.006 2.4492e-16
4102.54 2.6556e-16
4104.074 2.2859e-16
4105.608 2.3674e-16
4107.142 2.3174e-16
4108.676 2.1895e-16
4110.209 2.4245e-16
4111.743 2.516e-16
4113.277 2.5423e-16
4114.811 2.5551e-16
4116.345 2.6911e-16
4117.879 2.7208e-16
4119.413 2.5367e-16
4120.947 2.6244e-16
4122.481 2.6953e-16
4124.015 2.6355e-16
4125.549 2.4937e-16
4127.083 2.6982e-16
4128.617 2.7145e-16
4130.15 2.4762e-16
4131.685 2.7576e-16
4133.218 2.7597e-16
4134.752 2.7029e-16
4136.286 2.7126e-16
4137.82 2.6323e-16
4139.354 2.8666e-16
4140.888 2.7864e-16
4142.422 2.5442e-16
4143.956 2.5977e-16
4145.49 2.6105e-16
4147.024 2.4087e-16
4148.558 2.4527e-16
4150.092 2.6165e-16
4151.625 2.5609e-16
4153.16 2.3637e-16
4154.693 2.4658e-16
4156.228 2.4354e-16
4157.761 2.4293e-16
4159.295 2.4276e-16
4160.829 2.3317e-16
4162.363 2.4183e-16
4163.897 2.3479e-16
4165.431 2.324e-16
4166.965 2.2114e-16
4168.499 2.3445e-16
4170.033 2.2126e-16
4171.567 2.2133e-16
4173.101 2.2463e-16
4174.634 2.3866e-16
4176.168 2.2358e-16
4177.702 2.2536e-16
4179.236 2.3222e-16
4180.77 2.2391e-16
4182.304 2.2445e-16
4183.838 2.3147e-16
4185.372 2.4311e-16
4186.906 2.3676e-16
4188.44 2.2259e-16
4189.974 2.2536e-16
4191.508 2.1405e-16
4193.042 2.161e-16
4194.576 2.0749e-16
4196.109 2.0265e-16
4197.644 2.0516e-16
4199.177 2.0601e-16
4200.711 2.1431e-16
4202.245 2.3033e-16
4203.779 2.4134e-16
4205.313 2.2783e-16
4206.847 2.2392e-16
4208.381 2.3474e-16
4209.915 2.254e-16
4211.449 2.2938e-16
4212.983 2.4187e-16
4214.517 2.3636e-16
4216.051 2.2642e-16
4217.584 2.3775e-16
4219.119 2.4866e-16
4220.652 2.4967e-16
4222.187 2.2561e-16
4223.72 2.2588e-16
4225.254 2.4627e-16
4226.788 2.4878e-16
4228.322 2.4254e-16
4229.856 2.3629e-16
4231.39 2.6926e-16
4232.924 2.7383e-16
4234.458 2.6696e-16
4235.992 2.5724e-16
4237.526 2.8989e-16
4239.06 2.9102e-16
4240.593 2.6626e-16
4242.127 2.7501e-16
4243.661 2.6843e-16
4245.195 2.5279e-16
4246.729 2.6112e-16
4248.263 2.584e-16
4249.797 2.5847e-16
4251.331 2.577e-16
4252.865 2.6246e-16
4254.399 2.6794e-16
4255.933 2.6875e-16
4257.467 2.7667e-16
4259.0 2.7602e-16
4260.535 2.7323e-16
4262.068 2.8938e-16
4263.603 2.8077e-16
4265.136 2.6264e-16
4266.67 2.792e-16
4268.204 2.737e-16
4269.738 2.6411e-16
4271.272 2.4835e-16
4272.806 2.6435e-16
4274.34 2.6795e-16
4275.874 2.5376e-16
4277.408 2.6306e-16
4278.942 2.8852e-16
4280.476 2.95e-16
4282.01 2.7411e-16
4283.543 2.8175e-16
4285.078 2.6947e-16
4286.611 2.5626e-16
4288.146 2.7737e-16
4289.679 2.8043e-16
4291.213 2.7535e-16
4292.747 2.7231e-16
4294.281 2.5991e-16
4295.815 2.5215e-16
4297.349 2.7127e-16
4298.883 2.6266e-16
4300.417 2.5555e-16
4301.951 2.6532e-16
4303.484 2.67e-16
4305.019 2.617e-16
4306.552 2.798e-16
4308.086 2.7816e-16
4309.62 2.6515e-16
4311.154 2.5478e-16
4312.688 2.5355e-16
4314.222 2.5515e-16
4315.756 2.6021e-16
4317.29 2.6681e-16
4318.824 2.6015e-16
4320.358 2.7377e-16
4321.892 2.6112e-16
4323.426 2.5392e-16
4324.959 2.4809e-16
4326.494 2.7725e-16
4328.027 2.6604e-16
4329.562 2.6428e-16
4331.095 2.5147e-16
4332.629 2.4252e-16
4334.163 2.6342e-16
4335.697 2.6209e-16
4337.231 2.7021e-16
4338.765 2.6447e-16
4340.299 2.7172e-16
4341.833 2.6717e-16
4343.367 2.7915e-16
4344.901 2.7081e-16
4346.435 2.5706e-16
4347.969 2.5636e-16
4349.502 2.6315e-16
4351.037 2.622e-16
4352.57 2.4251e-16
4354.104 2.3862e-16
4355.638 2.5536e-16
4357.172 2.6038e-16
4358.706 2.7686e-16
4360.24 2.6535e-16
4361.774 2.4238e-16
4363.308 2.5766e-16
4364.842 2.5565e-16
4366.376 2.6981e-16
4367.91 2.5156e-16
4369.443 2.3464e-16
4370.978 2.3053e-16
4372.511 2.4325e-16
4374.045 2.4063e-16
4375.579 2.5002e-16
4377.113 2.5475e-16
4378.647 2.501e-16
4380.181 2.366e-16
4381.715 2.3964e-16
4383.249 2.4175e-16
4384.783 2.2468e-16
4386.317 2.219e-16
4387.851 2.2856e-16
4389.385 2.4684e-16
4390.918 2.4402e-16
4392.453 2.5403e-16
4393.986 2.4843e-16
4395.521 2.3072e-16
4397.054 2.2281e-16
4398.588 2.3742e-16
4400.122 2.5053e-16
4401.656 2.4219e-16
4403.19 2.446e-16
4404.724 2.3179e-16
4406.258 2.3714e-16
4407.792 2.2755e-16
4409.326 2.2914e-16
4410.86 2.4009e-16
4412.394 2.4066e-16
4413.928 2.4162e-16
4415.461 2.232e-16
4416.996 2.4301e-16
4418.529 2.4826e-16
4420.063 2.4645e-16
4421.597 2.4617e-16
4423.131 2.3119e-16
4424.665 2.3896e-16
4426.199 2.5616e-16
4427.733 2.4744e-16
4429.267 2.5079e-16
4430.801 2.5544e-16
4432.334 2.5281e-16
4433.869 2.5213e-16
4435.402 2.5522e-16
4436.937 2.5461e-16
4438.47 2.4733e-16
4440.004 2.4308e-16
4441.538 2.475e-16
4443.072 2.6052e-16
4444.606 2.7664e-16
4446.14 2.6002e-16
4447.674 2.3891e-16
4449.208 2.5795e-16
4450.742 2.6101e-16
4452.276 2.6433e-16
4453.81 2.6184e-16
4455.344 2.5303e-16
4456.877 2.5792e-16
4458.412 2.6084e-16
4459.945 2.6368e-16
4461.479 2.4102e-16
4463.013 2.444e-16
4464.547 2.4535e-16
4466.081 2.4427e-16
4467.615 2.4931e-16
4469.149 2.5491e-16
4470.683 2.7023e-16
4472.217 2.5477e-16
4473.751 2.7068e-16
4475.285 2.4964e-16
4476.819 2.5262e-16
4478.353 2.5515e-16
4479.887 2.4081e-16
4481.42 2.5262e-16
4482.955 2.7318e-16
4484.488 2.656e-16
4486.022 2.649e-16
4487.556 2.6245e-16
4489.09 2.4603e-16
4490.624 2.4379e-16
4492.158 2.2971e-16
4493.692 2.3423e-16
4495.226 2.4947e-16
4496.76 2.4129e-16
4498.293 2.2969e-16
4499.828 2.3873e-16
4501.361 2.3546e-16
4502.896 2.3733e-16
4504.429 2.3143e-16
4505.963 2.2765e-16
4507.497 2.3959e-16
4509.031 2.333e-16
4510.565 2.32e-16
4512.099 2.3484e-16
4513.633 2.4484e-16
4515.167 2.2953e-16
4516.701 2.3357e-16
4518.235 2.3678e-16
4519.769 2.2721e-16
4521.303 2.3635e-16
4522.836 2.307e-16
4524.371 2.3488e-16
4525.904 2.2951e-16
4527.438 2.241e-16
4528.972 2.37e-16
4530.506 2.2004e-16
4532.04 2.3965e-16
4533.574 2.2127e-16
4535.108 2.2949e-16
4536.642 2.36e-16
4538.176 2.3996e-16
4539.71 2.2729e-16
4541.244 2.2962e-16
4542.778 2.0928e-16
4544.312 2.405e-16
4545.846 2.1797e-16
4547.379 2.1679e-16
4548.914 2.0643e-16
4550.447 2.3122e-16
4551.981 2.2757e-16
4553.515 2.0862e-16
4555.049 2.1723e-16
4556.583 2.278e-16
4558.117 2.2986e-16
4559.651 2.2925e-16
4561.185 2.1736e-16
4562.719 2.255e-16
4564.252 2.255e-16
4565.787 2.2262e-16
4567.32 2.0935e-16
4568.854 2.3124e-16
4570.388 2.1826e-16
4571.922 2.1845e-16
4573.456 2.374e-16
4574.99 2.1878e-16
4576.524 2.2784e-16
4578.058 2.1863e-16
4579.592 2.1239e-16
4581.126 2.1015e-16
4582.66 2.1148e-16
4584.194 2.1262e-16
4585.728 2.0877e-16
4587.262 2.1696e-16
4588.795 2.2039e-16
4590.33 2.2701e-16
4591.863 2.1738e-16
4593.397 2.1238e-16
4594.931 2.1657e-16
4596.465 2.3634e-16
4597.999 2.2649e-16
4599.533 2.1854e-16
4601.067 2.1124e-16
4602.601 2.2043e-16
4604.135 2.1359e-16
4605.669 2.056e-16
4607.203 2.0339e-16
4608.737 2.0495e-16
4610.271 2.1551e-16
4611.805 2.0361e-16
4613.338 1.9272e-16
4614.873 2.037e-16
4616.406 2.0952e-16
4617.94 2.274e-16
4619.474 2.1868e-16
4621.008 2.175e-16
4622.542 2.1868e-16
4624.076 2.032e-16
4625.61 2.1652e-16
4627.144 2.0785e-16
4628.678 1.9726e-16
4630.211 1.9288e-16
4631.746 2.123e-16
4633.279 2.1617e-16
4634.813 2.1749e-16
4636.347 2.1255e-16
4637.881 1.9642e-16
4639.415 1.9734e-16
4640.949 2.0692e-16
4642.483 2.0822e-16
4644.017 2.1751e-16
4645.551 2.1111e-16
4647.085 2.1252e-16
4648.619 2.2006e-16
4650.153 1.9082e-16
4651.687 2.1207e-16
4653.221 2.187e-16
4654.754 2.0387e-16
4656.289 1.9146e-16
4657.822 1.9075e-16
4659.356 2.0724e-16
4660.89 2.0591e-16
4662.424 1.9365e-16
4663.958 2.0282e-16
4665.492 2.2023e-16
4667.026 2.1093e-16
4668.56 2.1456e-16
4670.094 1.8535e-16
4671.628 1.8915e-16
4673.162 1.9438e-16
4674.696 1.9993e-16
4676.229 1.9534e-16
4677.764 1.9964e-16
4679.297 2.0017e-16
4680.832 2.1203e-16
4682.365 1.9495e-16
4683.899 2.081e-16
4685.433 2.0898e-16
4686.967 1.9728e-16
4688.501 1.9424e-16
4690.035 2.1627e-16
4691.569 2.0603e-16
4693.103 2.0491e-16
4694.637 1.9684e-16
4696.17 1.9485e-16
4697.705 2.0933e-16
4699.238 2.2126e-16
4700.772 1.9359e-16
4702.306 1.6771e-16
4703.84 1.7934e-16
4705.374 2.1453e-16
4706.908 1.9548e-16
4708.442 1.8279e-16
4709.976 1.8852e-16
4711.51 1.949e-16
4713.044 1.9476e-16
4714.578 2.0122e-16
4716.112 2.0931e-16
4717.646 2.1555e-16
4719.18 1.9918e-16
4720.713 2.0174e-16
4722.248 2.1091e-16
4723.781 2.0757e-16
4725.315 1.825e-16
4726.849 1.9091e-16
4728.383 1.8904e-16
4729.917 1.8944e-16
4731.451 1.8895e-16
4732.985 1.982e-16
4734.519 1.9095e-16
4736.053 1.9397e-16
4737.587 1.854e-16
4739.121 2.0336e-16
4740.655 1.9358e-16
4742.188 1.8726e-16
4743.723 1.9813e-16
4745.256 2.0436e-16
4746.791 1.7942e-16
4748.324 1.9777e-16
4749.858 1.8519e-16
4751.392 1.9463e-16
4752.926 1.6838e-16
4754.46 1.9792e-16
4755.994 2.1038e-16
4757.528 2.0535e-16
4759.062 1.9684e-16
4760.596 1.9527e-16
4762.129 1.9411e-16
4763.664 1.9038e-16
4765.197 1.741e-16
4766.731 1.8154e-16
4768.265 1.9903e-16
4769.799 2.0689e-16
4771.333 2.0703e-16
4772.867 1.7833e-16
4774.401 1.8858e-16
4775.935 2.22e-16
4777.469 2.0903e-16
4779.003 1.8802e-16
4780.537 2.0221e-16
4782.071 1.9791e-16
4783.604 2.022e-16
4785.139 2.012e-16
4786.672 1.9591e-16
4788.207 2.0391e-16
4789.74 2.0343e-16
4791.274 1.9301e-16
4792.808 1.9941e-16
4794.342 2.0946e-16
4795.876 1.9408e-16
4797.41 2.0244e-16
4798.944 1.97e-16
4800.478 1.963e-16
4802.012 2.0438e-16
4803.546 1.8584e-16
4805.08 1.8121e-16
4806.614 1.8921e-16
4808.147 1.9384e-16
4809.682 1.964e-16
4811.215 1.9375e-16
4812.75 1.9731e-16
4814.283 2.0322e-16
4815.817 2.0385e-16
4817.351 2.0285e-16
4818.885 2.0255e-16
4820.419 1.7504e-16
4821.953 1.7351e-16
4823.487 1.8947e-16
4825.021 1.8635e-16
4826.555 1.7104e-16
4828.088 1.9148e-16
4829.623 1.8804e-16
4831.156 1.9472e-16
4832.69 2.0005e-16
4834.224 1.8859e-16
4835.758 1.777e-16
4837.292 1.7988e-16
4838.826 1.8251e-16
4840.36 1.7939e-16
4841.894 1.7711e-16
4843.428 1.8044e-16
4844.962 1.7971e-16
4846.496 1.8498e-16
4848.03 1.8651e-16
4849.563 1.8103e-16
4851.098 1.8177e-16
4852.631 1.7785e-16
4854.166 1.777e-16
4855.699 1.8713e-16
4857.233 1.9083e-16
4858.767 1.8594e-16
4860.301 1.7892e-16
4861.835 1.8058e-16
4863.369 1.7881e-16
4864.903 1.7675e-16
4866.437 1.803e-16
4867.971 2.0133e-16
4869.505 1.816e-16
4871.039 1.7359e-16
4872.573 1.8608e-16
4874.106 1.8449e-16
4875.641 1.8125e-16
4877.174 1.9075e-16
4878.708 1.7726e-16
4880.242 1.8429e-16
4881.776 1.8918e-16
4883.31 1.9252e-16
4884.844 2.0379e-16
4886.378 1.9071e-16
4887.912 1.7012e-16
4889.446 1.7414e-16
4890.979 1.8237e-16
4892.514 1.9154e-16
4894.047 1.7799e-16
4895.582 1.9241e-16
4897.115 2.0129e-16
4898.649 1.7827e-16
4900.183 1.9152e-16
4901.717 2.168e-16
4903.251 1.9434e-16
4904.785 1.8188e-16
4906.319 1.8903e-16
4907.853 1.9098e-16
4909.387 1.9765e-16
4910.921 1.9056e-16
4912.455 1.7805e-16
4913.989 1.7199e-16
4915.522 1.8617e-16
4917.057 1.9733e-16
4918.59 1.9857e-16
4920.125 1.9172e-16
4921.658 1.8915e-16
4923.192 1.9585e-16
4924.726 1.894e-16
4926.26 1.861e-16
4927.794 1.8969e-16
4929.328 1.9315e-16
4930.862 1.9873e-16
4932.396 1.9169e-16
4933.93 1.9293e-16
4935.464 1.8695e-16
4936.998 1.7948e-16
4938.532 1.8898e-16
4940.065 1.9706e-16
4941.6 1.9764e-16
4943.133 1.8677e-16
4944.667 1.9196e-16
4946.201 1.9805e-16
4947.735 1.9327e-16
4949.269 2.0991e-16
4950.803 2.0241e-16
4952.337 1.8419e-16
4953.871 1.7714e-16
4955.405 1.8628e-16
4956.938 1.9967e-16
4958.473 2.0169e-16
4960.006 1.9906e-16
4961.541 1.9302e-16
4963.074 1.9091e-16
4964.608 1.8159e-16
4966.142 1.8335e-16
4967.676 1.8487e-16
4969.21 1.8052e-16
4970.744 1.8362e-16
4972.278 1.8742e-16
4973.812 1.999e-16
4975.346 1.9171e-16
4976.88 1.8485e-16
4978.414 1.9661e-16
4979.948 2.0708e-16
4981.481 2.1575e-16
4983.016 1.8936e-16
4984.549 1.9428e-16
4986.083 1.8559e-16
4987.617 1.8359e-16
4989.151 1.8861e-16
4990.685 1.9793e-16
4992.219 1.9179e-16
4993.753 1.8789e-16
4995.287 1.9931e-16
4996.821 1.8643e-16
4998.355 1.8653e-16
4999.889 1.8113e-16
5001.423 1.7723e-16
5002.957 1.8895e-16
5004.491 1.8348e-16
5006.024 1.8298e-16
5007.559 1.8118e-16
5009.092 1.8244e-16
5010.626 1.7438e-16
5012.16 1.7921e-16
5013.694 1.9043e-16
5015.228 1.7942e-16
5016.762 1.687e-16
5018.296 1.7053e-16
5019.83 1.761e-16
5021.364 1.9034e-16
5022.897 1.8109e-16
5024.432 1.8091e-16
5025.965 1.9949e-16
5027.5 1.9916e-16
5029.033 1.9254e-16
5030.567 1.8312e-16
5032.101 1.7904e-16
5033.635 1.707e-16
5035.169 1.7187e-16
5036.703 1.9126e-16
5038.237 1.7838e-16
5039.771 1.8132e-16
5041.305 1.854e-16
5042.839 1.9311e-16
5044.373 1.848e-16
5045.907 1.8679e-16
5047.44 1.8104e-16
5048.975 1.8541e-16
5050.508 1.957e-16
5052.042 1.7914e-16
5053.576 1.9593e-16
5055.11 1.9156e-16
5056.644 1.9463e-16
5058.178 1.7419e-16
5059.712 1.8471e-16
5061.246 1.9176e-16
5062.78 1.8479e-16
5064.314 1.8819e-16
5065.848 1.8622e-16
5067.382 1.755e-16
5068.916 1.7655e-16
5070.45 1.7038e-16
5071.983 1.7061e-16
5073.518 1.7933e-16
5075.051 1.7949e-16
5076.585 1.7229e-16
5078.119 1.7045e-16
5079.653 1.8313e-16
5081.187 1.8536e-16
5082.721 1.8973e-16
5084.255 1.9586e-16
5085.789 1.7283e-16
5087.323 1.8011e-16
5088.856 1.7909e-16
5090.391 1.8269e-16
5091.924 1.7121e-16
5093.458 1.7373e-16
5094.992 1.7476e-16
5096.526 1.7557e-16
5098.06 1.7626e-16
5099.594 1.6813e-16
5101.128 1.756e-16
5102.662 1.7059e-16
5104.196 1.6938e-16
5105.73 1.697e-16
5107.264 1.6269e-16
5108.798 1.8813e-16
5110.332 1.7718e-16
5111.866 1.6604e-16
5113.399 1.7674e-16
5114.934 1.688e-16
5116.467 1.7384e-16
5118.001 1.6403e-16
5119.535 1.6991e-16
5121.069 1.7672e-16
5122.603 1.6869e-16
5124.137 1.5598e-16
5125.671 1.5166e-16
5127.205 1.5872e-16
5128.739 1.5927e-16
5130.273 1.6505e-16
5131.807 1.7467e-16
5133.341 1.629e-16
5134.875 1.7726e-16
5136.409 1.7417e-16
5137.942 1.7338e-16
5139.477 1.7778e-16
5141.01 1.661e-16
5142.544 1.7701e-16
5144.078 1.6339e-16
5145.612 1.7781e-16
5147.146 1.6946e-16
5148.68 1.6016e-16
5150.214 1.6385e-16
5151.748 1.5866e-16
5153.282 1.6217e-16
5154.815 1.6582e-16
5156.35 1.8301e-16
5157.883 1.8313e-16
5159.417 1.6969e-16
5160.951 1.7531e-16
5162.485 1.5904e-16
5164.019 1.7195e-16
5165.553 1.8221e-16
5167.087 1.6874e-16
5168.621 1.6148e-16
5170.155 1.8039e-16
5171.689 1.9178e-16
5173.223 1.7792e-16
5174.757 1.6128e-16
5176.291 1.6957e-16
5177.825 1.7424e-16
5179.358 1.5926e-16
5180.893 1.6147e-16
5182.426 1.7424e-16
5183.96 1.7703e-16
5185.494 1.8013e-16
5187.028 1.6766e-16
5188.562 1.5739e-16
5190.096 1.6954e-16
5191.63 1.7815e-16
5193.164 1.7906e-16
5194.698 1.7613e-16
5196.232 1.683e-16
5197.766 1.6343e-16
5199.3 1.599e-16
5200.833 1.4996e-16
5202.368 1.5315e-16
5203.901 1.5626e-16
5205.435 1.4627e-16
5206.969 1.4939e-16
5208.503 1.6111e-16
5210.037 1.5741e-16
5211.571 1.7131e-16
5213.105 1.4845e-16
5214.639 1.5337e-16
5216.173 1.5654e-16
5217.707 1.6317e-16
5219.241 1.6659e-16
5220.774 1.6384e-16
5222.309 1.5442e-16
5223.842 1.6362e-16
5225.376 1.6786e-16
5226.91 1.6405e-16
5228.444 1.6366e-16
5229.978 1.6789e-16
5231.512 1.595e-16
5233.046 1.6741e-16
5234.58 1.6232e-16
5236.114 1.5959e-16
5237.648 1.5921e-16
5239.182 1.663e-16
5240.716 1.8563e-16
5242.25 1.9137e-16
5243.784 1.8186e-16
5245.317 1.6568e-16
5246.852 1.5386e-16
5248.385 1.673e-16
5249.919 1.612e-16
5251.453 1.7752e-16
5252.987 1.8639e-16
5254.521 1.5217e-16
5256.055 1.4586e-16
5257.589 1.7209e-16
5259.123 1.877e-16
5260.657 1.9797e-16
5262.191 2.0935e-16
5263.725 1.8997e-16
5265.259 1.8215e-16
5266.792 1.7892e-16
5268.327 1.7093e-16
5269.86 1.5096e-16
5271.394 1.734e-16
5272.928 2.0342e-16
5274.462 1.9798e-16
5275.996 1.9494e-16
5277.53 1.7378e-16
5279.064 1.67e-16
5280.598 1.5934e-16
5282.132 1.6073e-16
5283.666 1.9079e-16
5285.2 1.7735e-16
5286.733 1.7166e-16
5288.268 1.7203e-16
5289.801 1.628e-16
5291.335 1.7983e-16
5292.869 1.6328e-16
5294.403 1.3663e-16
5295.937 1.5218e-16
5297.471 1.6044e-16
5299.005 1.6274e-16
5300.539 1.5555e-16
5302.073 1.4725e-16
5303.607 1.4823e-16
5305.141 1.6509e-16
5306.675 1.5006e-16
5308.208 1.543e-16
5309.743 1.6536e-16
5311.276 1.6432e-16
5312.811 1.4059e-16
5314.344 1.4231e-16
5315.878 1.6395e-16
5317.412 1.4081e-16
5318.946 1.3784e-16
5320.48 1.4761e-16
5322.014 1.3703e-16
5323.548 1.4099e-16
5325.082 1.4427e-16
5326.616 1.242e-16
5328.15 1.3593e-16
5329.684 1.3397e-16
5331.218 1.4857e-16
5332.751 1.4835e-16
5334.285 1.438e-16
5335.819 1.3676e-16
5337.353 1.4757e-16
5338.887 1.611e-16
5340.421 1.4479e-16
5341.955 1.46e-16
5343.489 1.3387e-16
5345.023 1.4634e-16
5346.557 1.3769e-16
5348.091 1.3004e-16
5349.625 1.1817e-16
5351.159 1.3981e-16
5352.692 1.4073e-16
5354.227 1.4525e-16
5355.76 1.5119e-16
5357.294 1.3555e-16
5358.828 1.5523e-16
5360.362 1.4857e-16
5361.896 1.4184e-16
5363.43 1.391e-16
5364.964 1.3756e-16
5366.498 1.4166e-16
5368.032 1.3741e-16
5369.566 1.637e-16
5371.1 1.5648e-16
5372.634 1.5214e-16
5374.167 1.5171e-16
5375.702 1.5557e-16
5377.235 1.5676e-16
5378.77 1.552e-16
5380.303 1.5277e-16
5381.837 1.336e-16
5383.371 1.5093e-16
5384.905 1.4612e-16
5386.439 1.5955e-16
5387.973 1.4852e-16
5389.507 1.6842e-16
5391.041 1.6074e-16
5392.575 1.3834e-16
5394.109 1.3984e-16
5395.643 1.6679e-16
5397.177 1.6722e-16
5398.71 1.3876e-16
5400.244 1.3035e-16
5401.778 1.6016e-16
5403.312 1.4733e-16
5404.846 1.4057e-16
5406.38 1.5097e-16
5407.914 1.4403e-16
5409.448 1.4111e-16
5410.982 1.4039e-16
5412.516 1.432e-16
5414.05 1.5167e-16
5415.583 1.749e-16
5417.118 1.5063e-16
5418.651 1.4272e-16
5420.186 1.4424e-16
5421.719 1.4957e-16
5423.253 1.6014e-16
5424.787 1.5955e-16
5426.321 1.6293e-16
5427.855 1.6437e-16
5429.389 1.4411e-16
5430.923 1.3843e-16
5432.457 1.7745e-16
5433.991 1.4992e-16
5435.525 1.4039e-16
5437.059 1.5405e-16
5438.593 1.7348e-16
5440.126 1.8623e-16
5441.661 1.7833e-16
5443.194 1.6344e-16
5444.729 1.5329e-16
5446.262 1.6968e-16
5447.796 1.6294e-16
5449.33 1.6131e-16
5450.864 1.7522e-16
5452.398 1.899e-16
5453.932 1.7131e-16
5455.466 1.5235e-16
5457.0 1.3945e-16
5458.534 1.5191e-16
5460.068 1.6802e-16
5461.602 1.7006e-16
5463.135 1.7905e-16
5464.669 1.6544e-16
5466.203 1.6447e-16
5467.737 1.6184e-16
5469.271 1.5414e-16
5470.805 1.6655e-16
5472.339 1.6643e-16
5473.873 1.7348e-16
5475.407 1.5778e-16
5476.941 1.6828e-16
5478.475 1.5456e-16
5480.009 1.5277e-16
5481.542 1.7872e-16
5483.077 1.9845e-16
5484.61 1.7946e-16
5486.145 1.5016e-16
5487.678 1.4039e-16
5489.212 1.4839e-16
5490.746 1.7268e-16
5492.28 1.7608e-16
5493.814 1.7074e-16
5495.348 1.6575e-16
5496.882 1.502e-16
5498.416 1.4936e-16
5499.95 1.5129e-16
5501.484 1.5769e-16
5503.018 1.5054e-16
5504.552 1.4013e-16
5506.085 1.541e-16
5507.62 1.6589e-16
5509.153 1.6248e-16
5510.688 1.5356e-16
5512.221 1.5326e-16
5513.755 1.4821e-16
5515.289 1.4925e-16
5516.823 1.5732e-16
5518.357 1.64e-16
5519.891 1.6541e-16
5521.425 1.7079e-16
5522.959 1.6438e-16
5524.493 1.5677e-16
5526.027 1.5553e-16
5527.561 1.4972e-16
5529.094 1.5748e-16
5530.628 1.637e-16
5532.162 1.576e-16
5533.696 1.6034e-16
5535.23 1.6637e-16
5536.764 1.5646e-16
5538.298 1.5412e-16
5539.832 1.5732e-16
5541.366 1.5709e-16
5542.9 1.5828e-16
5544.434 1.5672e-16
5545.968 1.6977e-16
5547.501 1.7098e-16
5549.036 1.5942e-16
5550.569 1.5986e-16
5552.104 1.708e-16
5553.637 1.8196e-16
5555.171 1.7121e-16
5556.705 1.5342e-16
5558.239 1.6352e-16
5559.773 1.7313e-16
5561.307 1.6608e-16
5562.841 1.763e-16
5564.375 1.7876e-16
5565.909 1.64e-16
5567.443 1.6323e-16
5568.977 1.6817e-16
5570.511 1.5514e-16
5572.044 1.8818e-16
5573.579 1.9239e-16
5575.112 1.8448e-16
5576.646 2.0212e-16
5578.18 1.8277e-16
5579.714 1.5808e-16
5581.248 1.7539e-16
5582.782 2.0097e-16
5584.316 1.8891e-16
5585.85 1.8142e-16
5587.384 1.7963e-16
5588.918 1.8203e-16
5590.452 1.7829e-16
5591.985 1.7762e-16
5593.52 1.7308e-16
5595.053 1.6266e-16
5596.587 1.7624e-16
5598.121 1.7761e-16
5599.655 1.6791e-16
5601.189 1.6728e-16
5602.723 1.6539e-16
5604.257 1.7013e-16
5605.791 1.7123e-16
5607.325 1.6786e-16
5608.859 1.8729e-16
5610.393 1.9719e-16
5611.927 1.8118e-16
5613.46 1.7561e-16
5614.995 1.7156e-16
5616.528 1.7233e-16
5618.062 1.6274e-16
5619.596 1.6304e-16
5621.13 1.9293e-16
5622.664 1.7647e-16
5624.198 1.5853e-16
5625.732 1.6685e-16
5627.266 1.7878e-16
5628.8 1.8445e-16
5630.334 1.7002e-16
5631.868 1.7036e-16
5633.402 1.6396e-16
5634.936 1.6967e-16
5636.47 1.7557e-16
5638.003 1.645e-16
5639.538 1.7616e-16
5641.071 1.6082e-16
5642.605 1.5602e-16
5644.139 1.5961e-16
5645.673 1.5973e-16
5647.207 1.6602e-16
5648.741 1.6795e-16
5650.275 1.6747e-16
5651.809 1.6509e-16
5653.343 1.7261e-16
5654.877 1.6733e-16
5656.411 1.7176e-16
5657.944 1.7218e-16
5659.479 1.6146e-16
5661.012 1.5909e-16
5662.546 1.5932e-16
5664.08 1.5778e-16
5665.614 1.5158e-16
5667.148 1.5653e-16
5668.682 1.4927e-16
5670.216 1.4368e-16
5671.75 1.6331e-16
5673.284 1.6697e-16
5674.818 1.6157e-16
5676.352 1.5502e-16
5677.886 1.5339e-16
5679.419 1.6244e-16
5680.954 1.6786e-16
5682.487 1.5591e-16
5684.021 1.5308e-16
5685.555 1.5961e-16
5687.089 1.5654e-16
5688.623 1.6338e-16
5690.157 1.5172e-16
5691.691 1.5691e-16
5693.225 1.5408e-16
5694.759 1.4055e-16
5696.293 1.4944e-16
5697.827 1.6058e-16
5699.361 1.6614e-16
5700.895 1.6644e-16
5702.429 1.4987e-16
5703.962 1.5748e-16
5705.497 1.7082e-16
5707.03 1.6271e-16
5708.564 1.6345e-16
5710.098 1.6585e-16
5711.632 1.6365e-16
5713.166 1.6411e-16
5714.7 1.6679e-16
5716.234 1.5848e-16
5717.768 1.5784e-16
5719.302 1.5354e-16
5720.835 1.5709e-16
5722.37 1.6569e-16
5723.903 1.6101e-16
5725.438 1.5203e-16
5726.971 1.6516e-16
5728.505 1.5902e-16
5730.039 1.5482e-16
5731.573 1.6779e-16
5733.107 1.6635e-16
5734.641 1.6255e-16
5736.175 1.5554e-16
5737.709 1.5522e-16
5739.243 1.5911e-16
5740.777 1.6236e-16
5742.311 1.4986e-16
5743.845 1.5745e-16
5745.378 1.4993e-16
5746.913 1.4259e-16
5748.446 1.3571e-16
5749.98 1.4195e-16
5751.514 1.5389e-16
5753.048 1.5606e-16
5754.582 1.4253e-16
5756.116 1.4775e-16
5757.65 1.5121e-16
5759.184 1.3506e-16
5760.718 1.3388e-16
5762.252 1.3747e-16
5763.786 1.3467e-16
5765.32 1.291e-16
5766.854 1.3829e-16
5768.388 1.4486e-16
5769.921 1.3478e-16
5771.456 1.3361e-16
5772.989 1.3559e-16
5774.523 1.339e-16
5776.057 1.4131e-16
5777.591 1.3809e-16
5779.125 1.2553e-16
5780.659 1.1552e-16
5782.193 1.2928e-16
5783.727 1.3344e-16
5785.261 1.2646e-16
5786.794 1.4122e-16
5788.329 1.5422e-16
5789.862 1.4478e-16
5791.396 1.3425e-16
5792.93 1.2807e-16
5794.464 1.301e-16
5795.998 1.3469e-16
5797.532 1.3887e-16
5799.066 1.3725e-16
5800.6 1.3236e-16
5802.134 1.2639e-16
5803.668 1.3384e-16
5805.202 1.3837e-16
5806.736 1.2836e-16
5808.27 1.2608e-16
5809.804 1.3636e-16
5811.337 1.3603e-16
5812.872 1.4154e-16
5814.405 1.4195e-16
5815.939 1.431e-16
5817.473 1.357e-16
5819.007 1.2058e-16
5820.541 1.1819e-16
5822.075 1.3763e-16
5823.609 1.417e-16
5825.143 1.3445e-16
5826.677 1.4574e-16
5828.211 1.4535e-16
5829.745 1.3745e-16
5831.279 1.348e-16
5832.812 1.3296e-16
5834.347 1.4197e-16
5835.88 1.3912e-16
5837.415 1.3519e-16
5838.948 1.4102e-16
5840.482 1.3591e-16
5842.016 1.3742e-16
5843.55 1.4141e-16
5845.084 1.3491e-16
5846.618 1.3176e-16
5848.152 1.2963e-16
5849.686 1.3759e-16
5851.22 1.4773e-16
5852.753 1.4342e-16
5854.288 1.3813e-16
5855.821 1.3803e-16
5857.355 1.3137e-16
5858.889 1.372e-16
5860.423 1.3995e-16
5861.957 1.3873e-16
5863.491 1.4207e-16
5865.025 1.4576e-16
5866.559 1.5213e-16
5868.093 1.4452e-16
5869.627 1.3953e-16
5871.161 1.378e-16
5872.695 1.3569e-16
5874.229 1.4088e-16
5875.763 1.3943e-16
5877.296 1.3204e-16
5878.831 1.46e-16
5880.364 1.4873e-16
5881.898 1.4746e-16
5883.432 1.407e-16
5884.966 1.462e-16
5886.5 1.5554e-16
5888.034 1.5023e-16
5889.568 1.4479e-16
5891.102 1.5021e-16
5892.636 1.504e-16
5894.17 1.452e-16
5895.704 1.2469e-16
5897.238 1.2458e-16
5898.771 1.2954e-16
5900.306 1.4396e-16
5901.839 1.3914e-16
5903.374 1.2752e-16
5904.907 1.3356e-16
5906.441 1.3251e-16
5907.975 1.3112e-16
5909.509 1.4463e-16
5911.043 1.4169e-16
5912.577 1.3624e-16
5914.111 1.336e-16
5915.645 1.2788e-16
5917.179 1.2111e-16
5918.712 1.2074e-16
5920.247 1.3302e-16
5921.78 1.3988e-16
5923.314 1.2588e-16
5924.848 1.2949e-16
5926.382 1.4977e-16
5927.916 1.3852e-16
5929.45 1.3079e-16
5930.984 1.2917e-16
5932.518 1.4058e-16
5934.052 1.3386e-16
5935.586 1.3242e-16
5937.12 1.2394e-16
5938.654 1.2719e-16
5940.188 1.3116e-16
5941.722 1.3745e-16
5943.255 1.2938e-16
5944.79 1.3322e-16
5946.323 1.4192e-16
5947.857 1.3246e-16
5949.391 1.3143e-16
5950.925 1.2878e-16
5952.459 1.2371e-16
5953.993 1.2823e-16
5955.527 1.2455e-16
5957.061 1.234e-16
5958.595 1.3431e-16
5960.129 1.3588e-16
5961.663 1.3226e-16
5963.197 1.234e-16
5964.73 1.2944e-16
5966.265 1.2259e-16
5967.798 1.1605e-16
5969.333 1.2507e-16
5970.866 1.29e-16
5972.4 1.1766e-16
5973.934 1.2395e-16
5975.468 1.1356e-16
5977.002 1.1427e-16
5978.536 1.1489e-16
5980.07 1.1787e-16
5981.604 1.339e-16
5983.138 1.1715e-16
5984.671 1.0868e-16
5986.206 1.1334e-16
5987.739 1.1476e-16
5989.273 1.2382e-16
5990.807 1.2219e-16
5992.341 1.1924e-16
5993.875 1.2884e-16
5995.409 1.3363e-16
5996.943 1.244e-16
5998.477 1.2073e-16
6000.011 1.2261e-16
6001.545 1.3848e-16
6003.079 1.2808e-16
6004.613 1.1951e-16
6006.146 1.183e-16
6007.681 1.1901e-16
6009.214 1.238e-16
6010.749 1.1646e-16
6012.282 1.1829e-16
6013.816 1.2275e-16
6015.35 1.2983e-16
6016.884 1.2812e-16
6018.418 1.3485e-16
6019.952 1.3405e-16
6021.486 1.2721e-16
6023.02 1.2767e-16
6024.554 1.2919e-16
6026.088 1.2627e-16
6027.622 1.265e-16
6029.156 1.2445e-16
6030.689 1.2834e-16
6032.224 1.2943e-16
6033.757 1.3138e-16
6035.292 1.2121e-16
6036.825 1.1577e-16
6038.359 1.329e-16
6039.893 1.3939e-16
6041.427 1.2457e-16
6042.961 1.3264e-16
6044.495 1.4031e-16
6046.029 1.3557e-16
6047.562 1.4327e-16
6049.097 1.3428e-16
6050.63 1.2619e-16
6052.165 1.3051e-16
6053.698 1.4104e-16
6055.232 1.4474e-16
6056.766 1.4407e-16
6058.3 1.3708e-16
6059.834 1.3344e-16
6061.368 1.311e-16
6062.902 1.3458e-16
6064.436 1.5021e-16
6065.97 1.4898e-16
6067.504 1.33e-16
6069.038 1.2617e-16
6070.572 1.2926e-16
6072.105 1.2419e-16
6073.64 1.2094e-16
6075.173 1.2823e-16
6076.708 1.3824e-16
6078.241 1.3743e-16
6079.775 1.3788e-16
6081.309 1.3285e-16
6082.843 1.3101e-16
6084.377 1.4046e-16
6085.911 1.4006e-16
6087.445 1.3444e-16
6088.979 1.3054e-16
6090.513 1.2661e-16
6092.047 1.2566e-16
6093.581 1.3257e-16
6095.115 1.3406e-16
6096.648 1.3864e-16
6098.183 1.4089e-16
6099.716 1.2619e-16
6101.25 1.1668e-16
6102.784 1.3279e-16
6104.318 1.3762e-16
6105.852 1.2979e-16
6107.386 1.3873e-16
6108.92 1.3694e-16
6110.454 1.2247e-16
6111.988 1.2569e-16
6113.521 1.3975e-16
6115.056 1.3711e-16
6116.589 1.2512e-16
6118.124 1.264e-16
6119.657 1.3183e-16
6121.191 1.2741e-16
6122.725 1.2819e-16
6124.259 1.2275e-16
6125.793 1.2546e-16
6127.327 1.3562e-16
6128.861 1.2747e-16
6130.395 1.2107e-16
6131.929 1.2888e-16
6133.463 1.2507e-16
6134.997 1.2294e-16
6136.531 1.1612e-16
6138.064 1.197e-16
6139.599 1.2979e-16
6141.132 1.2374e-16
6142.667 1.2174e-16
6144.2 1.2517e-16
6145.734 1.3367e-16
6147.268 1.313e-16
6148.802 1.2358e-16
6150.336 1.2513e-16
6151.87 1.2504e-16
6153.404 1.2605e-16
6154.938 1.2733e-16
6156.472 1.1985e-16
6158.006 1.1512e-16
6159.54 1.2056e-16
6161.074 1.3171e-16
6162.607 1.298e-16
6164.142 1.2767e-16
6165.675 1.3026e-16
6167.209 1.251e-16
6168.743 1.2362e-16
6170.277 1.2613e-16
6171.811 1.1658e-16
6173.345 1.1961e-16
6174.879 1.3545e-16
6176.413 1.3552e-16
6177.947 1.1927e-16
6179.48 1.2154e-16
6181.015 1.3134e-16
6182.548 1.2218e-16
6184.083 1.1538e-16
6185.616 1.0985e-16
6187.15 1.1608e-16
6188.684 1.1782e-16
6190.218 1.232e-16
6191.752 1.2516e-16
6193.286 1.1551e-16
6194.82 1.0756e-16
6196.354 1.2155e-16
6197.888 1.1487e-16
6199.422 1.0637e-16
6200.956 1.0987e-16
6202.49 1.0798e-16
6204.023 1.0652e-16
6205.558 1.1386e-16
6207.091 1.0983e-16
6208.625 1.0857e-16
6210.159 1.0463e-16
6211.693 1.1118e-16
6213.227 1.1515e-16
6214.761 1.1172e-16
6216.295 1.1495e-16
6217.829 1.1616e-16
6219.363 1.1068e-16
6220.897 1.0924e-16
6222.431 1.0792e-16
6223.965 1.1208e-16
6225.499 1.0825e-16
6227.033 1.0561e-16
6228.566 1.1068e-16
6230.101 1.1244e-16
6231.634 1.1183e-16
6233.168 1.0916e-16
6234.702 1.1611e-16
6236.236 1.1441e-16
6237.77 1.0275e-16
6239.304 1.1563e-16
6240.838 1.2035e-16
6242.372 1.1783e-16
6243.906 1.1847e-16
6245.439 1.1666e-16
6246.974 1.2049e-16
6248.507 1.3157e-16
6250.042 1.1753e-16
6251.575 1.192e-16
6253.109 1.2654e-16
6254.643 1.3018e-16
6256.177 1.231e-16
6257.711 1.2695e-16
6259.245 1.2146e-16
6260.779 1.2529e-16
6262.313 1.2935e-16
6263.847 1.2637e-16
6265.381 1.2477e-16
6266.915 1.2186e-16
6268.449 1.3234e-16
6269.982 1.3045e-16
6271.517 1.3442e-16
6273.05 1.4447e-16
6274.584 1.4767e-16
6276.118 1.333e-16
6277.652 1.3362e-16
6279.186 1.3604e-16
6280.72 1.2914e-16
6282.254 1.3167e-16
6283.788 1.3026e-16
6285.322 1.2342e-16
6286.856 1.2573e-16
6288.39 1.3512e-16
6289.924 1.2905e-16
6291.458 1.3568e-16
6292.992 1.3677e-16
6294.525 1.3259e-16
6296.06 1.3475e-16
6297.593 1.3907e-16
6299.127 1.4323e-16
6300.661 1.4239e-16
6302.195 1.2572e-16
6303.729 1.3083e-16
6305.263 1.4122e-16
6306.797 1.4036e-16
6308.331 1.337e-16
6309.865 1.334e-16
6311.398 1.36e-16
6312.933 1.3323e-16
6314.466 1.2733e-16
6316.0 1.3542e-16
6317.534 1.4074e-16
6319.068 1.3442e-16
6320.602 1.2896e-16
6322.136 1.3629e-16
6323.67 1.3366e-16
6325.204 1.3296e-16
6326.738 1.3588e-16
6328.272 1.3038e-16
6329.806 1.3563e-16
6331.34 1.3512e-16
6332.874 1.3964e-16
6334.408 1.3586e-16
6335.941 1.3579e-16
6337.476 1.36e-16
6339.009 1.4254e-16
6340.543 1.3379e-16
6342.077 1.2531e-16
6343.611 1.2619e-16
6345.145 1.2668e-16
6346.679 1.2683e-16
6348.213 1.2557e-16
6349.747 1.3979e-16
6351.281 1.3436e-16
6352.815 1.3209e-16
6354.349 1.2409e-16
6355.883 1.2754e-16
6357.417 1.2773e-16
6358.951 1.2657e-16
6360.484 1.3295e-16
6362.019 1.3427e-16
6363.552 1.3729e-16
6365.086 1.3791e-16
6366.62 1.3543e-16
6368.154 1.2649e-16
6369.688 1.2829e-16
6371.222 1.3473e-16
6372.756 1.3401e-16
6374.29 1.3188e-16
6375.824 1.3072e-16
6377.357 1.2706e-16
6378.892 1.3035e-16
6380.425 1.3968e-16
6381.959 1.3826e-16
6383.493 1.3426e-16
6385.027 1.2746e-16
6386.561 1.258e-16
6388.095 1.2311e-16
6389.629 1.29e-16
6391.163 1.4379e-16
6392.697 1.4294e-16
6394.231 1.3786e-16
6395.765 1.3097e-16
6397.299 1.2796e-16
6398.833 1.2879e-16
6400.367 1.341e-16
6401.9 1.3539e-16
6403.435 1.2996e-16
6404.968 1.3216e-16
6406.502 1.3578e-16
6408.036 1.4197e-16
6409.57 1.4752e-16
6411.104 1.394e-16
6412.638 1.336e-16
6414.172 1.3138e-16
6415.706 1.2567e-16
6417.24 1.229e-16
6418.774 1.2624e-16
6420.308 1.2472e-16
6421.842 1.3163e-16
6423.375 1.3166e-16
6424.91 1.3062e-16
6426.443 1.2908e-16
6427.978 1.2224e-16
6429.511 1.2922e-16
6431.045 1.3368e-16
6432.579 1.2785e-16
6434.113 1.2376e-16
6435.647 1.193e-16
6437.181 1.2939e-16
6438.715 1.4322e-16
6440.249 1.3446e-16
6441.783 1.2624e-16
6443.316 1.2301e-16
6444.851 1.2182e-16
6446.384 1.3087e-16
6447.918 1.2795e-16
6449.452 1.2366e-16
6450.986 1.3185e-16
6452.52 1.3103e-16
6454.054 1.3114e-16
6455.588 1.3028e-16
6457.122 1.251e-16
6458.656 1.2403e-16
6460.19 1.2601e-16
6461.724 1.2446e-16
6463.258 1.2607e-16
6464.792 1.2631e-16
6466.326 1.3156e-16
6467.859 1.3526e-16
6469.394 1.2322e-16
6470.927 1.2461e-16
6472.461 1.3702e-16
6473.995 1.3109e-16
6475.529 1.2262e-16
6477.063 1.1709e-16
6478.597 1.1566e-16
6480.131 1.2174e-16
6481.665 1.2292e-16
6483.199 1.1973e-16
6484.733 1.2362e-16
6486.267 1.2484e-16
6487.801 1.2212e-16
6489.334 1.301e-16
6490.869 1.3046e-16
6492.402 1.2379e-16
6493.937 1.266e-16
6495.47 1.2997e-16
6497.004 1.2519e-16
6498.538 1.2464e-16
6500.072 1.2914e-16
6501.606 1.1723e-16
6503.14 1.1041e-16
6504.674 1.2138e-16
6506.208 1.316e-16
6507.742 1.2857e-16
6509.275 1.1787e-16
6510.81 1.1968e-16
6512.343 1.2235e-16
6513.877 1.1872e-16
6515.411 1.1673e-16
6516.945 1.2043e-16
6518.479 1.2752e-16
6520.013 1.1914e-16
6521.547 1.1647e-16
6523.081 1.2146e-16
6524.615 1.2235e-16
6526.149 1.235e-16
6527.683 1.1841e-16
6529.217 1.1838e-16
6530.75 1.2178e-16
6532.285 1.2066e-16
6533.818 1.1902e-16
6535.353 1.2158e-16
6536.886 1.1939e-16
6538.42 1.1717e-16
6539.954 1.1761e-16
6541.488 1.1415e-16
6543.022 1.19e-16
6544.556 1.2534e-16
6546.09 1.2288e-16
6547.624 1.23e-16
6549.158 1.202e-16
6550.692 1.2871e-16
6552.226 1.455e-16
6553.76 1.327e-16
6555.293 1.313e-16
6556.828 1.3871e-16
6558.361 1.332e-16
6559.895 1.3024e-16
6561.429 1.4218e-16
6562.963 1.4542e-16
6564.497 1.4025e-16
6566.031 1.461e-16
6567.565 1.393e-16
6569.099 1.2291e-16
6570.633 1.2099e-16
6572.167 1.2449e-16
6573.701 1.1641e-16
6575.234 1.0963e-16
6576.769 1.0927e-16
6578.302 1.1026e-16
6579.836 1.0318e-16
6581.37 1.0924e-16
6582.904 1.2321e-16
6584.438 1.1709e-16
6585.972 1.1572e-16
6587.506 1.2428e-16
6589.04 1.2556e-16
6590.574 1.2039e-16
6592.108 1.1597e-16
6593.642 1.1386e-16
6595.176 1.1691e-16
6596.709 1.1356e-16
6598.244 1.1001e-16
6599.777 1.1056e-16
6601.312 1.0929e-16
6602.845 1.1104e-16
6604.379 1.0822e-16
6605.913 1.1727e-16
6607.447 1.236e-16
6608.981 1.2174e-16
6610.515 1.1592e-16
6612.049 1.0957e-16
6613.583 1.0645e-16
6615.117 1.1546e-16
6616.651 1.196e-16
6618.185 1.1076e-16
6619.719 1.1122e-16
6621.252 1.1469e-16
6622.787 1.1461e-16
6624.32 1.0967e-16
6625.854 1.1356e-16
6627.388 1.2167e-16
6628.922 1.2161e-16
6630.456 1.1609e-16
6631.99 1.142e-16
6633.524 1.1412e-16
6635.058 1.1142e-16
6636.592 1.1092e-16
6638.125 1.1453e-16
6639.66 1.1272e-16
6641.193 1.0415e-16
6642.728 1.102e-16
6644.261 1.1292e-16
6645.795 1.0871e-16
6647.329 1.1032e-16
6648.863 1.0974e-16
6650.397 1.1227e-16
6651.931 1.0992e-16
6653.465 1.0648e-16
6654.999 1.051e-16
6656.533 1.0621e-16
6658.067 1.1151e-16
6659.601 1.091e-16
6661.135 1.073e-16
6662.668 1.1438e-16
6664.203 1.1003e-16
6665.736 9.7784e-17
6667.271 1.0649e-16
6668.804 1.1191e-16
6670.338 1.025e-16
6671.872 1.0665e-16
6673.406 1.0431e-16
6674.94 1.0476e-16
6676.474 1.0356e-16
6678.008 9.8385e-17
6679.542 1.0322e-16
6681.076 1.0182e-16
6682.61 1.029e-16
6684.144 1.071e-16
6685.678 1.0812e-16
6687.211 1.0526e-16
6688.745 9.4937e-17
6690.279 1.0021e-16
6691.813 1.0841e-16
6693.347 1.1122e-16
6694.881 1.0588e-16
6696.415 9.4743e-17
6697.949 9.3048e-17
6699.483 9.6254e-17
6701.017 1.0573e-16
6702.551 9.5192e-17
6704.084 9.0471e-17
6705.619 9.2116e-17
6707.152 9.974e-17
6708.687 1.0235e-16
6710.22 9.8417e-17
6711.754 9.8333e-17
6713.288 9.3401e-17
6714.822 1.0032e-16
6716.356 1.0186e-16
6717.89 9.8994e-17
6719.424 9.3387e-17
6720.958 8.9375e-17
6722.492 8.7458e-17
6724.026 9.2237e-17
6725.56 9.3093e-17
6727.094 9.404e-17
6728.627 9.7971e-17
6730.162 9.3401e-17
6731.695 8.639e-17
6733.229 7.8685e-17
6734.763 8.7497e-17
6736.297 9.8499e-17
6737.831 1.0435e-16
6739.365 9.9028e-17
6740.899 1.0008e-16
6742.433 9.9687e-17
6743.967 9.3652e-17
6745.501 9.7396e-17
6747.035 1.013e-16
6748.569 9.1877e-17
6750.103 9.5483e-17
6751.637 1.0422e-16
6753.17 1.0496e-16
6754.704 1.001e-16
6756.238 9.9819e-17
6757.772 9.5981e-17
6759.306 1.0291e-16
6760.84 9.855e-17
6762.374 9.4222e-17
6763.908 9.8099e-17
6765.442 9.4318e-17
6766.976 9.4806e-17
6768.51 1.0079e-16
6770.043 9.7847e-17
6771.578 1.0191e-16
6773.111 9.9109e-17
6774.646 9.3871e-17
6776.179 9.5493e-17
6777.713 9.783e-17
6779.247 1.0213e-16
6780.781 1.0156e-16
6782.315 1.052e-16
6783.849 1.0279e-16
6785.383 9.8609e-17
6786.917 9.8951e-17
6788.451 9.9368e-17
6789.985 9.9324e-17
6791.519 1.0502e-16
6793.053 1.0457e-16
6794.586 9.9403e-17
6796.121 1.0372e-16
6797.654 1.0541e-16
6799.188 1.0404e-16
6800.722 1.0289e-16
6802.256 1.0589e-16
6803.79 1.0793e-16
6805.324 1.1082e-16
6806.858 1.0686e-16
6808.392 1.0174e-16
6809.926 1.025e-16
6811.46 9.7808e-17
6812.994 1.0357e-16
6814.528 1.1433e-16
6816.062 1.0923e-16
6817.595 1.0117e-16
6819.129 1.0055e-16
6820.663 1.04e-16
6822.197 1.0456e-16
6823.731 1.2228e-16
6825.265 1.2761e-16
6826.799 1.0536e-16
6828.333 1.0539e-16
6829.867 1.1159e-16
6831.401 1.0737e-16
6832.935 1.0263e-16
6834.469 1.1135e-16
6836.002 1.179e-16
6837.537 1.1192e-16
6839.07 1.133e-16
6840.604 1.1261e-16
6842.138 1.0968e-16
6843.672 1.0275e-16
6845.206 1.0349e-16
6846.74 1.0627e-16
6848.274 1.0028e-16
6849.808 1.0613e-16
6851.342 1.0967e-16
6852.876 1.075e-16
6854.41 1.0587e-16
6855.944 1.0194e-16
6857.478 1.0327e-16
6859.012 1.1223e-16
6860.545 1.1924e-16
6862.08 1.1434e-16
6863.613 1.0639e-16
6865.147 9.7047e-17
6866.681 9.5779e-17
6868.215 1.0245e-16
6869.749 1.0334e-16
6871.283 1.0303e-16
6872.817 9.6149e-17
6874.351 9.5924e-17
6875.885 1.0464e-16
6877.419 1.0771e-16
6878.953 1.0445e-16
6880.487 9.7785e-17
6882.021 9.7671e-17
6883.554 9.328e-17
6885.088 9.6489e-17
6886.622 1.0194e-16
6888.156 1.0107e-16
6889.69 1.0273e-16
6891.224 9.9247e-17
6892.758 9.1378e-17
6894.292 8.5417e-17
6895.826 9.1828e-17
6897.36 1.0097e-16
6898.894 9.616e-17
6900.428 9.19e-17
6901.961 9.761e-17
6903.496 9.9385e-17
6905.029 9.8906e-17
6906.563 1.0288e-16
6908.097 9.8066e-17
6909.631 8.9994e-17
6911.165 9.7434e-17
6912.699 9.3616e-17
6914.233 8.5955e-17
6915.767 9.1159e-17
6917.301 8.9526e-17
6918.835 8.8577e-17
6920.369 9.5721e-17
6921.903 9.5673e-17
6923.437 9.4218e-17
6924.971 9.0692e-17
6926.504 8.7626e-17
6928.039 8.6944e-17
6929.572 8.5851e-17
6931.106 9.6505e-17
6932.64 1.0194e-16
6934.174 9.6897e-17
6935.708 9.8152e-17
6937.242 9.2111e-17
6938.776 9.3243e-17
6940.31 9.2212e-17
6941.844 8.835e-17
6943.378 8.385e-17
6944.912 8.1115e-17
6946.445 8.9157e-17
6947.979 9.5216e-17
6949.513 9.7369e-17
6951.047 9.2632e-17
6952.581 9.332e-17
6954.115 9.417e-17
6955.649 9.1866e-17
6957.183 9.1669e-17
6958.717 9.0361e-17
6960.251 9.2359e-17
6961.785 9.0745e-17
6963.319 9.062e-17
6964.853 9.4823e-17
6966.387 9.0941e-17
6967.92 8.9114e-17
6969.455 9.1848e-17
6970.988 9.3408e-17
6972.522 8.7826e-17
6974.056 8.0236e-17
6975.59 8.9042e-17
6977.124 9.7997e-17
6978.658 9.7535e-17
6980.192 9.2911e-17
6981.726 9.0785e-17
6983.26 9.273e-17
6984.794 9.4227e-17
6986.328 9.4876e-17
6987.862 9.5911e-17
6989.396 9.9446e-17
6990.93 1.0117e-16
6992.463 9.716e-17
6993.998 9.6693e-17
6995.531 1.0477e-16
6997.065 1.0065e-16
6998.599 9.683e-17
7000.133 9.9158e-17
7001.667 1.0142e-16
7003.201 9.8239e-17
7004.735 9.1941e-17
7006.269 9.5431e-17
7007.803 9.872e-17
7009.337 1.0548e-16
7010.871 1.0417e-16
7012.404 9.8241e-17
7013.938 9.9893e-17
7015.472 1.0001e-16
7017.006 1.0143e-16
7018.54 9.8716e-17
7020.074 9.38e-17
7021.608 1.0233e-16
7023.142 1.0925e-16
7024.676 1.0895e-16
7026.21 1.0642e-16
7027.744 1.0135e-16
7029.278 9.8501e-17
7030.812 9.993e-17
7032.346 1.0508e-16
7033.879 1.0064e-16
7035.414 1.0115e-16
7036.947 1.0446e-16
7038.481 1.0491e-16
7040.015 1.0924e-16
7041.549 1.0677e-16
7043.083 1.0219e-16
7044.617 1.0385e-16
7046.151 1.0352e-16
7047.685 1.0177e-16
7049.219 9.8231e-17
7050.753 9.5631e-17
7052.287 9.899e-17
7053.821 9.9081e-17
7055.354 1.0301e-16
7056.889 1.023e-16
7058.422 1.0137e-16
7059.957 1.0421e-16
7061.49 1.0172e-16
7063.024 9.1703e-17
7064.558 9.4934e-17
7066.092 1.0632e-16
7067.626 1.0354e-16
7069.16 9.894e-17
7070.694 1.0302e-16
7072.228 1.0204e-16
7073.762 1.0286e-16
7075.295 1.0461e-16
7076.83 1.0204e-16
7078.363 1.0326e-16
7079.897 1.0208e-16
7081.431 1.0685e-16
7082.965 1.1436e-16
7084.499 1.1652e-16
7086.033 1.0736e-16
7087.567 1.0732e-16
7089.101 1.0571e-16
7090.635 1.0497e-16
7092.169 1.0748e-16
7093.703 1.0849e-16
7095.237 1.046e-16
7096.771 1.0044e-16
7098.305 9.4686e-17
7099.838 1.0161e-16
7101.373 1.1198e-16
7102.906 1.0548e-16
7104.44 1.0451e-16
7105.974 1.0905e-16
7107.508 1.1139e-16
7109.042 1.0983e-16
7110.576 1.0038e-16
7112.11 1.0721e-16
7113.644 1.1297e-16
7115.178 1.0335e-16
7116.712 1.0488e-16
7118.246 1.1544e-16
7119.78 1.1585e-16
7121.313 1.0749e-16
7122.848 1.0142e-16
7124.381 1.1263e-16
7125.916 1.2456e-16
7127.449 1.2977e-16
7128.983 1.4289e-16
7130.517 1.3675e-16
7132.051 1.2445e-16
7133.585 1.2016e-16
7135.119 1.1501e-16
7136.653 1.0652e-16
7138.187 1.0816e-16
7139.721 1.1196e-16
7141.254 1.0588e-16
7142.789 9.7308e-17
7144.322 1.036e-16
7145.856 1.1573e-16
7147.39 1.1984e-16
7148.924 1.132e-16
7150.458 1.1215e-16
7151.992 1.1205e-16
7153.526 1.1503e-16
7155.06 1.1653e-16
7156.594 1.0911e-16
7158.128 1.0023e-16
7159.662 1.0161e-16
7161.196 1.1172e-16
7162.729 1.1219e-16
7164.264 1.1849e-16
7165.797 1.1694e-16
7167.332 1.1011e-16
7168.865 1.1419e-16
7170.399 1.0005e-16
7171.933 1.0091e-16
7173.467 1.1239e-16
7175.001 1.0853e-16
7176.535 1.1055e-16
7178.069 1.0536e-16
7179.603 1.063e-16
7181.137 1.0762e-16
7182.671 1.1156e-16
7184.205 1.1876e-16
7185.739 1.0877e-16
7187.272 1.0736e-16
7188.807 1.0693e-16
7190.34 1.1259e-16
7191.875 1.0767e-16
7193.408 1.0126e-16
7194.942 1.067e-16
7196.476 1.1266e-16
7198.01 1.0835e-16
7199.544 1.0031e-16
7201.078 1.0049e-16
7202.612 1.0971e-16
7204.146 1.0658e-16
7205.68 1.0242e-16
7207.213 1.0738e-16
7208.748 1.1447e-16
7210.281 1.0956e-16
7211.815 1.006e-16
7213.349 9.8519e-17
7214.883 1.0237e-16
7216.417 1.1056e-16
7217.951 1.096e-16
7219.485 1.0304e-16
7221.019 1.0174e-16
7222.553 1.01e-16
7224.087 9.762e-17
7225.621 1.0404e-16
7227.155 1.0407e-16
7228.688 9.4447e-17
7230.223 9.9172e-17
7231.756 1.0422e-16
7233.291 1.0508e-16
7234.824 1.08e-16
7236.358 1.0804e-16
7237.892 1.0654e-16
7239.426 1.1402e-16
7240.96 1.0663e-16
7242.494 1.0126e-16
7244.028 1.0955e-16
7245.562 9.5286e-17
7247.096 9.7956e-17
7248.63 1.0829e-16
7250.164 1.0826e-16
7251.698 1.1572e-16
7253.231 1.065e-16
7254.766 9.8499e-17
7256.299 1.1004e-16
7257.833 1.0655e-16
7259.367 1.0399e-16
7260.901 9.4134e-17
7262.435 9.9576e-17
7263.969 1.0421e-16
7265.503 1.0796e-16
7267.037 1.0987e-16
7268.571 1.0433e-16
7270.104 1.0733e-16
7271.639 1.0343e-16
7273.172 9.7869e-17
7274.707 1.0449e-16
7276.24 1.0463e-16
7277.774 9.3992e-17
7279.308 9.1219e-17
7280.842 9.362e-17
7282.376 9.3062e-17
7283.91 9.1711e-17
7285.444 9.5692e-17
7286.978 1.0568e-16
7288.512 1.0268e-16
7290.046 9.7201e-17
7291.58 9.2785e-17
7293.114 9.2885e-17
7294.647 1.0633e-16
7296.182 1.0689e-16
7297.715 1.0639e-16
7299.25 1.0832e-16
7300.783 1.0258e-16
7302.317 9.9042e-17
7303.851 1.0156e-16
7305.385 9.1657e-17
7306.919 9.6309e-17
7308.453 9.8675e-17
7309.987 9.7807e-17
7311.521 1.1361e-16
7313.055 1.0121e-16
7314.589 1.0364e-16
7316.123 1.0741e-16
7317.657 1.0244e-16
7319.19 8.9061e-17
7320.725 9.3001e-17
7322.258 1.0047e-16
7323.792 9.5118e-17
7325.326 9.3676e-17
7326.86 9.0581e-17
7328.394 8.5131e-17
7329.928 9.8671e-17
7331.462 1.0363e-16
7332.996 9.7356e-17
7334.53 9.3614e-17
7336.063 9.0617e-17
7337.598 8.9243e-17
7339.131 9.3664e-17
7340.666 9.848e-17
7342.199 9.0256e-17
7343.733 9.8966e-17
7345.267 9.6098e-17
7346.801 9.3251e-17
7348.335 9.2767e-17
7349.869 9.2405e-17
7351.403 9.6605e-17
7352.937 9.6385e-17
7354.471 9.9351e-17
7356.005 1.0016e-16
7357.539 1.025e-16
7359.073 9.9672e-17
7360.606 9.0075e-17
7362.141 9.1047e-17
7363.674 9.2099e-17
7365.208 1.0233e-16
7366.742 1.0425e-16
7368.276 9.8918e-17
7369.81 9.7422e-17
7371.344 8.5773e-17
7372.878 7.7985e-17
7374.412 9.1562e-17
7375.946 9.7029e-17
7377.48 9.263e-17
7379.014 9.2742e-17
7380.548 9.4316e-17
7382.082 9.2227e-17
7383.616 8.7301e-17
7385.149 8.7802e-17
7386.684 9.35e-17
7388.217 9.2609e-17
7389.751 1.027e-16
7391.285 1.1603e-16
7392.819 9.9968e-17
7394.353 8.6915e-17
7395.887 9.2102e-17
7397.421 1.0023e-16
7398.955 9.7094e-17
7400.489 9.6286e-17
7402.022 9.4912e-17
7403.557 1.0282e-16
7405.09 9.3175e-17
7406.625 8.1105e-17
7408.158 8.6864e-17
7409.692 8.5342e-17
7411.226 8.9445e-17
7412.76 9.8708e-17
7414.294 9.12e-17
7415.828 8.3313e-17
7417.362 8.9176e-17
7418.896 8.7384e-17
7420.43 9.0128e-17
7421.964 8.9453e-17
7423.498 8.4033e-17
7425.032 8.4609e-17
7426.565 8.4592e-17
7428.1 8.6548e-17
7429.633 8.8202e-17
7431.167 9.1171e-17
7432.701 9.4069e-17
7434.235 9.1144e-17
7435.769 8.5704e-17
7437.303 8.6218e-17
7438.837 9.3188e-17
7440.371 9.02e-17
7441.905 7.9132e-17
7443.439 8.4515e-17
7444.973 9.2347e-17
7446.507 8.7383e-17
7448.041 8.5296e-17
7449.575 8.3414e-17
7451.108 8.4199e-17
7452.643 8.6479e-17
7454.176 8.6451e-17
7455.71 9.0704e-17
7457.244 9.0981e-17
7458.778 8.7166e-17
7460.312 8.7238e-17
7461.846 8.7943e-17
7463.38 8.7007e-17
7464.914 8.3992e-17
7466.448 8.244e-17
7467.981 8.2781e-17
7469.516 8.676e-17
7471.049 9.055e-17
7472.583 8.6711e-17
7474.117 9.0161e-17
7475.651 8.934e-17
7477.185 7.8713e-17
7478.719 6.9589e-17
7480.253 6.953e-17
7481.787 8.1014e-17
7483.321 8.6889e-17
7484.855 8.6422e-17
7486.389 8.9313e-17
7487.923 9.2275e-17
7489.457 8.5829e-17
7490.991 9.1129e-17
7492.524 9.2988e-17
7494.059 8.5217e-17
7495.592 9.0098e-17
7497.126 9.073e-17
7498.66 7.9519e-17
7500.194 7.8526e-17
7501.728 8.3044e-17
7503.262 7.8243e-17
7504.796 8.2596e-17
7506.33 9.1093e-17
7507.864 8.2273e-17
7509.398 8.0846e-17
7510.932 7.5916e-17
7512.466 7.2876e-17
7514.0 8.426e-17
7515.534 9.6836e-17
7517.067 9.2186e-17
7518.602 7.6287e-17
7520.135 7.924e-17
7521.669 8.9378e-17
7523.203 8.8629e-17
7524.737 8.8728e-17
7526.271 9.0175e-17
7527.805 9.1611e-17
7529.339 9.3582e-17
7530.873 9.0078e-17
7532.407 7.9958e-17
7533.94 8.5447e-17
7535.475 8.9935e-17
7537.008 8.862e-17
7538.542 8.5548e-17
7540.076 8.0544e-17
7541.61 8.1113e-17
7543.144 8.218e-17
7544.678 8.9556e-17
7546.212 9.3633e-17
7547.746 8.8452e-17
7549.28 8.8709e-17
7550.814 8.4715e-17
7552.348 8.0782e-17
7553.882 8.219e-17
7555.416 8.2133e-17
7556.95 8.4978e-17
7558.483 8.4834e-17
7560.018 8.1965e-17
7561.551 8.0735e-17
7563.085 8.6895e-17
7564.619 8.8508e-17
7566.153 8.679e-17
7567.687 8.6964e-17
7569.221 8.027e-17
7570.755 8.6848e-17
7572.289 8.9174e-17
7573.823 8.9737e-17
7575.357 8.7552e-17
7576.891 8.3067e-17
7578.425 7.7126e-17
7579.958 8.4427e-17
7581.493 9.0619e-17
7583.026 8.5981e-17
7584.561 8.9829e-17
7586.094 8.6664e-17
7587.628 9.5737e-17
7589.162 9.3647e-17
7590.696 9.7257e-17
7592.23 9.1158e-17
7593.764 8.766e-17
7595.298 1.2412e-16
7596.832 1.1813e-16
7598.366 9.4988e-17
7599.899 6.8068e-17
7601.434 6.9526e-17
7602.967 9.7766e-17
7604.501 9.5607e-17
7606.035 8.3774e-17
7607.569 7.3177e-17
7609.103 7.7067e-17
7610.637 7.5395e-17
7612.171 7.2609e-17
7613.705 9.3101e-17
7615.239 8.906e-17
7616.773 9.4923e-17
7618.307 8.9273e-17
7619.841 8.3014e-17
7621.375 7.9719e-17
7622.909 7.6135e-17
7624.442 8.6971e-17
7625.977 9.6116e-17
7627.51 8.5912e-17
7629.044 9.0273e-17
7630.578 8.5002e-17
7632.112 9.1421e-17
7633.646 1.0548e-16
7635.18 9.1488e-17
7636.714 7.6737e-17
7638.248 9.9399e-17
7639.782 9.685e-17
7641.316 8.8341e-17
7642.85 9.7434e-17
7644.384 9.5521e-17
7645.917 8.7772e-17
7647.452 9.2131e-17
7648.985 8.852e-17
7650.52 8.3617e-17
7652.053 9.0661e-17
7653.587 9.4233e-17
7655.121 9.6201e-17
7656.655 9.1281e-17
7658.189 8.7333e-17
7659.723 7.2238e-17
7661.257 7.1789e-17
7662.791 8.3471e-17
7664.325 8.4133e-17
7665.858 8.3183e-17
7667.393 7.5526e-17
7668.926 7.6496e-17
7670.46 8.5613e-17
7671.994 9.402e-17
7673.528 8.8494e-17
7675.062 8.2997e-17
7676.596 8.5125e-17
7678.13 8.4438e-17
7679.664 8.3984e-17
7681.198 8.941e-17
7682.732 8.9851e-17
7684.266 8.3629e-17
7685.8 8.4016e-17
7687.333 8.6694e-17
7688.868 8.5421e-17
7690.401 8.3159e-17
7691.936 8.5444e-17
7693.469 8.3495e-17
7695.003 8.618e-17
7696.537 9.0632e-17
7698.071 8.5e-17
7699.605 8.6745e-17
7701.139 7.9469e-17
7702.673 7.8815e-17
7704.207 8.1071e-17
7705.741 8.948e-17
7707.275 8.8761e-17
7708.809 8.4962e-17
7710.343 8.5537e-17
7711.876 8.2074e-17
7713.411 8.1188e-17
7714.944 8.2754e-17
7716.479 8.4804e-17
7718.012 8.1365e-17
7719.546 8.1416e-17
7721.08 9.0691e-17
7722.614 8.9426e-17
7724.148 8.2815e-17
7725.682 8.8229e-17
7727.216 8.8919e-17
7728.75 8.1625e-17
7730.284 8.3038e-17
7731.817 8.2511e-17
7733.352 7.8627e-17
7734.885 8.0469e-17
7736.419 8.8089e-17
7737.953 8.6913e-17
7739.487 8.0254e-17
7741.021 8.5971e-17
7742.555 9.0106e-17
7744.089 8.7515e-17
7745.623 8.7219e-17
7747.157 8.4297e-17
7748.691 8.7313e-17
7750.225 9.5552e-17
7751.759 9.5292e-17
7753.292 8.6422e-17
7754.827 8.5077e-17
7756.36 9.0517e-17
7757.895 8.1047e-17
7759.428 7.4673e-17
7760.962 8.1213e-17
7762.496 8.3382e-17
7764.03 8.2253e-17
7765.564 8.3204e-17
7767.098 7.5721e-17
7768.632 7.791e-17
7770.166 8.8202e-17
7771.7 7.9043e-17
7773.234 7.8644e-17
7774.768 8.1699e-17
7776.302 7.5985e-17
7777.835 7.9425e-17
7779.37 8.1071e-17
7780.903 7.6801e-17
7782.438 8.0168e-17
7783.971 8.1227e-17
7785.505 8.8782e-17
7787.039 8.8355e-17
7788.573 8.9117e-17
7790.107 8.7961e-17
7791.641 8.3761e-17
7793.175 1.0091e-16
7794.708 9.8266e-17
7796.243 7.6855e-17
7797.776 7.5865e-17
7799.311 8.4278e-17
7800.844 8.6515e-17
7802.378 8.4508e-17
7803.912 8.675e-17
7805.446 8.2367e-17
7806.98 9.0076e-17
7808.514 8.8802e-17
7810.048 7.4458e-17
7811.582 7.8544e-17
7813.116 7.9528e-17
7814.65 8.5148e-17
7816.184 8.7538e-17
7817.718 7.9328e-17
7819.251 8.7452e-17
7820.786 9.8849e-17
7822.319 8.9177e-17
7823.854 8.5351e-17
7825.387 8.014e-17
7826.921 8.1507e-17
7828.455 8.7235e-17
7829.989 8.6259e-17
7831.523 8.2166e-17
7833.057 7.4596e-17
7834.591 7.6675e-17
7836.125 8.32e-17
7837.659 8.2157e-17
7839.193 8.4614e-17
7840.727 7.9729e-17
7842.261 8.0078e-17
7843.794 7.716e-17
7845.329 8.3271e-17
7846.862 7.756e-17
7848.396 7.9145e-17
7849.93 8.2131e-17
7851.464 8.0923e-17
7852.998 7.603e-17
7854.532 7.9948e-17
7856.066 8.57e-17
7857.6 8.001e-17
7859.134 6.9208e-17
7860.667 7.7387e-17
7862.202 8.5284e-17
7863.735 7.9957e-17
7865.27 7.6908e-17
7866.803 7.928e-17
7868.337 8.1159e-17
7869.871 8.183e-17
7871.405 8.0797e-17
7872.939 7.4705e-17
7874.473 7.5818e-17
7876.007 7.0156e-17
7877.541 6.7047e-17
7879.075 8.0484e-17
7880.609 8.9182e-17
7882.143 8.3791e-17
7883.677 8.5215e-17
7885.21 8.4098e-17
7886.745 7.1721e-17
7888.278 7.6088e-17
7889.812 7.8915e-17
7891.346 7.868e-17
7892.88 7.6399e-17
7894.414 7.3449e-17
7895.948 7.4517e-17
7897.482 7.5915e-17
7899.016 7.7867e-17
7900.55 8.5699e-17
7902.084 8.6886e-17
7903.618 7.4609e-17
7905.152 7.6245e-17
7906.686 7.8221e-17
7908.22 8.151e-17
7909.753 8.4265e-17
7911.288 9.2624e-17
7912.821 7.8122e-17
7914.355 6.5821e-17
7915.889 7.9861e-17
7917.423 9.5376e-17
7918.957 8.7865e-17
7920.491 8.7074e-17
7922.025 7.9289e-17
7923.559 7.8926e-17
7925.093 7.143e-17
7926.626 7.5465e-17
7928.161 7.8823e-17
7929.694 7.8172e-17
7931.229 7.857e-17
7932.762 7.7817e-17
7934.296 6.7511e-17
7935.83 7.0363e-17
7937.364 7.1506e-17
7938.898 7.6555e-17
7940.432 7.7145e-17
7941.966 7.8903e-17
7943.5 7.3967e-17
7945.034 7.3594e-17
7946.568 7.5987e-17
7948.102 6.9773e-17
7949.636 6.3106e-17
7951.169 7.3297e-17
7952.704 7.4129e-17
7954.237 7.691e-17
7955.771 7.9217e-17
7957.305 8.1613e-17
7958.839 7.8371e-17
7960.373 7.5618e-17
7961.907 8.7641e-17
7963.441 8.458e-17
7964.975 7.1903e-17
7966.509 7.845e-17
7968.043 8.1103e-17
7969.577 7.4684e-17
7971.111 7.7884e-17
7972.645 7.5406e-17
7974.179 6.999e-17
7975.712 6.602e-17
7977.246 7.4052e-17
7978.78 8.2862e-17
7980.314 7.5125e-17
7981.848 7.019e-17
7983.382 7.7439e-17
7984.916 8.0569e-17
7986.45 7.4691e-17
7987.984 7.7803e-17
7989.518 8.3455e-17
7991.052 7.2745e-17
7992.585 7.432e-17
7994.12 7.8974e-17
7995.653 7.2853e-17
7997.188 7.4825e-17
7998.721 7.736e-17
8000.255 7.6249e-17
8001.789 7.4213e-17
8003.323 7.4101e-17
8004.857 7.5026e-17
8006.391 7.417e-17
8007.925 6.9914e-17
8009.459 7.3288e-17
8010.993 8.1223e-17
8012.527 7.7697e-17
8014.061 7.9125e-17
8015.595 8.3733e-17
8017.128 7.9417e-17
8018.663 7.3106e-17
8020.196 7.3012e-17
8021.73 7.6016e-17
8023.264 7.4012e-17
8024.798 7.6123e-17
8026.332 7.3839e-17
8027.866 6.6725e-17
8029.4 6.8221e-17
8030.934 7.4137e-17
8032.468 7.2371e-17
8034.002 7.4534e-17
8035.536 8.1588e-17
8037.07 7.8498e-17
8038.604 7.3144e-17
8040.138 6.8523e-17
8041.671 6.8838e-17
8043.205 6.4172e-17
8044.739 6.9624e-17
8046.273 7.6773e-17
8047.807 7.7364e-17
8049.341 7.3946e-17
8050.875 6.9963e-17
8052.409 6.9369e-17
8053.943 6.7345e-17
8055.477 6.28e-17
8057.011 6.7872e-17
8058.544 6.3087e-17
8060.079 6.8613e-17
8061.612 8.0184e-17
8063.146 7.9638e-17
8064.68 7.1643e-17
8066.214 6.7417e-17
8067.748 6.642e-17
8069.282 6.6511e-17
8070.816 6.9959e-17
8072.35 6.7534e-17
8073.884 6.4174e-17
8075.418 6.9146e-17
8076.952 7.6229e-17
8078.486 7.1716e-17
8080.02 6.7317e-17
8081.554 6.5821e-17
8083.087 6.6221e-17
8084.622 6.5436e-17
8086.155 6.8235e-17
8087.689 6.9909e-17
8089.223 6.9498e-17
8090.757 7.3168e-17
8092.291 7.2681e-17
8093.825 7.7944e-17
8095.359 7.4895e-17
8096.893 6.8605e-17
8098.427 6.3521e-17
8099.961 6.6599e-17
8101.495 7.1163e-17
8103.029 6.3084e-17
8104.562 6.1093e-17
8106.096 6.032e-17
8107.63 6.4812e-17
8109.164 6.5494e-17
8110.698 6.55e-17
8112.232 6.7887e-17
8113.766 6.5094e-17
8115.3 6.7516e-17
8116.834 6.7285e-17
8118.368 6.1693e-17
8119.902 6.0379e-17
8121.436 5.9594e-17
8122.97 6.724e-17
8124.503 6.8003e-17
8126.038 7.4037e-17
8127.571 7.2241e-17
8129.105 7.1521e-17
8130.639 7.5819e-17
8132.173 6.4041e-17
8133.707 5.9792e-17
8135.241 6.5629e-17
8136.775 6.7768e-17
8138.309 6.0429e-17
8139.843 6.0634e-17
8141.377 6.242e-17
8142.911 6.8974e-17
8144.445 6.6383e-17
8145.979 6.6381e-17
8147.513 6.4811e-17
8149.046 6.4732e-17
8150.581 6.3552e-17
8152.114 6.0143e-17
8153.648 6.01e-17
8155.182 5.9877e-17
8156.716 6.6679e-17
8158.25 6.8605e-17
8159.784 7.8508e-17
8161.318 6.877e-17
8162.852 5.653e-17
8164.386 5.5931e-17
8165.92 5.9486e-17
8167.454 6.24e-17
8168.988 6.0825e-17
8170.521 6.057e-17
8172.055 6.3293e-17
8173.589 6.6705e-17
8175.123 6.1738e-17
8176.657 5.6326e-17
8178.191 6.6055e-17
8179.725 6.0053e-17
8181.259 5.4652e-17
8182.793 5.5927e-17
8184.327 6.0196e-17
8185.861 6.6387e-17
8187.395 6.0629e-17
8188.929 5.9332e-17
8190.462 6.3085e-17
8191.997 7.3833e-17
8193.53 6.4913e-17
8195.064 5.9008e-17
8196.599 6.7518e-17
8198.132 6.193e-17
8199.666 6.0436e-17
8201.2 5.465e-17
8202.734 5.6272e-17
8204.268 6.0017e-17
8205.802 5.772e-17
8207.336 5.2904e-17
8208.87 5.0525e-17
8210.403 5.4933e-17
8211.938 6.0666e-17
8213.472 6.2784e-17
8215.006 5.6564e-17
8216.539 5.5908e-17
8218.073 5.9654e-17
8219.607 5.976e-17
8221.142 6.5024e-17
8222.675 6.7947e-17
8224.209 6.0247e-17
8225.743 5.2254e-17
8227.277 5.5247e-17
8228.811 5.5538e-17
8230.345 5.6956e-17
8231.879 6.0844e-17
8233.413 5.4706e-17
8234.946 5.4696e-17
8236.48 5.175e-17
8238.015 4.9433e-17
8239.548 5.4448e-17
8241.082 5.297e-17
8242.616 5.5279e-17
8244.15 6.2187e-17
8245.684 5.6128e-17
8247.218 5.1479e-17
8248.752 5.7599e-17
8250.286 5.7569e-17
8251.819 5.3332e-17
8253.354 5.0622e-17
8254.888 5.35e-17
8256.422 5.7408e-17
8257.955 5.567e-17
8259.489 5.6556e-17
8261.023 5.8124e-17
8262.558 5.7825e-17
8264.091 5.2999e-17
8265.625 5.6479e-17
8267.159 5.7475e-17
8268.693 5.5699e-17
8270.227 5.694e-17
8271.761 5.743e-17
8273.295 5.6217e-17
8274.829 5.2332e-17
8276.362 5.8208e-17
8277.896 6.3059e-17
8279.431 6.5016e-17
8280.965 4.8679e-17
8282.498 4.598e-17
8284.032 4.983e-17
8285.566 6.3452e-17
8287.101 7.2767e-17
8288.634 5.831e-17
8290.168 4.8037e-17
8291.702 6.0678e-17
8293.236 6.9873e-17
8294.77 5.7654e-17
8296.304 5.3752e-17
8297.838 5.8649e-17
8299.371 5.8223e-17
8300.905 5.7054e-17
8302.439 6.302e-17
8303.974 6.3423e-17
8305.507 6.1853e-17
8307.041 5.8306e-17
8308.575 5.3958e-17
8310.109 5.3744e-17
8311.643 6.4251e-17
8313.177 6.108e-17
8314.711 5.8288e-17
8316.245 5.9192e-17
8317.778 6.2089e-17
8319.312 5.4958e-17
8320.847 5.5644e-17
8322.381 6.116e-17
8323.914 6.0576e-17
8325.448 5.6525e-17
8326.982 6.5368e-17
8328.517 7.1907e-17
8330.05 5.9047e-17
8331.584 5.9678e-17
8333.118 6.6405e-17
8334.652 5.655e-17
8336.186 5.4599e-17
8337.72 5.9043e-17
8339.254 6.2627e-17
8340.788 7.056e-17
8342.321 6.8019e-17
8343.855 6.9384e-17
8345.39 5.5642e-17
8346.924 4.5057e-17
8348.457 6.2179e-17
8349.991 6.987e-17
8351.525 5.9641e-17
8353.06 5.8142e-17
8354.593 5.5984e-17
8356.127 6.0751e-17
8357.661 6.0954e-17
8359.195 6.7359e-17
8360.729 5.9636e-17
8362.263 6.3398e-17
8363.797 6.5635e-17
8365.33 6.0307e-17
8366.864 6.1421e-17
8368.398 6.1897e-17
8369.933 5.9225e-17
8371.466 6.04e-17
8373.0 6.6709e-17
8374.534 7.185e-17
8376.068 5.8558e-17
8377.602 5.7043e-17
8379.136 7.1899e-17
8380.67 6.6038e-17
8382.204 6.3181e-17
8383.737 6.0864e-17
8385.271 5.7695e-17
8386.806 6.2279e-17
8388.34 6.7072e-17
8389.873 6.884e-17
8391.407 6.0898e-17
8392.941 5.8748e-17
8394.476 6.3449e-17
8396.009 6.1267e-17
8397.543 5.4972e-17
8399.077 5.4917e-17
8400.611 5.9021e-17
8402.145 5.3129e-17
8403.679 5.6476e-17
8405.213 6.5547e-17
8406.747 6.452e-17
8408.28 6.0998e-17
8409.814 6.1443e-17
8411.349 6.7308e-17
8412.883 7.1449e-17
8414.416 6.8518e-17
8415.95 5.9966e-17
8417.484 5.2604e-17
8419.019 6.1301e-17
8420.552 7.2333e-17
8422.086 7.0487e-17
8423.62 6.8722e-17
8425.154 7.1484e-17
8426.688 6.6813e-17
8428.222 6.7852e-17
8429.756 6.9893e-17
8431.289 5.4356e-17
8432.823 5.1716e-17
8434.357 6.3898e-17
8435.892 6.3401e-17
8437.425 6.2489e-17
8438.959 6.6974e-17
8440.493 5.6803e-17
8442.027 6.0315e-17
8443.561 6.933e-17
8445.095 6.0716e-17
8446.629 5.7493e-17
8448.163 6.0458e-17
8449.696 5.9711e-17
8451.23 5.9248e-17
8452.765 5.7918e-17
8454.299 5.9136e-17
8455.832 6.2148e-17
8457.366 6.3894e-17
8458.9 6.0159e-17
8460.435 5.861e-17
8461.968 5.41e-17
8463.502 6.0675e-17
8465.036 7.0349e-17
8466.57 5.5767e-17
8468.104 4.8832e-17
8469.638 5.2617e-17
8471.172 6.4861e-17
8472.706 6.2317e-17
8474.239 5.1886e-17
8475.773 5.5644e-17
8477.308 5.7057e-17
8478.842 6.0009e-17
8480.375 6.8276e-17
8481.909 6.1009e-17
8483.443 5.1486e-17
8484.978 5.589e-17
8486.511 6.3234e-17
8488.045 6.4778e-17
8489.579 7.012e-17
8491.113 5.5948e-17
8492.646 5.823e-17
8494.181 6.2201e-17
8495.715 5.663e-17
8497.248 6.2622e-17
8498.782 5.8562e-17
8500.316 5.9476e-17
8501.851 6.7991e-17
8503.384 7.0102e-17
8504.918 7.3487e-17
8506.452 6.5096e-17
8507.986 6.8074e-17
8509.52 6.4821e-17
8511.054 6.1072e-17
8512.588 5.9621e-17
8514.122 6.6027e-17
8515.655 6.7003e-17
8517.189 5.5992e-17
8518.724 5.5191e-17
8520.258 6.391e-17
8521.791 6.1491e-17
8523.325 5.9395e-17
8524.859 6.4911e-17
8526.394 5.8888e-17
8527.927 5.2691e-17
8529.461 5.6475e-17
8530.995 5.8352e-17
8532.529 5.4557e-17
8534.062 5.9394e-17
8535.597 6.0147e-17
8537.131 5.801e-17
8538.665 6.5365e-17
8540.198 6.6097e-17
8541.732 5.9163e-17
8543.267 5.4241e-17
8544.801 5.5451e-17
8546.334 6.1861e-17
8547.868 6.1148e-17
8549.402 6.4284e-17
8550.937 6.25e-17
8552.47 6.0086e-17
8554.004 5.5915e-17
8555.538 5.5182e-17
8557.071 5.8696e-17
8558.605 6.298e-17
8560.14 6.1504e-17
8561.674 5.9016e-17
8563.207 4.9879e-17
8564.741 5.132e-17
8566.275 5.4106e-17
8567.81 5.2141e-17
8569.343 5.6903e-17
8570.877 5.7148e-17
8572.411 6.0894e-17
8573.945 6.3718e-17
8575.479 6.0303e-17
8577.013 5.4783e-17
8578.547 5.9058e-17
8580.081 6.285e-17
8581.614 5.5933e-17
8583.148 5.3939e-17
8584.683 5.4778e-17
8586.217 5.5858e-17
8587.75 5.8354e-17
8589.284 4.8761e-17
8590.818 4.9552e-17
8592.353 6.0352e-17
8593.886 6.6079e-17
8595.42 6.8141e-17
8596.954 5.9944e-17
8598.488 5.1895e-17
8600.021 5.1698e-17
8601.556 5.5868e-17
8603.09 6.0455e-17
8604.624 5.8447e-17
8606.157 5.3948e-17
8607.691 5.6185e-17
8609.226 5.4523e-17
8610.76 4.846e-17
8612.293 5.225e-17
8613.827 6.0812e-17
8615.361 5.977e-17
8616.896 6.0143e-17
8618.429 6.6866e-17
8619.963 6.0109e-17
8621.497 5.1405e-17
8623.03 5.6827e-17
8624.564 5.4157e-17
8626.099 5.1505e-17
8627.633 5.6877e-17
8629.166 5.7268e-17
8630.7 6.4886e-17
8632.234 6.5222e-17
8633.769 5.6111e-17
8635.302 5.4046e-17
8636.836 5.6844e-17
8638.37 5.561e-17
8639.904 6.0131e-17
8641.438 6.3728e-17
8642.972 5.866e-17
8644.506 5.7108e-17
8646.04 5.935e-17
8647.573 5.6464e-17
8649.107 5.6133e-17
8650.642 6.0618e-17
8652.176 6.2408e-17
8653.709 5.3818e-17
8655.243 4.7061e-17
8656.777 4.9979e-17
8658.312 5.6517e-17
8659.845 5.8435e-17
8661.379 6.7638e-17
8662.913 6.5944e-17
8664.447 5.576e-17
8665.98 5.675e-17
8667.515 5.5645e-17
8669.049 5.2833e-17
8670.583 5.3018e-17
8672.116 4.3883e-17
8673.65 4.3226e-17
8675.185 5.3194e-17
8676.719 6.2697e-17
8678.252 5.9105e-17
8679.786 5.2963e-17
8681.32 5.7739e-17
8682.854 5.8518e-17
8684.388 6.725e-17
8685.922 6.0057e-17
8687.456 5.5703e-17
8688.989 5.7079e-17
8690.523 5.1787e-17
8692.058 4.3004e-17
8693.592 5.2371e-17
8695.125 6.0165e-17
8696.659 5.9632e-17
8698.193 5.2818e-17
8699.728 5.013e-17
8701.261 5.7016e-17
8702.795 6.1323e-17
8704.329 6.2249e-17
8705.863 5.623e-17
8707.396 5.2279e-17
8708.931 5.5056e-17
8710.465 5.5583e-17
8711.999 4.716e-17
8713.532 5.3985e-17
8715.066 5.8503e-17
8716.601 5.9328e-17
8718.135 5.836e-17
8719.668 5.2783e-17
8721.202 4.903e-17
8722.736 5.2816e-17
8724.271 5.1175e-17
8725.804 4.7559e-17
8727.338 5.226e-17
8728.872 5.7977e-17
8730.406 5.7529e-17
8731.939 5.4555e-17
8733.474 5.8651e-17
8735.008 5.7741e-17
8736.542 5.7987e-17
8738.075 6.0426e-17
8739.609 5.8571e-17
8741.144 5.1259e-17
8742.678 4.7811e-17
8744.211 5.3561e-17
8745.745 5.5622e-17
8747.279 6.3038e-17
8748.813 6.3187e-17
8750.347 5.9097e-17
8751.881 5.5926e-17
8753.415 5.7554e-17
8754.948 5.7712e-17
8756.482 5.0874e-17
8758.017 4.9675e-17
8759.551 5.8074e-17
8761.084 5.6813e-17
8762.618 5.0149e-17
8764.152 5.2842e-17
8765.687 6.1501e-17
8767.22 5.9474e-17
8768.754 5.6967e-17
8770.288 5.2133e-17
8771.822 4.4546e-17
8773.355 5.3856e-17
8774.89 6.3716e-17
8776.424 5.7934e-17
8777.958 5.7064e-17
8779.491 5.051e-17
8781.025 4.7862e-17
8782.56 5.2703e-17
8784.094 5.2764e-17
8785.627 4.7947e-17
8787.161 5.1309e-17
8788.695 5.87e-17
8790.229 5.4399e-17
8791.763 5.6484e-17
8793.297 5.717e-17
8794.831 4.9905e-17
8796.365 5.1972e-17
8797.898 5.3218e-17
8799.433 5.251e-17
8800.967 5.2553e-17
8802.501 4.9273e-17
8804.034 5.2308e-17
8805.568 5.3063e-17
8807.103 5.1613e-17
8808.637 5.3783e-17
8810.17 5.5624e-17
8811.704 5.7172e-17
8813.238 5.1833e-17
8814.772 4.8747e-17
8816.306 5.221e-17
8817.84 5.4564e-17
8819.374 5.3481e-17
8820.907 5.4439e-17
8822.441 6.2999e-17
8823.976 7.0566e-17
8825.51 6.0042e-17
8827.043 5.5909e-17
8828.577 5.7946e-17
8830.111 4.6628e-17
8831.646 5.0888e-17
8833.179 5.3447e-17
8834.713 5.583e-17
8836.247 5.0157e-17
8837.781 5.0174e-17
8839.314 5.0933e-17
8840.849 5.0232e-17
8842.383 5.7352e-17
8843.917 5.98e-17
8845.45 5.8697e-17
8846.984 5.8123e-17
8848.519 5.6076e-17
8850.053 5.7703e-17
8851.586 5.3904e-17
8853.12 4.8396e-17
8854.654 4.5613e-17
8856.188 5.2401e-17
8857.722 5.129e-17
8859.256 5.8229e-17
8860.79 5.9442e-17
8862.324 5.6393e-17
8863.857 5.305e-17
8865.392 5.026e-17
8866.926 5.5591e-17
8868.46 4.4544e-17
8869.993 4.4352e-17
8871.527 5.5057e-17
8873.062 5.508e-17
8874.596 5.8202e-17
8876.129 5.1641e-17
8877.663 5.1519e-17
8879.197 4.9903e-17
8880.73 4.2567e-17
8882.265 5.5294e-17
8883.799 7.1228e-17
8885.333 5.1945e-17
8886.866 3.9693e-17
8888.4 5.6191e-17
8889.935 5.6903e-17
8891.469 5.2296e-17
8893.002 4.719e-17
8894.536 4.9618e-17
8896.07 5.3371e-17
8897.604 5.1489e-17
8899.138 5.4338e-17
8900.672 5.7801e-17
8902.206 5.7868e-17
8903.74 6.5769e-17
8905.273 5.7213e-17
8906.808 5.4412e-17
8908.342 5.3122e-17
8909.876 5.6303e-17
8911.409 4.6854e-17
8912.943 4.6144e-17
8914.478 4.5812e-17
8916.012 5.3444e-17
8917.545 3.9932e-17
8919.079 5.6908e-17
8920.613 5.2667e-17
8922.147 5.1614e-17
8923.681 5.423e-17
8925.215 5.1643e-17
8926.749 5.3066e-17
8928.283 4.8822e-17
8929.816 4.9812e-17
8931.351 4.7393e-17
8932.885 4.6434e-17
8934.419 5.1705e-17
8935.952 5.428e-17
8937.486 4.896e-17
8939.021 4.8963e-17
8940.555 5.0453e-17
8942.088 5.7861e-17
8943.622 6.1312e-17
8945.156 5.3793e-17
8946.689 4.7079e-17
8948.224 4.436e-17
8949.758 4.8081e-17
8951.292 4.6496e-17
8952.825 5.2342e-17
8954.359 4.8835e-17
8955.894 5.0797e-17
8957.428 7.3594e-17
8958.961 6.0579e-17
8960.495 3.7302e-17
8962.029 4.0574e-17
8963.563 4.4896e-17
8965.097 4.9673e-17
8966.631 5.0587e-17
8968.165 4.6914e-17
8969.699 5.0152e-17
8971.232 4.9885e-17
8972.767 4.4728e-17
8974.301 4.5672e-17
8975.835 5.1749e-17
8977.368 5.4756e-17
8978.902 4.7664e-17
8980.437 4.2575e-17
8981.971 3.7181e-17
8983.504 4.5002e-17
8985.038 5.3492e-17
8986.572 5.003e-17
8988.106 4.8391e-17
8989.64 4.0165e-17
8991.174 3.715e-17
8992.708 4.3792e-17
8994.242 4.7309e-17
8995.775 4.872e-17
8997.31 5.7852e-17
8998.844 6.1029e-17
9000.378 5.7207e-17
9001.911 4.537e-17
9003.445 4.1933e-17
9004.979 4.5584e-17
9006.514 4.4627e-17
9008.047 4.3207e-17
9009.581 3.8656e-17
9011.115 4.476e-17
9012.648 4.7318e-17
9014.183 4.5524e-17
9015.717 4.3849e-17
9017.251 4.4035e-17
9018.784 3.713e-17
9020.318 3.1236e-17
9021.853 3.3412e-17
9023.387 3.7535e-17
9024.92 3.8353e-17
9026.454 4.0171e-17
9027.988 4.4354e-17
9029.522 3.8281e-17
9031.056 3.6977e-17
9032.59 4.1743e-17
9034.124 3.8677e-17
9035.658 3.4863e-17
9037.191 3.8139e-17
9038.726 4.0774e-17
9040.26 3.8044e-17
9041.794 3.6432e-17
9043.327 3.5667e-17
9044.861 4.0161e-17
9046.396 4.7403e-17
9047.93 4.1899e-17
9049.463 3.7847e-17
9050.997 2.7805e-17
9052.531 3.7621e-17
9054.065 4.2406e-17
9055.599 3.6049e-17
9057.133 3.6857e-17
9058.667 4.4626e-17
9060.201 3.9518e-17
9061.734 3.7374e-17
9063.269 3.9043e-17
9064.803 3.7822e-17
9066.337 3.7674e-17
9067.87 4.154e-17
9069.404 3.921e-17
9070.938 3.5339e-17
9072.473 3.0585e-17
9074.006 3.6225e-17
9075.54 3.7055e-17
9077.074 3.8339e-17
9078.607 3.6832e-17
9080.142 4.3083e-17
9081.676 4.1082e-17
9083.21 3.4077e-17
9084.743 4.6945e-17
9086.277 4.9394e-17
9087.812 3.7893e-17
9089.346 3.67e-17
9090.879 3.6435e-17
9092.413 4.4299e-17
9093.947 4.267e-17
9095.481 4.0009e-17
9097.015 4.4224e-17
9098.549 4.2123e-17
9100.083 4.3037e-17
9101.617 4.4345e-17
9103.15 4.1986e-17
9104.685 3.8892e-17
9106.219 4.4484e-17
9107.753 4.1322e-17
9109.286 4.1953e-17
9110.82 4.4427e-17
9112.354 4.2903e-17
9113.889 4.6373e-17
9115.422 4.6605e-17
9116.956 4.236e-17
9118.49 4.1915e-17
9120.024 4.2806e-17
9121.558 4.4926e-17
9123.092 4.8483e-17
9124.626 4.6977e-17
9126.16 4.5395e-17
9127.693 4.2968e-17
9129.228 4.8745e-17
9130.762 5.1795e-17
9132.296 4.7535e-17
9133.829 4.498e-17
9135.363 4.142e-17
9136.897 3.6831e-17
9138.431 4.3851e-17
9139.965 4.1122e-17
9141.499 3.9725e-17
9143.033 3.9373e-17
9144.566 4.0779e-17
9146.101 4.4438e-17
9147.635 3.6405e-17
9149.169 3.4638e-17
9150.702 4.4155e-17
9152.236 5.3875e-17
9153.771 4.8755e-17
9155.305 4.1825e-17
9156.838 4.0293e-17
9158.372 3.9747e-17
9159.906 4.4371e-17
9161.44 4.5689e-17
9162.974 3.8377e-17
9164.508 3.8142e-17
9166.042 4.4779e-17
9167.576 4.432e-17
9169.109 3.9007e-17
9170.644 3.6569e-17
9172.178 3.8077e-17
9173.712 4.2485e-17
9175.245 4.3734e-17
9176.779 4.5652e-17
9178.313 4.7697e-17
9179.848 4.608e-17
9181.381 4.4158e-17
9182.915 4.2363e-17
9184.449 4.3482e-17
9185.983 4.4947e-17
9187.517 4.7476e-17
9189.051 4.8122e-17
9190.585 4.6128e-17
9192.119 4.9588e-17
9193.652 4.8455e-17
9195.187 3.6814e-17
9196.721 3.3752e-17
9198.255 3.6292e-17
9199.788 4.3535e-17
9201.322 4.4145e-17
9202.856 4.2178e-17
9204.39 4.1241e-17
9205.924 4.0338e-17
9207.458 4.4709e-17
9208.992 4.4067e-17
9210.525 4.5529e-17
9212.06 4.1304e-17
9213.594 4.2375e-17
9215.128 4.9593e-17
9216.661 4.749e-17
9218.195 4.6101e-17
9219.729 4.7944e-17
9221.264 4.1486e-17
9222.797 4.7215e-17
9224.331 4.4012e-17
9225.865 4.4346e-17
9227.399 4.0864e-17
9228.933 4.5666e-17
9230.467 4.8289e-17
9232.001 5.1995e-17
9233.535 4.2691e-17
9235.068 3.6681e-17
9236.603 4.0916e-17
9238.137 4.6446e-17
9239.671 4.331e-17
9241.204 4.1467e-17
9242.738 4.5587e-17
9244.272 4.7349e-17
9245.807 4.4091e-17
9247.34 4.4911e-17
9248.874 4.3666e-17
9250.408 4.4219e-17
9251.942 5.2532e-17
9253.476 4.2992e-17
9255.01 4.4223e-17
9256.544 4.8677e-17
9258.078 5.3565e-17
9259.611 4.5927e-17
9261.146 4.0793e-17
9262.68 4.5035e-17
9264.214 4.522e-17
9265.747 3.9395e-17
9267.281 5.0666e-17
9268.815 4.9912e-17
9270.349 4.6368e-17
9271.883 4.9876e-17
9273.417 5.0971e-17
9274.951 4.5375e-17
9276.484 4.4357e-17
9278.019 4.8897e-17
9279.553 5.2574e-17
9281.087 4.7069e-17
9282.62 4.41e-17
9284.154 3.5117e-17
9285.688 3.885e-17
9287.223 4.0627e-17
9288.756 4.7163e-17
9290.29 4.6919e-17
9291.824 5.2003e-17
9293.358 4.327e-17
9294.892 4.4803e-17
9296.426 5.4426e-17
9297.96 4.3899e-17
9299.494 3.7555e-17
9301.027 3.988e-17
9302.562 5.4296e-17
9304.096 4.986e-17
9305.63 2.4329e-17
9307.163 3.8497e-17
9308.697 6.2711e-17
9310.231 5.445e-17
9311.766 5.5729e-17
9313.299 5.9709e-17
9314.833 4.6438e-17
9316.367 4.2466e-17
9317.901 4.1478e-17
9319.435 4.0739e-17
9320.969 6.0908e-17
9322.503 6.3985e-17
9324.037 5.1013e-17
9325.57 4.14e-17
9327.104 4.5101e-17
9328.639 4.7477e-17
9330.173 4.9778e-17
9331.706 4.5868e-17
9333.24 4.1626e-17
9334.774 3.9331e-17
9336.308 3.9141e-17
9337.842 3.708e-17
9339.376 3.95e-17
9340.91 3.6504e-17
9342.443 3.5365e-17
9343.978 5.8693e-17
9345.512 6.2456e-17
9347.046 5.349e-17
9348.579 4.9116e-17
9350.113 4.3115e-17
9351.647 4.1207e-17
9353.182 5.4282e-17
9354.715 5.7757e-17
9356.249 4.514e-17
9357.783 4.6618e-17
9359.317 4.0219e-17
9360.851 3.5617e-17
9362.385 4.4539e-17
9363.919 4.6781e-17
9365.453 4.5578e-17
9366.986 4.7461e-17
9368.521 4.1839e-17
9370.055 4.0055e-17
9371.589 4.5653e-17
9373.122 4.9838e-17
9374.656 6.234e-17
9376.19 5.9985e-17
9377.725 4.0528e-17
9379.258 1.4971e-17
9380.792 1.6506e-17
9382.326 3.0392e-17
9383.86 3.9584e-17
9385.394 4.1727e-17
9386.928 4.1366e-17
9388.462 3.4731e-17
9389.996 3.4459e-17
9391.529 3.2312e-17
9393.063 3.1731e-17
9394.598 3.1519e-17
9396.131 3.2369e-17
9397.665 3.8204e-17
9399.199 4.5255e-17
9400.733 4.0388e-17
9402.267 4.0702e-17
9403.801 4.1636e-17
9405.335 3.8944e-17
9406.869 4.5127e-17
9408.402 4.0378e-17
9409.937 3.4983e-17
9411.471 3.5669e-17
9413.005 2.9119e-17
9414.538 2.138e-17
9416.072 2.993e-17
9417.606 3.7662e-17
9419.141 4.1658e-17
9420.674 4.6174e-17
9422.208 3.6599e-17
9423.742 3.4291e-17
9425.276 3.5052e-17
9426.81 4.3668e-17
9428.344 3.4838e-17
9429.878 2.9535e-17
9431.412 2.7994e-17
9432.945 2.9378e-17
9434.479 2.7161e-17
9436.014 4.1891e-17
9437.548 5.4211e-17
9439.081 4.2357e-17
9440.615 2.0322e-17
9442.149 2.2975e-17
9443.684 3.123e-17
9445.217 3.2854e-17
9446.751 3.6749e-17
9448.285 3.075e-17
9449.819 3.1254e-17
9451.353 3.7166e-17
9452.887 3.7573e-17
9454.421 4.0764e-17
9455.955 4.4321e-17
9457.488 7.3665e-18
9459.022 8.4871e-18
9460.557 2.734e-17
9462.09 3.5402e-17
9463.624 3.5708e-17
9465.158 3.5189e-17
9466.692 3.2201e-17
9468.226 3.8924e-17
9469.76 3.1688e-17
9471.294 3.2821e-17
9472.828 2.4509e-17
9474.361 3.4714e-17
9475.896 4.0952e-17
9477.43 3.5266e-17
9478.964 3.0385e-17
9480.497 3.6824e-17
9482.031 3.4136e-17
9483.565 3.4153e-17
9485.1 3.4568e-17
9486.633 2.8931e-17
9488.167 2.4031e-17
9489.701 2.8255e-17
9491.235 3.3711e-17
9492.769 3.8042e-17
9494.303 3.3513e-17
9495.837 3.4559e-17
9497.371 4.7025e-17
9498.904 6.1361e-17
9500.438 6.454e-17
9501.973 4.37e-17
9503.507 3.4704e-17
9505.04 3.1713e-17
9506.574 3.1562e-17
9508.108 3.6664e-17
9509.643 2.8929e-17
9511.176 2.5881e-17
9512.71 3.679e-17
9514.244 4.0941e-17
9515.778 4.2221e-17
9517.312 4.4005e-17
9518.846 4.1104e-17
9520.38 4.1579e-17
9521.914 3.344e-17
9523.447 3.7537e-17
9524.981 4.5155e-17
9526.516 3.9751e-17
9528.049 4.0685e-17
9529.583 3.7374e-17
9531.117 3.1783e-17
9532.651 3.4229e-17
9534.185 3.7105e-17
9535.719 4.0683e-17
9537.253 4.3195e-17
9538.787 4.0326e-17
9540.32 2.975e-17
9541.854 2.7214e-17
9543.389 3.5606e-17
9544.923 4.1242e-17
9546.456 3.5145e-17
9547.99 3.0064e-17
9549.524 3.3266e-17
9551.059 4.298e-17
9552.592 5.2581e-17
9554.126 3.2173e-17
9555.66 3.2229e-17
9557.194 4.6473e-17
9558.728 3.6743e-17
9560.262 3.7336e-17
9561.796 3.4406e-17
9563.33 1.5475e-17
9564.863 2.8512e-17
9566.397 4.1954e-17
9567.932 4.1816e-17
9569.466 4.9043e-17
9570.999 4.3818e-17
9572.533 4.0189e-17
9574.067 3.6901e-17
9575.602 3.2556e-17
9577.135 3.8836e-17
9578.669 4.4085e-17
9580.203 5.1718e-17
9581.737 4.2625e-17
9583.271 3.6105e-17
9584.805 3.1487e-17
9586.339 2.9267e-17
9587.873 4.766e-17
9589.406 5.7558e-17
9590.94 4.2274e-17
9592.475 3.6365e-17
9594.008 4.6319e-17
9595.542 4.6781e-17
9597.076 3.8839e-17
9598.61 3.7646e-17
9600.144 3.22e-17
9601.678 2.6269e-17
9603.212 3.7451e-17
9604.746 4.6575e-17
9606.279 3.5109e-17
9607.813 4.2843e-17
9609.348 4.5017e-17
9610.882 4.7494e-17
9612.415 4.9153e-17
9613.949 4.7893e-17
9615.483 3.6389e-17
9617.018 3.2239e-17
9618.551 2.4602e-17
9620.085 4.1417e-17
9621.619 5.326e-17
9623.153 3.584e-17
9624.687 2.9014e-17
9626.221 3.804e-17
9627.755 4.0108e-17
9629.289 5.0167e-17
9630.822 4.2155e-17
9632.356 3.1949e-17
9633.891 2.4557e-17
9635.425 3.158e-17
9636.958 5.041e-17
9638.492 5.7349e-17
9640.026 4.5745e-17
9641.561 4.9297e-17
9643.094 3.5056e-17
9644.628 2.8477e-17
9646.162 3.7559e-17
9647.696 3.0952e-17
9649.229 2.9548e-17
9650.764 3.0562e-17
9652.298 4.4234e-17
9653.831 4.2686e-17
9655.365 5.4451e-17
9656.899 4.94e-17
9658.434 3.4446e-17
9659.967 3.5352e-17
9661.501 3.8491e-17
9663.035 4.4818e-17
9664.569 4.5329e-17
9666.103 3.9036e-17
9667.637 4.7203e-17
9669.171 4.1161e-17
9670.705 3.9043e-17
9672.238 4.2852e-17
9673.772 5.0703e-17
9675.307 4.3254e-17
9676.841 4.2368e-17
9678.374 4.6869e-17
9679.908 4.7521e-17
9681.442 3.8668e-17
9682.977 3.9595e-17
9684.51 4.4764e-17
9686.044 3.8366e-17
9687.578 4.064e-17
9689.112 4.2179e-17
9690.646 5.0678e-17
9692.18 5.0674e-17
9693.714 5.1647e-17
9695.248 4.8903e-17
9696.781 4.626e-17
9698.315 4.3884e-17
9699.85 3.9435e-17
9701.384 4.4633e-17
9702.917 4.6192e-17
9704.451 4.1762e-17
9705.985 4.498e-17
9707.52 4.1315e-17
9709.053 5.7551e-17
9710.587 5.403e-17
9712.121 5.0511e-17
9713.655 4.8401e-17
9715.188 4.995e-17
9716.723 5.0441e-17
9718.257 5.075e-17
9719.79 5.2999e-17
9721.324 4.6305e-17
9722.858 3.931e-17
9724.393 4.9061e-17
9725.926 5.7843e-17
9727.46 5.1104e-17
9728.994 4.2846e-17
9730.528 4.8418e-17
9732.062 5.1627e-17
9733.596 4.0256e-17
9735.13 4.6329e-17
9736.664 5.8024e-17
9738.197 4.8163e-17
9739.731 3.9744e-17
9741.266 3.9042e-17
9742.8 3.7451e-17
9744.333 3.9435e-17
9745.867 4.6786e-17
9747.401 4.3963e-17
9748.936 3.8399e-17
9750.469 4.5061e-17
9752.003 4.4496e-17
9753.537 4.4863e-17
9755.071 5.0505e-17
9756.604 4.9938e-17
9758.139 4.2687e-17
9759.673 3.2953e-17
9761.207 3.9401e-17
9762.74 5.1556e-17
9764.274 5.1536e-17
9765.809 4.0252e-17
9767.343 3.58e-17
9768.876 4.4397e-17
9770.41 5.3352e-17
9771.944 5.0477e-17
9773.479 3.7248e-17
9775.012 4.1632e-17
9776.546 4.8027e-17
9778.08 4.1307e-17
9779.614 3.9707e-17
9781.147 3.8781e-17
9782.682 4.2278e-17
9784.216 4.3863e-17
9785.749 3.4391e-17
9787.283 4.6948e-17
9788.817 5.6007e-17
9790.352 5.6641e-17
9791.885 4.5907e-17
9793.419 5.4457e-17
9794.953 4.9231e-17
9796.487 4.5418e-17
9798.021 5.8669e-17
9799.555 5.2347e-17
9801.089 4.4216e-17
9802.623 4.9807e-17
9804.156 4.4164e-17
9805.69 3.2144e-17
9807.225 3.7429e-17
9808.759 4.2972e-17
9810.292 3.5618e-17
9811.826 4.5844e-17
9813.36 5.2011e-17
9814.895 4.8154e-17
9816.428 4.0543e-17
9817.962 2.6056e-17
9819.496 4.5702e-17
9821.03 4.582e-17
9822.563 3.4974e-17
9824.098 4.2567e-17
9825.632 4.8482e-17
9827.166 4.1624e-17
9828.699 4.3877e-17
9830.233 3.5913e-17
9831.768 3.0028e-17
9833.302 3.9498e-17
9834.835 4.4626e-17
9836.369 3.5768e-17
9837.903 3.8159e-17
9839.438 5.0612e-17
9840.971 4.7037e-17
9842.505 4.2303e-17
9844.039 3.507e-17
9845.573 3.6493e-17
9847.106 4.2792e-17
9848.641 4.2271e-17
9850.175 3.6792e-17
9851.708 3.2102e-17
9853.242 3.9082e-17
9854.776 4.4651e-17
9856.311 4.0941e-17
9857.844 4.612e-17
9859.378 5.5692e-17
9860.912 4.5827e-17
9862.446 3.7222e-17
9863.979 4.3172e-17
9865.514 3.5935e-17
9867.048 4.1674e-17
9868.582 5.9671e-17
9870.115 6.3515e-17
9871.649 5.5241e-17
9873.184 4.6584e-17
9874.718 3.6035e-17
9876.251 3.9705e-17
9877.785 3.5133e-17
9879.319 4.505e-17
9880.854 4.0866e-17
9882.387 4.1183e-17
9883.921 4.5105e-17
9885.455 5.3088e-17
9886.989 4.8947e-17
9888.522 4.1031e-17
9890.057 5.2475e-17
9891.591 6.5515e-17
9893.125 5.4662e-17
9894.658 5.0832e-17
9896.192 5.5984e-17
9897.727 5.3658e-17
9899.261 4.1423e-17
9900.794 4.332e-17
9902.328 3.7839e-17
9903.862 3.8459e-17
9905.396 4.3669e-17
9906.93 5.6365e-17
9908.464 5.2642e-17
9909.998 4.5564e-17
9911.531 3.3175e-17
9913.065 2.1066e-17
9914.6 5.5769e-17
9916.134 4.9221e-17
9917.667 2.8377e-17
9919.201 4.4636e-17
9920.735 5.1203e-17
9922.27 4.335e-17
9923.803 4.2639e-17
9925.337 3.8387e-17
9926.871 3.8303e-17
9928.405 4.8105e-17
9929.938 4.1469e-17
9931.473 3.0277e-17
9933.007 3.9616e-17
9934.541 4.3709e-17
9936.074 4.4839e-17
9937.608 5.625e-17
9939.143 5.2715e-17
9940.677 3.7281e-17
9942.21 6.1938e-17
9943.744 7.6332e-17
9945.278 6.4603e-17
9946.812 6.0479e-17
9948.346 4.355e-17
9949.88 3.666e-17
9951.414 4.4127e-17
9952.948 4.3459e-17
9954.481 3.044e-17
9956.016 2.9027e-17
9957.55 3.9555e-17
9959.084 3.9167e-17
9960.617 4.482e-17
9962.151 5.1181e-17
9963.686 5.2182e-17
9965.22 4.295e-17
9966.753 3.5528e-17
9968.287 4.1327e-17
9969.821 4.0911e-17
9971.355 4.5972e-17
9972.889 4.597e-17
9974.423 3.822e-17
9975.957 4.3996e-17
9977.49 4.4471e-17
9979.024 3.6103e-17
9980.559 3.6558e-17
9982.093 4.1806e-17
9983.626 4.8073e-17
9985.16 3.957e-17
9986.694 2.6537e-17
9988.229 3.9122e-17
9989.762 4.6507e-17
9991.296 4.6808e-17
9992.83 4.7024e-17
9994.364 3.7523e-17
9995.897 4.4107e-17
9997.432 4.9675e-17
9998.966 4.6383e-17
10000.5 4.3269e-17
