 texplosion  fnickel    Pspin  log(Bfield)      Mns  thetaPB   mejecta    kappa  kappagamma      vejecta  temperature    alpha  cutoff_wavelength  log(nhhost)      A_V         MJD0  kenergy  mnickel            TSD   log(L0)  Peak_mag     Peak_MJD  log(E_rad)  log(Peak_lum)  Rise_Time    E_fold  tau_1  delta_m15     r_peak     frac 
  -11.49178  0.47507  5.87591     14.36077  1.79039  0.49791  14.22593  0.01951      0.2689   8119.50909   3631.49652  4.69195         2867.32797     17.23202    9e-05  58816.05419  5.59458  6.75838  1089863.10189  44.94627  19.52342  58853.65528    51.22795       44.36941   22.17719  53.03024  102.0    0.21886  -21.46942  0.45153 
  -10.98031  0.21168  3.54138     14.03889  1.68015  0.74821   4.52596  0.04324     0.03039   8285.46368   3429.29961  1.57347         2815.81193     16.95056    5e-05  58816.56566  1.85341  0.95806  1635772.23805  45.18213  19.52615  58854.43359    51.18205       44.50981   22.98005  39.27575   65.0    0.22476  -21.45049  0.93627 
  -13.62571  0.06826  3.55468     13.89497   1.7087  1.02229     6.354  0.03988     0.21807   9054.71059   4447.32325  3.21989         2416.90217     19.96496  0.05125  58813.92026  3.10759  0.43371  3251898.04367  44.88777  19.53384  58852.52197    51.16166       44.49247   19.89268  38.01496   82.5    0.21652  -21.54409   0.9704 
  -15.36376    0.449  4.34074     13.97068  1.73408  0.88338   5.87387  0.04486     0.02374    7557.5093   3510.04981  4.02307         2868.89949     18.21078   0.0009  58812.18222  2.00129  2.63734  3472521.35536  44.69214  19.55509  58853.49486    51.21856       44.46308   26.15996  40.27402   71.0    0.20144  -21.45729  0.78529 
  -12.39654  0.02704  3.48295     13.83913  1.65806  1.23193   5.04252  0.04508     0.02622   8059.96125   9471.27035  3.60577         2441.60214     19.87418  0.04158  58815.14943  1.95407  0.13633  3917830.33456   44.8115  19.52577  58854.43448    51.24637        44.6223   20.89095  29.84319   55.5    0.22064  -21.48832  0.99047 
  -10.53898  0.08167  3.81643     13.99831  1.72806  0.78649   4.68381  0.03956     0.11019   8743.56729    9626.1521  3.05784         2548.66391     18.96544  0.00513  58817.00699  2.13601  0.38254  2355398.31085  44.97103  19.50508  58854.43359    51.21299       44.57866   20.89095    33.356   65.5    0.22261  -21.46082  0.97036 
  -11.88531  0.02815  2.72779     13.56637   1.1283  1.26066   6.29848  0.03424     0.19724   7158.18136    7514.9073  3.59872          2853.4471     20.16199  0.08067  58815.66066  1.92517  0.17728  5742858.89853  44.69052  19.54452  58852.52197    51.46494       44.79996    23.3053  36.19155   80.5    0.23041  -21.51632  0.98643 
  -11.75445  0.13098  4.76912     13.91736     1.95  1.26198  11.92581  0.01667     0.02709   7229.06113   5380.84378  3.66949         3129.93428     18.50558  0.00178  58815.79152  3.71774  1.56201  6025598.69678    44.422  19.53563   58852.4375    51.20005       44.42539   22.06438  44.78667   88.0    0.21214  -21.43588  0.85802 
  -11.94804    0.008  2.99745     13.96601  1.59459  0.83044   3.94812  0.04089     0.12707   9779.04314   8186.08373  0.72774         2282.41725     19.02569  0.00589  58815.59793  2.25222  0.03159  1555776.16519  45.32604  19.52178  58854.43448    51.21066       44.55635   22.98005   33.4308   64.5    0.18761  -21.45523  0.99827 
   -14.8755   0.4196  3.85578     13.93119  1.70529  1.46734   4.87839  0.07204     0.02634    7944.0104     5159.321  2.70368         2747.50176     16.34381    1e-05  58812.67048  1.83647  2.04696  3231976.19951  44.81895  19.50752  58853.65528    51.27784       44.63884   20.89095  31.82268   60.0    0.21879  -21.46981  0.85596 
  -12.94376  0.13613  4.63829     14.04016  1.98142   0.7409   5.85641  0.03157      0.0624   7297.53133   6454.51678  4.62826         3004.32951     18.36714  0.00129  58814.60221  1.86042  0.79724  3289920.74334  44.71592  19.53037  58852.52197    51.19522        44.5149    23.3053  39.14793   90.0    0.21913  -21.45146  0.92731 
  -11.65695  0.02739  3.63696     13.86889  1.76439  1.25525   6.33901  0.02897     0.03494   9243.77168   9992.59729  1.18738         3198.80264     19.91731  0.04592  58815.88903  3.23108  0.17362  3963821.99968  44.79585  19.54388  58853.49486    51.30208       44.54375   20.89095  42.06109   54.5    0.20791  -21.53079  0.98797 
  -10.72662  0.12638  3.37513     13.89771  1.45529  0.82153   7.22503  0.02691     0.02623   9018.55181   9650.60052  1.81805         2836.27477      17.4286  0.00015  58816.81935  3.50543  0.91311  2465612.86065  44.98329  19.53536  58854.43359    51.18183       44.48684   22.06438   39.4246   55.5    0.22839  -21.47064  0.93152 
  -14.85099  0.07283  2.72564     13.83762  1.42489  1.25756   6.72059  0.04665     0.06786   8025.34291   3429.12901  1.73651         2330.63462     18.01492  0.00057  58812.69498  2.58203  0.48946  2076280.09679   45.2344   19.5301  58852.48285    51.20767       44.57995   18.80186  33.42553   71.5    0.22648  -21.44353  0.97458 
  -13.89997   0.1093  4.06127     14.02571  1.85459  0.84868    6.8156  0.03577     0.06545   7656.41224   9881.42319  2.89814         2775.34674     17.43573  0.00015    58813.646  2.38332  0.74493  2523289.36898   44.9178   19.5323  58852.52197    51.18296       44.37973   24.13741  45.16407   64.5     0.2178  -21.44841  0.94289 
  -12.75361  0.33629  3.98863     14.18577  1.77689   0.4655   3.89063  0.04724     0.14362   8593.30066   5551.83372  2.55321         2717.94812     17.10779    7e-05  58814.79236  1.71383   1.3084  1115774.83338  45.26928  19.50899   58855.3617    51.17462       44.51383   22.98005  35.51462   91.0    0.19469  -21.45225  0.90071 
  -11.83968  0.39526  4.07806     14.07179  1.92032  1.06127   6.94205  0.03916     0.05507   8574.98664   5980.98874  3.48682         2145.06293     18.12414  0.00074  58815.70629  3.04496  2.74389  2130687.44838  45.00279  19.52554  58853.65528    51.19185       44.49946   22.04831  37.35157   82.5     0.2125  -21.43198  0.82599 
  -12.19125  0.24499  4.30104     13.93904  1.93816  1.09016   8.15879  0.02374     0.01684   7856.23937   8194.93084   3.4631         2797.69596     20.05623  0.06324  58815.35472  3.00388  1.99884  4408270.03102  44.64482  19.44847   58852.4375     51.1965       44.49623   19.97528  37.93245   68.5    0.21286  -21.52077  0.85301 
    -12.918  0.00229  3.91543     14.03908  2.11655  1.56653   8.43188  0.03231     0.07009   7618.29262   7349.65567  4.15045         2153.13729     19.58905  0.02157  58814.62797  2.91922  0.01932  2516820.02359  45.00806  19.48118  58853.65528    51.20246       44.56196   21.98177  32.33471   72.5    0.22542  -21.43752  0.99882 
   -13.7693  0.05502   3.5763     13.91372  1.65062  1.05947    8.1077  0.03312      0.1015   8138.04652    5697.8816  2.35831         2706.52546     18.44043  0.00153  58813.77667  3.20306  0.44605   2916741.2432  44.91472  19.49009  58854.43359    51.09411       44.37541   24.93214  42.25603   76.0    0.23295  -21.46349  0.96781 
  -10.72621  0.29601  2.92482     13.97739  1.29645  0.59604   4.60812  0.05178     0.04122   8860.23626   3214.75025  3.68312         2114.39648     16.05865    1e-05  58816.81976  2.15795  1.36406  1142865.84883  45.39141  19.52247  58855.48387     51.2405       44.56238   22.98005  32.70857   67.5    0.23342  -21.45627  0.91136 
  -15.76835  0.01709  3.79064     13.80732  1.70326   1.3548   7.52017  0.04186     0.10179    8034.4932   3629.98812  4.53988          2705.1813     16.03289    1e-05  58811.77762  2.89582  0.12848  5519201.84847  44.60083  19.52876  58852.52197    51.19906       44.49062   22.98005  42.06109   81.5    0.20267  -21.49815  0.98968 
  -14.07305  0.27379  3.50668     14.02364  1.38214  0.60153  11.41718  0.02235     0.05279   7468.74353   9457.23436  3.12261          2726.6187     19.17583  0.00833  58813.47292   3.7991  3.12589  1415421.34542  45.16872  19.53379  58853.49486     51.1631       44.47146   23.78631  40.60848   73.0    0.21727  -21.43993  0.77344 
  -11.69159   0.3345   3.9023     13.82834  1.64771  1.12748   6.81534  0.02618     0.01755    8535.6037   9634.19876  3.06723           2668.215     19.08872  0.00681  58815.85438  2.96199  2.27976  5136380.35981  44.59243  19.51587   58852.4375    51.12045       44.44163   22.06438  41.47608   58.0    0.19176  -21.45644  0.82869 
  -12.61835  0.02215  3.38741     13.92014  1.83508  1.32032    5.4506  0.02988     0.16915   8904.07079   4030.62543  1.46896         2211.28481     17.60126  0.00022  58814.92763   2.5778  0.12072  2824348.93877  45.02185   19.4933   58852.4375    51.10402       44.40057   22.98005  42.06109   84.0    0.18876  -21.43356  0.99319 
  -12.00482  0.03885  3.49947     13.86828  1.70999  1.37371   2.68397  0.09808     0.40388   8229.47347   8463.09172  4.86187         2403.58226     20.20821  0.08973  58815.54115   1.0843  0.10427  3566635.80644  44.86158  19.53776  58854.43448    51.15494       44.43529   24.13741  40.62455   66.0    0.24619  -21.57936  0.99299 
  -12.52758  0.12028  3.30064     13.89887  1.59241   1.0186   3.53173  0.06982     0.07152   9488.98431   3751.51297  2.60989         2078.31935     16.51499    2e-05  58815.01839  1.89694   0.4248  2566457.24188  45.02437  19.51722  58850.75143    51.19543       44.56719   18.80186  34.79766   66.5    0.21514  -21.46717  0.97239 
  -12.83339  0.19134  4.56626     13.93725  2.01364  0.99096   6.13515  0.03437       0.013    8216.6776   7310.27468  4.04604         2923.89574     16.55749    2e-05  58814.71258  2.47084  1.17391  5204925.30246  44.53729  19.52153   58852.4375    51.25888       44.57743   19.89268  34.39535   57.0    0.21789  -21.48833  0.90135 
  -13.21984  0.39588  4.36735     14.26045  1.78857  0.52764   7.24077  0.04505     0.08041   8353.20876   5780.88231  3.89958         2694.16209     17.58932  0.00022  58814.32613  3.01383  2.86651     954660.778  45.26107  19.52145  58853.65528    51.25401        44.6073   20.65053  31.57685   79.5    0.23326   -21.4948  0.77956 
  -13.85883  0.41381  4.47157     14.30413  1.85612  0.41429   5.73061  0.04905     0.04842   8283.26785   5762.17808  4.29406         2715.88408     18.19287  0.00087  58813.68714  2.34548  2.37137   849327.87202  45.30746  19.52663  58853.49486    51.09568       44.31985   26.65406  52.36439   78.0    0.20999   -21.4857   0.8098 
   -11.9348  0.04126  2.44532     13.75957  1.32056   1.3047   5.20903  0.03695     0.05089  10281.62858   4264.96425  0.36132         2241.46684     19.58384  0.02131  58815.61118  3.28479  0.21494  2218675.36464  45.26684  19.52562  58852.52197    51.46446       44.98394   12.53457   19.5047   60.0    0.20468  -21.50703  0.98977 
  -13.55938  0.13186  2.73639     13.78557  1.08249  0.64401   6.14886  0.04169     0.03807    7914.5935   7622.32044  2.68432         2828.34451     18.21192   0.0009  58813.98659  2.29762   0.8108  2020507.37557  45.12345  19.52458  58853.49486    51.20078       44.54318   21.98177  33.70684   70.0    0.22725  -21.46061  0.93721 
    -11.867  0.24095  3.53501     14.03579  1.51808  0.56139   4.65461  0.03933     0.06889   8530.52005   9996.06537  3.76267         2378.13884      16.4473    2e-05  58815.67897  2.02051  1.12151  1493862.47526  45.17905  19.53487  58853.49486    51.14769       44.43487   24.70198  42.06109   66.0    0.20831  -21.41552   0.9145 
  -11.81066   0.1393  3.96396     13.96788   1.8703  1.20122   5.51623  0.04306     0.05532   8964.42486   4416.74417  2.55178         2458.16384     16.24871    1e-05  58815.73531  2.64432  0.76842  3163922.61533  44.84427  19.54676   58852.4375    51.32204       44.74687   14.62367  27.15824   71.5    0.23059  -21.46627  0.94484 
  -11.97381  0.11654  3.91816     14.08064  1.88959  0.71508   4.51007  0.04105     0.05751    8617.6753   4625.01886  2.22227         2517.92078     17.60154  0.00022  58815.57216  1.99798  0.52562   1858057.0257  45.08999  19.51698   58852.4375    51.20224       44.40388   24.15348  45.12379   78.0    0.19606  -21.43306   0.9628 
  -14.11262  0.20861  4.33581     14.12351  2.02291  1.17667  10.97167  0.03055     0.08034   7816.50512   4974.43389   2.6674         2652.32746     17.99286  0.00055  58813.43335  3.99876  2.28882  1999503.22535  44.99976  19.48981  58853.65528    51.24215       44.55301   21.98177  35.82015   76.0    0.23468  -21.43481  0.84522 
  -11.47443  0.20332  3.73788     13.99981  1.59982  0.80504   8.28525  0.03257     0.04288   8571.55129   5520.32163  3.30438         2540.33235       18.013  0.00057  58816.07154  3.63121  1.68452  2077421.77674  45.01014  19.53381   58855.3617    51.14391       44.47957   22.98005  37.05884   75.0    0.23653    -21.472   0.8742 
  -11.12182  0.31581   3.6358     14.20893   1.9338  0.70778     4.846  0.04858     0.04237   9965.36812   5578.25107  1.30629         2012.68195     17.64576  0.00025  58816.42415  2.87076  1.53041   906933.15412  45.47648  19.53467  58852.52197    51.32095       44.71231   16.71276  26.93566   60.5    0.22011  -21.47411  0.91582 
  -12.53706  0.02746  3.44733     13.86527  1.63228  1.17691   8.03908  0.03543     0.01401   8796.69021   7687.81714  4.68994         2160.73216     18.60391  0.00223  58815.00891  3.71084  0.22072  3349911.65064  44.88164  19.52214   58855.3617    51.18709         44.402   24.93214  41.91891   53.0    0.22242  -21.47847  0.98468 
  -13.07347  0.11658  4.42522     14.03028  2.11643  1.13872   6.97302  0.04073     0.04415   8643.25072   8972.56016  4.04498         2440.39482     17.93045  0.00047   58814.4725  3.10744  0.81289  3347510.02201  44.77786  19.50696  58854.43359    51.16612       44.41469   24.13741   43.0339   63.0    0.22093  -21.49155  0.93959 
  -10.28363  0.18798   2.6395     13.83789  1.51792  1.34893   6.22722   0.0237     0.15158   9522.78197    3149.6576   0.8959         2036.83322     20.17215  0.08258  58817.26234   3.3686  1.17059  2071659.38394  45.29073  19.52325  58850.75143     51.2698       44.57946   20.89095  33.42553   81.0    0.18634  -21.48506   0.9495 
  -12.47988   0.0244  3.89578     13.95584  1.72553  0.77359   5.23219  0.04311     0.08001   8620.86683   9915.45558  3.67735         2735.80788     17.68871  0.00027  58815.06609   2.3196  0.12767  2980273.18617  44.85032  19.50247  58854.43359    51.12858       44.36785   25.98821  42.92188   64.5    0.21523  -21.48733  0.98935 
  -12.12795  0.05303   3.5105     13.88186  1.78848  1.16691    5.5726  0.03615      0.0709   6976.79047   7441.00563  2.02946         3145.59763     20.42026  0.14621  58815.41802  1.61807  0.29553  3526233.68673  44.88328  19.50858   58855.3617    51.11157       44.45681   22.17719  37.22269   82.0    0.21481   -21.5755  0.98145 
  -11.87814  0.05651  3.84047     13.93784  1.87536  1.19914   8.26348  0.02692     0.04933   8356.29462   8664.05276  3.97076         2189.95777     18.52373  0.00186  58815.66783  3.44205    0.467  3419624.86549  44.83918  19.47373  58854.43448    51.14403        44.3516   25.06914  41.78191   71.5    0.20948  -21.43016  0.96782 
  -13.46742  0.16278  3.63191     13.81937  1.66412  1.43018   4.83772  0.04544      0.0535   8586.41847   8454.03152  3.74057         2393.18769     18.75578  0.00317  58814.07855  2.12761  0.78749  4683064.83833  44.69923  19.50879  58853.49486    51.17066       44.44794   25.39439  39.27575   68.5    0.21314  -21.47697  0.94316 
  -11.89587  0.03191  3.04563     13.92547  1.60572  1.03429   4.80287  0.04129     0.04317   9270.79654   9303.44516  0.91699         2498.54149     17.40929  0.00014   58815.6501  2.46242  0.15327  1949364.28163  45.21727  19.53139  58853.65528    51.20288       44.51554   21.98177  38.01496   53.0    0.21401  -21.46481  0.99152 
  -12.59177  0.41176  3.79878     13.91561  1.76863  1.35252   3.62246   0.0682     0.10547   8335.39104    4543.9872  2.61149         2505.95096     18.47881  0.00167   58814.9542  1.50135  1.49158  3495579.84203  44.81368   19.5331  58850.75143     51.3322       44.80309   14.62367  22.98005   79.5    0.21986   -21.4631  0.89839 
  -13.31628  0.07669  3.22667     13.83691  1.60954  1.52624   4.56201  0.05477     0.21793   9215.83256   8992.48743  0.83857         2865.80476     19.70255  0.02801  58814.22969  2.31128  0.34987  3297677.48053  44.93983  19.50704  58852.52197     51.1919       44.41725   20.89095    43.871   61.5    0.20994  -21.48553  0.97852 
  -12.96126  0.44717  4.76026     14.04514  1.91001  1.41118   8.27723  0.02942     0.03325   7074.27788   5794.87496  2.38891         3086.54602     16.98599    5e-05  58814.58471  2.47102  3.70135  3264566.63254  44.68079  19.51773  58853.65528     51.1692       44.48289   24.47872   39.4246   84.5    0.23357  -21.41157  0.71833 
  -11.78434  0.45216   4.0059     14.02977  1.64257  1.15864   8.51744  0.03397     0.22825   7880.84101   4546.60717  1.84641         3074.09909     18.01901  0.00058  58815.76163   3.1556  3.85122  2133978.51384  44.94978  19.51547  58853.65528    51.13801       44.41746   24.13741  40.62455   83.0    0.24039  -21.45103  0.73567 
   -12.6492  0.30083  4.16108     14.02462  1.60021  0.87167   8.78923  0.03796     0.04764   7628.06303    3885.9812  3.29085         3085.15481     17.43556  0.00015  58814.89678  3.05075   2.6441   2296979.6883  44.87345  19.47847  58854.43448    51.19633       44.54214   22.06438  33.62424   74.5    0.23276  -21.48948  0.78146 
  -12.12002  0.09736  3.42422     13.91318  1.67242  1.18363   9.66395  0.02992     0.19999   8319.52916   3792.30325  2.51457         2573.88904      20.1003  0.06999  58815.42595  3.99006  0.94084  2715943.88697  44.98915  19.51796   58855.3617     51.1879       44.55747   21.98177  32.97337   77.0    0.23256   -21.5392  0.94096 
  -11.31351  0.42192  4.39324     13.95633  1.79555  1.41032  10.64077  0.02431      0.2274   7464.75963   3319.83202  4.73213         2930.61156      20.4854  0.16987  58816.23247  3.53697   4.4896  3934745.23414  44.64255  19.51946  58854.43359    51.18374       44.49654   22.06438   37.2045   87.0    0.25271    -21.684  0.69131 
  -12.74649  0.23636  3.65889     13.93373  1.62423  1.19713   7.37471    0.044     0.09887   8494.73945   5712.59814  3.81419         2366.04499      17.4896  0.00017  58814.79949  3.17448  1.74307  2739705.37257  44.91509  19.50463  58854.43359    51.21263       44.48372   22.98005  37.75859   77.0    0.22866  -21.46388  0.87825 
  -16.89527  0.13238  3.13001       13.826  1.54858  1.11751   4.34879   0.0624     0.06932   8104.74367   5491.90246  1.70423         2663.60447     19.70671  0.02828   58810.6507  1.70402  0.57571  3139353.24685  44.97085  19.51658  58852.52197     51.1436       44.42007   22.98005    43.871   76.0    0.20079  -21.48967   0.9651 
  -10.56717  0.38296  5.17819     14.25114  1.81241   1.2755  13.24367   0.0313     0.01567    6816.6098   4890.01839  4.87657         3206.37359     16.83539    4e-05   58816.9788   3.6709  5.07184  1419551.89056  44.94659  19.51496  58852.52197    51.24092        44.5458   22.37246  35.03809   68.5    0.23869  -21.47294  0.59622 
  -11.34518  0.36824  3.85804     14.06605  1.75001  0.69517   3.91818  0.06401     0.07584   8691.58008   7223.66582  3.07239         2693.95626     20.13378   0.0756  58816.20079  1.76567  1.44282  1784354.20324  45.08767  19.49256  58852.52197    51.17651       44.47448   22.98005  38.50893   71.5    0.23141   -21.5597  0.89666 
  -12.22654  0.11225  3.95972     13.86084  1.61648  1.55646   4.75264  0.06427     0.07043   7411.87287    3493.6253  4.88215         2917.97682     18.22467  0.00093  58815.31943  1.55746  0.53349  4467135.42694  44.63206  19.53473  58853.65528    51.28845          44.67   18.47387  29.57532   67.5    0.24264  -21.48953  0.95189 
  -11.37732  0.03231  3.29784     14.06499    1.554  0.60052   6.52632  0.03381     0.08324   8357.44814   6560.05416  2.21768         2556.40505     18.18139  0.00084  58816.16865  2.71921  0.21086  1163441.64966  45.35809  19.51821  58854.43359    51.25617       44.62838   20.89095    33.356   76.0    0.23134  -21.46094  0.98561 
  -11.21567  0.23802  3.64274     13.84515   1.6132  1.34759   5.24951  0.05137     0.03967   9229.70995   3999.05803  4.08563         2265.17975      16.5582    2e-05   58816.3303  2.66761  1.24948  4055740.18222  44.74561   19.5214   58855.3617    51.26875       44.69036   20.65053  27.39866   66.0    0.21732  -21.47966  0.90882 
  -14.73944    0.213  3.92959     14.01097  1.70424  0.84041   7.65872  0.03696     0.03087   7930.08838     4157.935  2.45983         2906.79028     19.21615  0.00914  58812.80653  2.87303  1.63135  2323271.36747  44.94558  19.51088   58855.3617    51.26292       44.55933   22.98005  32.70857   72.0    0.21773  -21.46736  0.87687 
  -11.61552  0.43141  3.94934     13.87304  1.77531  1.54864   4.11502  0.05715     0.03905   9617.62203   5047.84587  3.76908         2196.36148     17.50446  0.00018  58815.93045  2.27057  1.77526  4613863.48961  44.66101  19.56773  58856.55912    51.24525        44.5477   26.68063  40.01889   63.5    0.19769   -21.4715  0.87277 
  -15.54879  0.04318  3.02137      13.8621  1.38588  0.82967   5.86772   0.0461      0.0493   7757.93061   7615.14557   1.4914         2987.88958     16.45499    2e-05  58811.99718  2.10663  0.25339  2216941.05646  45.10441  19.51828  58852.52197    51.25067       44.58262   20.89095  33.42553   69.0    0.20794  -21.43586  0.98279 
  -12.80913  0.05173  3.22022     13.81699  1.42919  1.02477   6.80294  0.03606     0.10196   7621.07487   8683.83443  4.34475         2393.13541     18.39045  0.00137  58814.73685  2.35698  0.35191  3196693.73384  44.90346  19.51641  58854.43359    51.14483        44.4259   24.13741  40.90373   70.5     0.2235  -21.42974  0.97423 
  -11.73103  0.15279  3.85347      13.8763  1.67531  1.06922   5.23451  0.03808     0.04124   7810.59832   8352.26501  2.93824         2842.69874     16.91712    5e-05  58815.81494   1.9049  0.79978  4083293.74363  44.71023  19.51161  58854.43359    51.16276       44.42072   24.13741  39.43678   70.5    0.21781  -21.45244   0.9359 
  -14.08406  0.00793  3.16941     13.91944  1.63243  1.08414   4.16964  0.06237     0.07755   7904.50226   9158.73424  2.83961         2182.48452     18.46784  0.00163  58813.46192  1.55408  0.03307  2206614.00612  45.13599  19.50435  58854.43359    51.30361        44.5974   20.89095  34.10245   61.0    0.22658  -21.42849  0.99805 
  -13.78124  0.20332  3.91451     14.06397  1.75006  0.80615   7.36742  0.03914     0.02838   8269.89757   7722.98573  2.92461         2675.95415     17.60956  0.00023  58813.76473  3.00568  1.49792  1854722.94712  45.05827  19.52727  58852.52197    51.29356       44.59369   22.06438   37.2045   63.5    0.24027  -21.49057  0.89094 
  -12.45691  0.05604  3.91114     13.96428  1.98462  1.54924   2.82908  0.08278     0.12549   8287.55259   6527.50284  2.63455         2346.55155     16.36894    1e-05  58815.08906  1.15911  0.15855  3323089.91531  44.86037  19.50522   58852.4375    51.17901       44.42268   23.78631  46.87577   75.5    0.21972  -21.43677  0.98941 
  -12.56357  0.09802  3.44085     13.88283  1.47079  0.85466   7.32421  0.03201     0.02777   8447.44315   9636.17363  1.82252         3053.17936     18.90301  0.00444   58814.9824  3.11773  0.71792  2773571.33485  44.92003  19.56272  58853.65528     51.2097       44.49612   19.97528  40.81567   56.5    0.22609  -21.46576  0.94406 
  -12.81867  0.09315  3.57281     13.89808  1.55996  0.96746   8.40376  0.03387     0.07207   7717.52294   5574.12461   4.3012          2560.7049     16.50473    2e-05   58814.7273  2.98577  0.78279  2956561.75642  44.88515   19.5071  58853.65528    51.53264       44.96288   16.57488  24.83986   79.5    0.22081  -21.46219   0.9402 
  -13.04664  0.11068  4.40819     14.09127  1.93483  0.76941  12.00826  0.01532     0.08288    6522.3258   3691.97372  2.38557         3272.43659     18.18657  0.00085  58814.49933  3.04728   1.3291   2293223.8988  44.90652  19.51801  58854.43448    51.24318       44.56946   20.89095  33.42553   89.5    0.21618  -21.42796  0.89301 
  -12.33791  0.45893  4.62187     14.06355   1.7495  1.13401   9.20144  0.03517      0.0718   8099.29072   4073.90681  3.54428         2856.74279     16.96829    5e-05  58815.20806  3.60062  4.22285  2589838.22057  44.76885  19.51124  58852.52197    51.22121       44.52141   21.98177   37.2871   82.0    0.24373  -21.49273  0.67578 
  -12.43768  0.45929  4.47254     14.06323  1.68615  1.32505  11.56766  0.02744     0.24662   7743.48089   3038.53276  2.39185         3046.58002     17.69791  0.00028  58815.10829  4.13757  5.31292  2340810.74133  44.82527  19.53186  58853.65528    51.25708       44.55173   19.97528  37.93235   87.5    0.22995  -21.46512  0.62735 
  -12.63337  0.05742  3.53834      13.8716    1.676  1.21443   6.00287  0.03859     0.07057   8678.83887    9695.3858  2.91363         2445.09156      19.4287  0.01491  58814.91261  2.69718  0.34469   3519599.5349  44.84903  19.48061  58854.43359    51.17049       44.38668   24.26629  44.67386   61.0     0.2277  -21.49369  0.97597 
  -16.39048  0.00118  3.58782     13.81436  1.83198  1.23231   1.82267  0.13575     0.17663   8551.03944   9875.92651  3.79642         2464.77072     20.23538  0.09552  58811.15549  0.79501  0.00215  5148445.95334  44.71043  19.53929   58852.4375    51.26631       44.52867    23.3053  44.15018   66.5     0.1845  -21.57309  0.99986 
  -11.96571  0.23092  4.23011     13.95809  1.74343  0.92086   4.20707  0.05841     0.23532   8024.74393   3334.87883  3.15437         3185.26184     19.13749  0.00762  58815.58027   1.6161  0.97149  3513467.85322  44.71181  19.49362  58852.52197    51.23379       44.56058   20.89095  34.79766   78.0    0.24288  -21.52076   0.9135 
  -12.68381  0.20043   3.6535     13.77799  1.44204  1.12779   8.59154  0.02514     0.02079   7452.33173   4563.73882   4.4242         2777.79146     19.28259  0.01065  58814.86216  2.84631    1.722  4968529.66536  44.60618  19.50406  58853.65528    51.21867       44.60105   19.89268  30.24561   77.5    0.22734  -21.45893  0.85732 
  -14.01621  0.24416  3.92033     13.84977  1.50083  1.09967   9.45696  0.02925     0.01181    7131.8824    9067.4685  4.03922         3028.58121     16.84964    4e-05  58813.52976  2.86937  2.30899  4278168.50514  44.62727  19.51339   58855.3617    51.19707       44.39989   27.34648   46.0971   58.0     0.2276  -21.48642  0.80581 
  -12.71353  0.15315  3.50385     14.01049   1.7077  1.02269   9.75429  0.03348     0.05098    8083.9163     7992.774  3.49958         2248.82844      19.0996  0.00699  58814.83244  3.80248  1.49383  1854976.76184  45.14383  19.53163  58853.49486    51.22791       44.47683   23.78631  40.19142   68.5    0.22628  -21.45405  0.90857 
  -13.35771  0.00372  4.06277     13.87099  2.02069  1.46463   7.29939   0.0284     0.02138   7744.70542   9181.83777  3.06558         3001.00633     20.36369  0.12836  58814.18827   2.6117  0.02718  5610145.52892  44.60773  19.52524   58852.4375    51.16006       44.49031   20.89095  40.59802   63.5    0.21149  -21.60043  0.99804 
  -14.49553  0.07259   4.0211     14.10805  1.87016  0.62603   7.49189   0.0323     0.02013   7938.32474   9681.47067  3.49678         2580.58911     16.17979    1e-05  58813.05044  2.81628  0.54386  1707227.74808  45.09974   19.5142  58850.75143    51.34731        44.7399   16.71276  28.19573   57.5    0.20395  -21.44624  0.95879 
  -12.41732  0.01233  4.51714     13.90516  2.16773  1.42122   3.53506  0.04789     0.02694   8041.10856   5435.51416  3.38689         2821.00059     16.60099    2e-05  58815.12865   1.3635  0.04358  6356602.81718   44.4919  19.48931  58853.49486    51.26052       44.55573   22.98005  34.82188   64.5    0.19565  -21.45779  0.99647 
  -12.55171   0.1172  4.60965     14.09307  2.02925  0.75619   4.31746  0.04981     0.03439   7925.84952   5479.86136  4.21691         2885.43191     18.81196   0.0036  58814.99426  1.61788  0.50602  2608285.82287  44.83249  19.52567  58853.65528    51.23167       44.60937   20.65053  31.57685   67.0    0.23972  -21.48858   0.9553 
   -12.6999  0.21241  4.26424     13.97926  1.82575   1.0897   7.58859  0.03656     0.03472   7989.11283   6996.97024    3.765         2686.79054     18.94251  0.00487  58814.84608  2.88925  1.61186  3391731.65551  44.74018  19.51185  58853.49486    51.06795       44.37928   24.13741  40.90373   73.5    0.22566  -21.45578  0.87133 
  -10.23172  0.02554  4.12848     13.96773  2.02355  1.18601   4.29505  0.03932     0.03684   8665.04665   7946.38319  4.52913         2193.86136      16.2896    1e-05  58817.31425   1.9237   0.1097  3715784.76243  44.77333  19.50567  58854.43448    51.18492       44.43152   24.13741  40.90373   65.5    0.21524  -21.43012  0.99198 
  -10.77248   0.0152  3.50318     13.99868  1.67514  0.72292    4.9273  0.03887      0.1238   8531.30704   4997.58205   4.2076         2212.33067     19.60478  0.02236   58816.7735  2.13928  0.07491  1920523.61266  45.12055  19.51875  58853.65528     51.1603       44.40886   24.13741  45.16407   84.5    0.22005  -21.45658  0.99476 
  -12.54822  0.49021  3.34116     13.90034  1.54845  0.95237     3.007  0.07449     0.10943   9254.05961   8809.53198  1.28179         2763.63477     19.54172  0.01934  58814.99775  1.53612  1.47406   2539976.4438  45.00612  19.51402  58854.43359    51.35018       44.83994   16.71276  22.98005   64.5    0.20833  -21.49554  0.90459 
  -14.51853  0.31915   4.3559     14.15757  1.73973  0.45705   4.71008   0.0475     0.02975   6803.00091   7448.72913  4.50352         3145.81687     17.91493  0.00046  58813.02745  1.30034  1.50323  1483605.63469  45.05985  19.52054  58854.43359    51.16767       44.46761   22.98005  38.50893   73.0    0.20216  -21.45216   0.8633 
  -11.60362   0.3576  2.33483     13.89939  1.46486  1.22765   5.51666  0.03029     0.14171   9168.50746   4728.59202  0.34793         2079.20547     17.62056  0.00023  58815.94235  2.76631  1.97275  1178505.59363   45.6268  19.54585  58850.75143    51.20782          44.52   20.89095  37.60372   78.0    0.20722  -21.41297  0.93156 
  -12.44918  0.09847  3.58521     13.90755   1.6439   1.0926   7.89765  0.03058     0.03218   8502.29353    9326.2553  3.10363         2380.30491     16.84204    4e-05  58815.09679  3.40563  0.77769  3003462.73887  44.89807  19.51439  58853.49609    51.20546       44.54913   21.98177  33.66188   60.0    0.22787  -21.44538  0.94463 
  -14.35968  0.09598  3.45584     13.81063  1.46609  0.94882   5.84978  0.04114     0.02942   7666.29139   9963.26167  4.14474         2650.93732     17.05245    6e-05  58813.18629  2.05087  0.56144  3888944.08101  44.76807  19.53475  58852.52197    51.22752       44.56931   20.65053  35.03809   59.0    0.21487  -21.44185  0.95483 
  -10.94148  0.02859  3.14831     13.84796  1.61893  1.32571   2.70882   0.0501     0.16605   8715.25138   6085.65391  0.93661         2892.67552     19.76555  0.03238  58816.60449  1.22735  0.07746  3001093.25873  45.00464  19.51617  58853.65528    51.22493       44.51496   21.98246  35.81947   79.5    0.19748  -21.43529  0.99544 
  -13.09469  0.07611  3.44514     13.90779  1.65433   1.1923   4.73882  0.06019       0.049   8687.96624   8258.95511  2.80741         2404.96408     17.36377  0.00013  58814.45128   2.1337  0.36066  2787862.79236  44.96778    19.539  58854.43359    51.21263       44.49761   23.78631  35.03779   59.0    0.23441  -21.49493  0.97584 
  -11.54476  0.17231  3.91277     13.88954  1.74843  1.25553   4.26196  0.05454     0.10513   8936.06916   7016.62419  3.77693         2589.02947     18.45472  0.00158  58816.00121  2.03016   0.7344  4133805.56217  44.71017   19.5288  58853.65528    51.26002       44.59727   21.98177  32.26518   75.0    0.23849  -21.53134  0.94293 
  -10.46857  0.09264   3.3907     13.76112  1.47672  1.37596   6.03314  0.03665     0.04764   8081.47226   3776.50043  4.78759         2417.78435     19.60903  0.02258   58817.0774  2.35045   0.5589  4736466.46096  44.70211  19.54091  58854.43448    51.24672       44.57443   21.98177  33.66188   77.5    0.22786  -21.46238  0.95735 
  -13.09316  0.04804  4.20513     13.84867  1.84186  1.48653  13.37189  0.01328     0.04315   7235.80289   4942.72269  3.31845         2932.99498     18.58985  0.00216  58814.45281  4.17632  0.64236  6071517.33611  44.50325   19.5018  58853.65528    51.21319       44.60781   18.80186  31.33643   92.0    0.21648  -21.42196   0.9458 
   -13.7464  0.00153  3.10926     13.66107  1.46257  1.53362   1.59804  0.16524     0.07844   8989.22229   8751.84918  4.67793         2389.91178     20.15024  0.07852  58813.79957   0.7703  0.00245  6253133.79983  44.65255  19.51021  58852.52197    51.27744       44.54888   21.98177   36.5129   53.5    0.20481  -21.57868  0.99983 
  -11.41982  0.03813   3.1386     13.73518  1.31629  0.98293   4.84962  0.03604     0.03346   7749.00297   8049.83672  2.53423         2855.49474     17.50481  0.00018  58816.12615  1.73711  0.18494  4076513.28845  44.78444  19.53037  58852.52197    51.12366       44.38811   25.39439   45.9601   67.5    0.22059  -21.41889  0.98515 
  -17.74534  0.17655  3.71762     14.06706  1.70865  0.66697   4.52554  0.06928     0.14686   7558.57678   5191.61729   3.0945         2623.89092     18.20896   0.0009  58809.80063  1.54233  0.79899  1610196.26331  45.15409  19.52246  58853.49486    51.19003       44.54325   22.06438  35.78251   82.5    0.20168  -21.42468  0.94221 
  -11.97086  0.02209  3.62434     14.01266  1.89702  1.19432   9.63898  0.02678     0.03197   8153.36222   5425.11719  2.28862         2304.02675      18.6056  0.00224  58815.57511  3.82236  0.21289  2182890.73319  45.08943  19.50794   58852.4375    51.21528       44.52726   19.89268  35.82015   71.0    0.23079   -21.4289  0.98705 
  -12.36136  0.12202  3.47993     14.02623  1.65963  0.76914   5.49595   0.0463     0.03956   8785.03157   9543.32915  2.14769         2467.91156     17.64184  0.00024  58815.18462  2.53021  0.67061  1653883.94556  45.18721  19.53577  58854.43359    51.24081       44.47327   24.13741  40.62455   54.5     0.2213  -21.47316  0.95528 
  -15.29567  0.07093  2.55351     13.77601   1.6448    1.013  11.03781  0.02175     0.01316   7133.65261   4973.19815   2.3077         2904.70832     20.91436  0.45613  58812.25031  3.35069  0.78291  2793772.94286  45.22449  19.53978  58853.65528    51.14338        44.3545   24.26629  50.94115   76.0    0.20171  -21.94154  0.97094 
  -11.87098  0.00284   3.5641     13.89753  1.74124  1.33318   4.06072  0.06459      0.0621     8279.068   5322.57096  4.48324         2158.17558     18.39042  0.00137    58815.675  1.66032  0.01152  3292460.50074  44.88828  19.53623  58852.52197       51.34       44.78344   16.71276  25.06914   71.0    0.22181  -21.44426  0.99921 
  -12.98996  0.19872  3.64267     14.04041  1.65331  0.76473   6.90844  0.04461      0.0259   8594.49316   5433.39871  2.90856         2498.15465     18.35953  0.00127  58814.55602  3.04402  1.37283  1691149.30143  45.13618  19.52195  58855.36328    51.14204       44.46779   25.06914  37.05884   64.0    0.22015  -21.48524  0.90441 
  -14.76872  0.01804   2.7757     13.81189  1.36413  0.97698   5.79877  0.04634     0.07531   8976.61118   7678.88689  1.49607         2379.02305     19.07936  0.00667  58812.77725  2.78732  0.10459  2320810.54713  45.15132  19.52073   58852.4375    51.15248       44.35318   22.98005  52.22738   67.5    0.21687  -21.48673  0.99382 
  -15.32031  0.03017  3.39708     13.88997  1.60036  0.82041    2.6658  0.08835     0.05922    8217.0599   8766.65129  3.36637         2428.31442     19.15423  0.00792  58812.22567  1.07371  0.08043  2846448.75182  44.95655  19.51524  58853.49486    51.22697        44.5945   20.65053  33.59643   61.0    0.19627  -21.45997   0.9943 
  -10.93961  0.31303  3.74908     14.04182  1.77938   0.6428   5.53939  0.03737     0.13779   8035.12562   4941.20531  4.78054         2510.24841     20.41693   0.1451  58816.60636  2.13341  1.73399   1915573.8585  45.08897  19.50558  58853.49486    51.18064       44.54859   18.80186  34.06419   96.5    0.21337   -21.5923  0.88606 
  -13.41369  0.04333   3.8521     13.86359  1.79212   1.4756   3.54595  0.06798     0.06774   8138.64134   6274.45399   2.7111         2684.00594     18.70634  0.00283  58814.13228  1.40108  0.15365  4628015.68669  44.68542  19.51234  58854.43448    51.28635        44.6531   22.73963  29.34463   73.5    0.21622  -21.45141   0.9883 
  -11.35264  0.34069   3.5917     13.85357   1.6575  1.35149   3.39661   0.0595     0.04867   8768.72225   7572.10522  3.28589         2235.99877     18.99154  0.00545  58816.19333  1.55792   1.1572  3896908.72737  44.78698  19.52272  58853.65528    51.20266       44.47057   22.98005  39.27575   65.5    0.21626  -21.43834  0.92025 
  -12.73342  0.04949  4.48517     13.91792  1.95727  1.20136   5.35701  0.03391     0.16635    6744.8522   3368.57926  3.44648         3137.24279     19.02956  0.00595  58814.81255  1.45377  0.26509  5335643.13239  44.52975  19.52522  58850.75143    51.23515       44.50299   20.65053  40.83845   89.5    0.21694  -21.42805  0.97599 
   -14.7261  0.36125  4.74912     14.34993  1.91795  0.42054   7.38661  0.03596     0.17885   8053.87669   4098.17249  3.24167         2962.47965     17.47196  0.00016  58812.81987  2.85813   2.6684   801718.03487  45.29443   19.5183   58852.4375    51.18262       44.48513   22.06438  42.69758   85.5    0.22654    -21.475  0.77941 
  -13.59595  0.00472  4.05039     13.97568  2.07428  1.30457   4.27238  0.06176     0.10659   8953.40886   3971.98889  3.21026         2293.89594     17.15538    8e-05  58813.95003  2.04303  0.02017  3534489.23048  44.82239  19.52717  58853.65528    51.30269       44.71853   18.47387  27.26364   77.5    0.20711  -21.50144  0.99863 
  -13.49323  0.21258  3.56879     13.78324  1.51253  1.55682   8.55063  0.03317     0.01516   8860.56306   8146.42373  2.58564         2631.13813     17.60746  0.00023  58814.05274   4.0045  1.81769  4853784.96399  44.65743  19.51289  58854.43448    51.18907       44.49317   20.89095  37.05884   55.5     0.2121  -21.47913  0.86594 
  -10.55354  0.25694   3.6976     14.04592  1.88006  1.07059   7.23995  0.02388     0.11601    8623.4359   3690.96791  1.14915         2599.45057     16.82439    4e-05  58816.99243  3.21162  1.86022  1931899.58051  45.12119  19.51294  58854.43448    51.16026       44.53557   22.98005  33.39708   85.0    0.21669   -21.4071  0.89215 
  -13.18607    0.147  3.70291     14.03049  1.93938  1.07606   5.14307  0.03935     0.07696   8405.35471   6935.95039  0.92961         2968.50945     19.03333    0.006   58814.3599  2.16751  0.75606  2145764.27162  45.08784  19.49515  58853.65528    51.24388       44.58555   18.80186    33.356   75.0    0.20832   -21.4355  0.95497 
  -13.97783  0.16129  3.37817     13.91475  1.77777  1.50913   6.27574  0.05078     0.02884   8958.48413   8914.68904  3.63139         2065.51266     20.11179  0.07187  58813.56814  3.00443  1.01219  2789738.79585  45.01579  19.52005   58855.3617      51.176       44.51359   20.89095  36.30899   54.0    0.22193  -21.55261  0.94356 
  -11.75856  0.04234  3.17192     14.01927  1.71509  0.97095   6.00153  0.04472     0.03868   8855.90066   7387.43142  1.64031         2161.81564     19.19796  0.00876  58815.78741  2.80772  0.25412  1466229.11044  45.33429  19.53103  58853.65528     51.1703       44.46149   24.15348  40.19142   60.5    0.23793  -21.45345   0.9863 
  -12.03433  0.17989    3.543     14.03158  1.66772  0.88471   8.96571  0.03404     0.26621   8456.63898   3913.05155  3.59033         2235.39105     17.33425  0.00012  58815.51164  3.82479  1.61285  1680854.27361  45.16669  19.53468  58853.65528    51.17712       44.53045   19.89268   36.5129   77.0    0.23366  -21.46152  0.89661 
  -17.01355  0.01888   3.1409     13.82154  1.68458  0.93264   6.50441  0.05149     0.01449   7679.17669   7738.83915  2.94786         2828.60976      20.6048  0.22363  58810.53242  2.28804   0.1228  3510203.01936  44.95589  19.54255   58855.3617    51.21869       44.53607    23.3053   35.5199   57.0    0.19757  -21.70292  0.99311 
   -12.0262  0.08342  3.33973     13.82438  1.56417   1.3522   7.57365  0.02836     0.06111   8127.57438   4404.74893  2.81204         2377.61805     18.62133  0.00232  58815.51977  2.98438  0.63181  3637098.79538  44.85495  19.52639  58853.49609    51.22357       44.50814   22.98005  36.28883   82.5    0.22346  -21.43392   0.9574 
  -14.03002  0.48956  3.71245     13.81298  1.44122  1.47203   5.73212  0.05436     0.03517   7959.85916   3482.59003  3.68511         2756.50561     16.11783    1e-05  58813.51595  2.16647  2.80623   4364204.4605  44.64835  19.50972  58853.49486    51.16923       44.46857   22.98005  39.89157   72.0    0.22591  -21.47509  0.78311 
    -12.676  0.17709  3.98672     13.96756  1.63388  0.94236   8.14763  0.03466     0.07278   7928.44412   4323.18847  3.50343         2852.46893     18.11794  0.00073  58814.86997  3.05516  1.44284  2799933.79354  44.83369  19.51699  58852.52197    51.26315       44.62829   22.37246  30.08361   76.0    0.23753  -21.47391  0.88013 
   -10.2909  0.22099  3.85813     13.99495  1.92348   1.0685   5.58418  0.04507     0.34399   9333.21841   3330.57534  3.84619         2296.26415     20.25717  0.10044  58817.25507  2.90168  1.23406  2721134.45184  44.94543  19.48915  58853.49486    51.17035       44.49478   22.06438  36.43029   81.0    0.22822  -21.59605  0.92156 
  -13.57681   0.1479  3.55737      13.8648   1.8565  1.48497   3.28783    0.071     0.09908   7607.10121   3645.61389  3.62656         2486.79799     20.37221   0.1309  58813.96916  1.13494  0.48627  4065943.72806  44.82612  19.52516  58853.65528    51.23949       44.58132   20.89095  33.42553   83.5    0.21509  -21.58036  0.97069 
  -14.23306   0.0015  3.83855     13.78411  1.71669  1.39047   2.96319  0.06943     0.10851    7735.8881   3265.98559  3.36842         2912.38036     16.85021    4e-05  58813.31292  1.05781  0.00446  6347865.41126  44.53258   19.5311  58854.43359    51.16188       44.48827   22.06438  37.22466   83.5    0.21143  -21.47225  0.99963 
  -11.11274  0.00414  3.83068     13.96358  1.78351  0.79206   1.59481   0.1279     0.26207   9265.97066   8014.44672  4.29207         2301.37426     19.42919  0.01493  58816.43324  0.81681   0.0066  2874001.22747  44.89508  19.51316   58855.3617    51.19745       44.45951   24.26629  38.61377   76.5    0.19378  -21.45539  0.99949 
  -14.17933  0.30595  2.47916     13.95226  1.76769  1.53642   9.40179  0.02747      0.4462   9223.16461   5398.98312  0.58943         2247.50215     20.45166  0.15718  58813.36664  4.77087   2.8765  1256909.49474  45.62834   19.5072  58852.52197     51.2214       44.45307   22.06438  41.47608   81.0    0.21742  -21.63624  0.91646 
  -13.41046  0.07214  3.70643      13.9933  1.82524  1.08219   8.94496   0.0299     0.06104   8217.30551   4801.04894   1.9216         2618.28375     16.79844    3e-05  58814.13551    3.603  0.64532  2401317.03784   45.0118  19.49503  58854.43359    51.18261       44.42293   24.13741  40.62455   75.5    0.22214  -21.45357  0.95763 
  -13.41091  0.20417  4.25771      14.1153   2.0411  0.78297    4.5108  0.05677     0.09922   9164.97381    4355.1981  4.48654         2221.59505     16.66228    3e-05  58814.13507  2.26018  0.92097  2020341.65269  45.01493  19.51061  58854.43448    51.23385       44.45654   22.98005  39.27575   78.5    0.21642  -21.48369  0.93358 
  -12.67421  0.03984  3.54359     13.84056  1.55444    1.056   5.75916  0.04248     0.05844   8533.31784   5645.29579  4.48055         2498.48049     17.43814  0.00015  58814.87176  2.50163  0.22945  3777130.13771  44.78437  19.49616  58855.48438    51.10537       44.36677   26.28214  40.56891   75.0    0.23199  -21.48843  0.98182 
  -10.97449  0.06576  3.78558     13.94762  1.83658  0.94672   4.30865  0.05028     0.14818   9264.13145   3847.72974  4.21908         2216.05697     19.82938  0.03751  58816.57148  2.20586  0.28334  3110596.65379  44.88375  19.51345  58854.43448     51.2723        44.7173   16.71276  26.93566   85.0    0.20836  -21.50132  0.98006 
  -14.40692  0.01608  3.96602     13.94075  1.94337  1.31581  11.76151  0.01784     0.04312   7838.01863   6814.51704  1.59186         3060.10681     16.68263    3e-05  58813.13905  4.31025  0.18908  3728867.40933  44.78911  19.51686  58854.43359    51.20996       44.51601   20.89095  38.50893   80.5    0.21474  -21.44922  0.98656 
  -13.31569  0.00223  3.35789     13.84656  1.50735  0.98037   4.62873  0.05663     0.15484   7871.68284   3173.07864   3.4699         2632.48207     19.26874  0.01031  58814.23028   1.7109  0.01034  3199184.63907  44.88989  19.52034  58853.49486    51.26981        44.5887   23.06487  34.99312   78.5     0.2309  -21.48082  0.99922 
  -12.80038  0.03934  4.17951     14.06598  1.82615  0.72849   9.88988  0.02823     0.17362   7981.26147   4308.13783   4.1769         2774.02992     18.05503  0.00063  58814.74559  3.75804  0.38902  2185940.09047  44.94849   19.5065  58854.43448    51.18968       44.48224   22.98005  39.69281   77.5    0.22495  -21.47468  0.96674 
  -13.04307  0.46562  4.62433     14.02374  1.76204  1.10103    8.4001  0.03572     0.04091   7990.24093   3970.00459  3.61652         2857.83668      18.2855  0.00107   58814.5029  3.19913  3.91129   3136542.2077  44.68831  19.56126   58852.4375    51.43695       44.91198   14.62367  21.07779   82.0    0.22899  -21.48403  0.69305 
  -14.69524  0.33616   4.1382     14.12349  1.98637  0.82528   4.70352  0.04284     0.18807   7793.08309   4249.63221  1.65985         2892.89657      16.0938    1e-05  58812.85073    1.704  1.58112  1788581.46383  45.08077  19.51108  58853.49486    51.17642       44.43119   22.98005    43.871   86.5    0.21844  -21.42346  0.89335 
  -14.31535  0.33956  3.54422     13.88604  1.25708  0.86869   8.43565   0.0366     0.03645   6769.53036   3379.81636  3.43663         3203.66929      18.8522  0.00395  58813.23062  2.30602  2.86443  2478159.39814  44.87504  19.54115  58854.43448    51.29083       44.58689   22.98005  36.28883   76.5    0.23602   -21.4696  0.76028 
  -10.92629  0.15811  4.53408     14.02889  2.04387   1.0906   8.10168  0.02932     0.01085   7718.68031   6548.81795  3.93094          2665.5069     18.05084  0.00062  58816.61968  2.87931  1.28092  3415658.27369  44.73285  19.53497  58853.65528    51.24269       44.56103   21.98177   35.1204   59.0    0.23778  -21.45837  0.89906 
  -13.44686  0.05147  4.34878     14.03537  1.78956   0.9163  13.81317   0.0209     0.19266   6768.96079   3814.68608   3.9948         3204.27487     18.50882  0.00179  58814.09912  3.77541  0.71093  2670275.58133   44.8183  19.49854  58850.75143    51.21098       44.52856   20.89095  37.60372   68.5    0.25383  -21.49769   0.9348 
  -15.47386  0.02681  4.20827     14.03598  1.96677  0.96678  10.35851   0.0272     0.03057   7473.24992   9133.93072  3.18069         2820.00733     17.29706  0.00011  58812.07211  3.45099  0.27767  2740387.74961  44.87658   19.5002  58853.49486    51.28974       44.73803   18.47387  25.74892   63.0    0.22385  -21.46297  0.97834 
  -13.21555  0.11348  3.96854     13.90114  1.87692   1.4197   5.16947  0.04616     0.05206   8612.39232   4607.32722  2.87853         2480.52016     17.85145  0.00039  58814.33042  2.28729  0.58664  4327534.80546  44.70879  19.50897  58853.65528    51.23471       44.54948   21.98177   35.1204   75.5    0.20532  -21.45713  0.95719 
  -11.46402  0.01192  3.00015     13.84043  1.57807   1.5405   2.85676  0.04518     0.11826   9073.43771   3318.10085  0.72893         2754.78737     16.76998    3e-05  58816.08195  1.40296  0.03404  2750269.50082  45.07331   19.5556  58855.48438    51.29123        44.6323   20.65053  30.08361   73.0    0.18836  -21.41191  0.99811 
  -11.43293  0.04737   4.0063     13.89031  1.70993  1.00346    7.4765  0.02628     0.13506   7732.31777   3122.78821  4.01554         2838.67675      18.1663  0.00081  58816.11304  2.66652  0.35415  4223479.96246  44.67067  19.54215  58853.65528     51.1788       44.45438   22.98005  38.50893   85.0    0.23221  -21.45923  0.96903 
  -15.83727  0.10756  3.48372     13.77766   1.5904  1.42779    6.5883  0.04329     0.02127   8266.99776   9524.78015  3.32698         2520.95425     16.32123    1e-05   58811.7087  2.68594  0.70866  4989784.78508  44.68818  19.51887   58855.3617    51.23577       44.50478   22.98005  34.12212   54.0    0.20342  -21.47855  0.94923 
  -13.21423  0.35391  4.68394     14.00401   2.0507  1.45523   3.67237  0.07187     0.06247   7505.71173   9524.11926  3.65266         2867.99635     18.81015  0.00359  58814.33174  1.23412  1.29967  4101294.30605   44.6266  19.50595  58856.55912     51.1409       44.38144   25.06914  42.11902   61.0    0.23825  -21.46327  0.89224 
  -12.75366  0.01003  3.55561      13.9496  1.71316   1.0812   5.87685  0.05007     0.04912   8608.53707   4806.10807   2.4542         2603.18631     19.05667  0.00633  58814.79231  2.59795  0.05895   2536578.8712  44.99657  19.51843   58855.3617    51.28123       44.57602   22.98005   33.4308   65.5      0.247  -21.51057  0.99592 
  -13.40526  0.16106  3.76705     14.04975  1.83978  0.97153   7.69074  0.03997      0.0182   8433.47312   7391.44295  2.59422          2387.1993     17.44272  0.00015  58814.14072  3.26293  1.23869  1927916.35972  45.09652  19.48053  58853.49486    51.28168       44.48309   22.17719  42.90502   57.5     0.2277  -21.46303  0.92037 
  -12.30561  0.02913  3.56385     13.84718  1.58666  1.11837   7.01353  0.03262     0.04482   8367.33285   5498.41105  2.10391          2899.4217     17.62071  0.00023  58815.24036  2.92913  0.20428  3782430.93841  44.78772  19.52441   58855.3617    51.21308       44.50422   22.98005  35.51462   73.5    0.22085  -21.46338  0.98411 
  -13.62286  0.00387  2.46599     13.70272  1.22071  1.14482   4.25383  0.04667     0.05941   8499.46121   9315.55424  0.76588          2866.7214     17.20053    9e-05  58813.92311  1.83312  0.01646  2710033.24349   45.1385  19.50091  58856.55912    51.06669       44.30727   24.95374  43.98641   58.5    0.20312  -21.43543  0.99909 
  -11.52179  0.09941  3.42137     13.85296  1.50997  1.10486  10.08844   0.0251     0.14131   7622.33666   6240.59479  2.46223         2976.09925     20.05758  0.06343  58816.02418  3.49645  1.00288  3230500.31873  44.87014  19.52111   58855.3617     51.2386       44.50635   22.04831  35.90148   77.0    0.23296  -21.51937  0.92743 
