 log(Bfield)      Mns    Pspin  cutoff_power  cutoff_wavelength  fnickel    kappa  kappagamma   mejecta  log(nhhost)  temperature  texplosion  thetaPB     vejecta      A_V        MJD_0   log(KE)      M_Ni  Peak_mag     Peak_MJD 
    14.16496  1.52024   3.9784       0.88505         3048.88384  0.45575  0.02049     0.02666  16.97102     18.45537    3847.1004   -12.00356  0.94341  8781.40579  0.00159  58815.54241  52.53403  33.88503   19.5142  58855.19446 
    14.19593  1.70487  4.77391       3.50461         2659.05861   0.4154  0.02673     0.02032  14.68479     16.89149   3806.48212   -12.80852   0.8243  8134.94588    4e-05  58814.73745  52.45521  30.01549  19.49275  58854.43359 
    14.53791  1.98842  3.89795       2.99622          2605.8657  0.36681  0.01933     0.03135  26.64757     16.44576   4377.21181    -8.72655   1.5268  8882.70046    2e-05  58818.81943  52.58053  29.66527  19.48315  58855.48438 
    14.62837   1.9238  2.14229        1.7442         2654.39443  0.30403  0.01311      0.0259  33.39554     16.51824   3398.83633    -6.71295  1.20896  8819.14603    2e-05  58820.83302  52.59148  25.58064  19.51446  58853.49609 
    14.24173  1.23678  2.50026       4.18394           2912.805  0.27028  0.02416     0.09857   24.3028      16.5767   3340.05893    -9.26655  0.94372  7041.37313    2e-05  58818.27942  52.37154  21.49854  19.52177  58855.19446 
    14.46413  1.77271  2.95287       2.51445         2227.19113  0.30595  0.01406     0.01619  33.82394     18.94211   3611.74201    -7.97007  1.44815  9610.36035  0.00486  58819.57591  52.66705  25.79872  19.50201  58855.48438 
    14.63378  1.50376  4.49626       3.27839         2568.95925  0.49907  0.01463     0.01268  20.31289     19.93826   8837.59907    -8.70382  0.36945  7474.54044  0.04819  58818.84215    52.409  38.40259   19.5039  58854.43448 
    14.19546  1.68409  4.90477       4.41981         2848.91111  0.37923  0.02282     0.01352  13.65523      18.1007   5352.09331   -14.63169  0.66241  7158.49131   0.0007  58812.91428  52.33778  27.00317  19.50174  58853.49486 
      14.069  1.79569  3.72822       0.61359         2226.92656  0.19779  0.01044     0.01021   22.7986     16.91009   8618.47042   -10.95413  1.17038  9166.87482    5e-05  58816.59184  52.59559  15.55024  19.53907  58854.43448 
    14.78648  1.33892  1.10061       2.34889         2967.63589  0.49343  0.01211     0.02751  25.08589     17.06382   5362.67429    -3.73477  1.17433     9951.33    6e-05   58823.8112  52.67448  39.47462  19.49958  58855.48438 
    13.96735  1.43102  3.23796       3.06372         2153.19531  0.40873  0.03073     0.22207  11.39606     18.94186   4486.57232   -10.72909  1.47034  8082.51755  0.00486  58816.81688  52.42698  28.03473    19.497  58853.49609 
    14.22607  1.60091  3.84663       0.64227         2624.27261  0.47511  0.01276      0.0177  13.10411     16.22299   3553.62288     -8.8174  0.60268  9346.46807    1e-05  58818.72857  52.56579  33.54743  19.54297  58855.48438 
    14.42158  1.97218  4.77416       3.10626         2211.00253  0.42743  0.01861     0.01355  13.63467     16.32332   7868.77726   -10.66942  0.49894  8531.69389    1e-05  58816.87656  52.49008  30.42575   19.5287  58855.48438 
    14.08819  1.63044  2.80986       0.05239         2678.27891   0.3703  0.02099     0.01648   7.86124     18.83238   5012.52213   -10.11861   0.7956  8677.55653  0.00378  58817.42736  52.45328  23.41039   19.5178  58855.48438 
    14.93012  2.08488  1.16538       1.21955         2639.92939  0.33856  0.01349     0.01048  31.62214     17.95492   3080.13688    -5.06552  0.68493  9462.53905   0.0005  58822.48045  52.64855   28.2192   19.5081  58854.43359 
    14.45415  1.32235  3.71913       1.13367         2948.63434  0.43239  0.01727     0.01353  17.96576     18.27234   3726.95796   -14.46654  0.29671   8046.3744  0.00104  58813.07943  52.46289  32.50444  19.54043  58853.49486 
    13.92116  1.80908  4.44989       4.14056         2554.83382  0.19844  0.01441     0.01504   14.0665     16.20039   5458.13009   -11.91232  1.12598  7721.27215    1e-05  58815.63365  52.40613  14.21531  19.52427   58852.4375 
    14.38036  1.81152  3.16998       0.17537         3588.11888  0.28356  0.01145     0.01544  28.30623     16.12986   3069.28861   -12.56259  0.75125  8476.87919    1e-05  58814.98338  52.54457  23.18071  19.51152  58853.49486 
    14.56067  1.74658  3.11852       3.86514         2536.43747  0.35355  0.01636     0.01392  29.01831     19.24104   4151.60974    -6.85471   1.1584  8638.10544  0.00968  58820.69126  52.56284  29.02858   19.4941  58854.43448 
    13.96714  1.74292  4.33354       2.25002         2743.19369  0.37217  0.02577     0.05294  11.35703     17.80832   4105.87448   -13.16635  1.50252  8051.78941  0.00036  58814.37962  52.42336  25.50847  19.50241  58855.48438 
    14.08657  1.61252  3.46416       0.65899         3101.18385  0.38632  0.02964     0.02077   8.95617     17.21645   9525.88297   -14.66075  0.74513  7946.36411    9e-05  58812.88522  52.38958   25.1514  19.50232  58854.43448 
    13.96739  1.69274  3.90672       1.17127         2419.70116  0.43452  0.01824     0.01526  10.75534     16.91515   8099.42719   -10.88382  1.27245  8729.46723    5e-05  58816.66215  52.48853  29.44016  19.49537  58853.49486 
    14.64248  1.51334  2.46959       3.75185         2837.90219  0.41152  0.01526     0.02066  26.71751     16.95867   3536.69696    -4.70059  1.49538  9218.30211    5e-05  58822.84538  52.61294  33.29741  19.50926  58855.48438 
    14.23455  1.56149  4.60889       2.14594         2743.44779  0.29363  0.01138     0.01153  31.97728     18.61171     9754.852     -9.7856   1.5663   9035.2946  0.00227  58817.76037  52.60926   24.5218  19.52383  58855.48387 
     14.1697  2.00073  3.66156       0.00673         3107.72365  0.38547  0.02023       0.026  13.84389       19.455   5772.60547   -11.89982  1.21177  9365.24854  0.01584  58815.64616  52.57239  27.52377  19.48546  58854.43359 
    14.07171  1.85011  4.44015       1.23535         2944.08066  0.35687  0.02179     0.01234  15.09246     16.69246   8872.84714   -13.97898  1.33155  8447.10315    3e-05    58813.567  52.49029  25.92736  19.51479  58855.19446 
    14.94663  1.56673  3.12312       3.57172         2683.42317  0.40932  0.01413     0.01439  27.82522     18.46007   3482.76192    -5.75288  0.44703  9144.30269   0.0016  58821.79309  52.60908  33.35965  19.53191  58853.49609 
    14.16292  1.76677  3.76297       0.31856         3406.50849  0.36075  0.01894     0.01843  13.65232     18.47413   4007.21149   -13.63798  0.78025   8487.3188  0.00166    58813.908  52.48566  25.68638  19.54215  58854.43359 
    14.23742  1.56016   2.9465       0.21293          3939.2744   0.3874  0.01412     0.02941  11.16705     16.02484   9753.87931    -8.76639  0.56589  8986.05367    1e-05  58818.77959  52.51716  26.45798  19.48341  58853.49609 
    14.16819  1.43723   3.1502       1.97142         2436.99426  0.40471  0.03144     0.01128  10.18357      20.3488   7405.71055   -13.18895  0.42851  8531.63811  0.12403  58814.35703  52.46353  27.10075  19.53068  58853.49609 
    14.24513  1.73957  3.77032       1.48407         2100.76175   0.3699  0.02233     0.01256  13.07032     16.20092   6767.08377   -10.57172  0.67821  8684.87995    1e-05  58816.97425  52.50179  26.10442  19.49093  58854.43359 
    14.15646  1.69658  4.00252       1.17077         3168.63161  0.36285  0.01731     0.06214  18.31958     19.79539   5930.67697   -10.88098  1.10449  8222.37149  0.03468  58816.66499  52.48331  27.37901  19.55412  58855.48438 
     13.9267   1.7046  4.26852       4.27687         2685.89316  0.41445  0.03669     0.14383   5.97783     18.32375   4036.05743   -11.10074  0.86605  9321.12955  0.00117  58816.44523  52.48732  24.56006  19.53603  58854.43448 
    13.89088  1.37316  3.49362       2.28857         2159.75437  0.21809  0.01524     0.01872  20.81878     18.22108   6835.43921   -13.32301   0.9244  9192.69981  0.00092  58814.22296  52.59072  16.85921  19.50258  58853.49486 
    14.78649  1.60789   1.0491       4.66643         2064.38327  0.42659  0.01746      0.0199  26.72739     16.23009   8179.26136    -2.89372  0.80576  10466.9378    1e-05  58824.65225  52.72331  34.51877  19.49358  58854.43448 
     13.8747  1.26196  1.70843       0.52278         2635.82994  0.25423  0.01633     0.01504  25.48719     20.59392   5099.19911   -14.71886  1.22946  7761.73502   0.2181  58812.82711  52.45988  20.39681  19.49468  58855.48438 
    14.27711  1.83332  5.14351       2.91896         2413.31252   0.4609  0.02056     0.01998  16.47909     19.70723   5354.98092   -10.80025   0.7986  9444.74215  0.02831  58816.74573  52.59479   34.0713  19.50857  58855.19446 
    14.27089  1.54501  3.77865       4.94083         2130.63483  0.19343  0.01356     0.01529  26.99838     19.41426   4503.25358   -14.12977  0.49861  8612.13321  0.01442   58813.4162  52.55467  15.68036  19.50839   58852.4375 
    14.02721  1.52044  3.42072       0.50452         2771.30673   0.3832  0.01636     0.02125  17.00792     16.02392   5479.30919    -11.4801  1.30708  9290.52424    1e-05  58816.06588  52.58317  28.50291  19.50368  58853.49486 
    13.73279  1.44479  3.26553       1.27466         2662.70805   0.3973  0.05234     0.02796     5.134     18.04136   5757.99993    -15.9522  1.30486  8864.44695  0.00061  58811.59377  52.42725  22.66945  19.52997  58852.48285 
    14.80344   1.7772  2.25253       2.44425         2507.01289  0.41806  0.01418     0.01069  28.99057     17.44252    3063.9251     -6.2526   0.8003  9015.01114  0.00015  58821.29337  52.59987  34.31994  19.47596  58854.43448 
    14.33251   2.0092   5.6458       1.86895         2771.58596  0.37727  0.01222     0.02054  23.23726     18.93312   5554.95142    -8.42562  1.34869  8314.44975  0.00476  58819.12035  52.51234  29.76411  19.51646  58853.49609 
    14.95388  1.60816  2.87037       4.71448         2616.28886  0.48284  0.01975     0.02423  21.50786     16.38169   3010.68479    -5.12635   0.4106  8237.91519    1e-05  58822.41962   52.4981  37.55299  19.51423  58854.43359 
    14.12671  1.50283   4.5382       3.61173         2321.43556  0.27752  0.01076     0.01313  32.90332     18.68889   3599.23101    -11.5787  1.43435  8556.11515  0.00271  58815.96727  52.56407  23.29096  19.46205  58854.43359 
    14.02944  1.73359  3.92088       4.13874         2267.60766  0.18513  0.02284     0.06579   12.9519     16.48368   4153.83353   -13.85759  0.85859   7589.3386    2e-05  58813.68838  52.38386   13.0408  19.51887  58855.48438 
    14.60624  1.87463  4.49306       4.33408          2460.1098  0.46477  0.02434     0.01806  17.66507     18.59203   5824.05633    -7.83548  0.66419  8402.93056  0.00217  58819.71049  52.49914   34.8246  19.53699  58855.19446 
    14.02199  1.67921  4.21676       4.13913         2323.19046  0.39549  0.02317     0.01122   13.8914     17.15246   3008.39872   -13.88448  1.50145  7388.40286    8e-05  58813.66149  52.36675  28.25912  19.51244  58852.52197 
     13.9208  1.28428  3.14153       1.58167         3217.70274  0.18443   0.0183     0.07075  10.34693     17.24628    6544.1591   -11.60061  0.70158  6495.45772   0.0001  58815.94536  52.22817  12.39272  19.51566  58855.48438 
     14.0999  2.12624  4.58027       1.80387         2334.86686  0.38083  0.02247      0.0282  10.05611     16.57648   8180.75152   -11.29596  1.29566  8400.22842    2e-05  58816.25001  52.44886  25.43211  19.51086  58855.48438 
    14.20062  1.99451   4.7112       3.87879         2366.49919  0.39787  0.02579     0.03167   8.59784     16.69905    4161.3041   -11.65761  0.67298  7916.23854    3e-05  58815.88836  52.38233  25.66871  19.49856  58853.49609 
     13.8762  1.47789  3.61286       2.73706         2899.04571  0.40026  0.05502     0.01931   5.59791     19.07751   5095.79125   -17.28128  0.84795   7229.6272  0.00664  58810.26469   52.2596  23.33914  19.48061  58853.49609 
     13.9666  1.67533  4.05427       3.95335         2373.39124  0.31838  0.02609     0.02272  11.30761     18.73638   7053.44728   -11.79635  1.29896   7811.0596  0.00303  58815.74962  52.39659  21.80147  19.53257  58855.19446 
    14.37774  2.08614  5.03618       2.53659         2551.99729  0.32073  0.01553      0.0104  26.02904     16.28465   4505.79307   -11.02806  1.50627  8268.51635    1e-05  58816.51791  52.51647  25.83002  19.49499  58855.19446 
    14.32755  1.70326  3.74034        3.2719         2669.67761  0.22144  0.01712     0.01297  32.02877     16.60548    7334.4252   -10.68107  1.03898  7846.88631    2e-05   58816.8649  52.48689  18.49747  19.51248  58854.43359 
    14.42782    1.597  2.96385       1.66833         2695.62329  0.38436  0.01592     0.01146  28.17011     16.40219   4577.30773    -9.61961   1.2011  8520.90064    1e-05  58817.92637   52.5487  31.39361  19.49276  58855.36328 
    14.29024  1.83768  4.61826       1.67302         2523.35676  0.31047  0.01345     0.02103  22.75997     17.95826   3299.54853   -10.11064  0.87304   9003.6012   0.0005  58817.43533  52.57985    24.401  19.54112  58854.43448 
    14.83738  1.76451  1.60189       2.36038         2686.88507  0.46135   0.0139     0.03295    24.316      19.3956   4539.51424    -3.35332  0.75319  8560.98962  0.01381  58824.19265  52.54132  36.70081  19.52073  58855.48438 
    13.84403  1.52744  3.69687        3.8179         2891.61619  0.22906  0.03111     0.02681  11.12193     20.13228   3858.05602    -14.4038  1.51587  7065.90125  0.07534  58813.14217  52.30799  15.63024  19.52484  58853.49486 
     14.4771  1.97772   4.4817       1.34359         2993.28879  0.36319  0.01184     0.01014  27.98577     18.36991   5880.23252    -8.79068  1.29791  7811.02596   0.0013  58818.75529  52.47264  29.63049  19.50555  58853.49609 
    14.33819  1.68255  4.19908        4.5954         2379.42278  0.46404  0.02252     0.01545  17.81662     17.89719   5285.18381    -9.41571  1.08173   7864.7554  0.00044  58818.13027  52.44236  34.82771  19.53147  58854.43448 
    14.04413  1.83692  4.67392       3.46618         2518.03034  0.33672  0.02132     0.01148  12.84925     18.52924   7187.72321   -12.73416  0.88236  8636.57845  0.00188  58814.81181  52.49542  23.67976  19.50215  58852.52197 
    14.10784  1.96815  4.65011       1.14865         3210.54021  0.48488   0.0212     0.01331  11.86482     17.02843   8356.06814    -13.6401  1.46223  7139.22615    6e-05  58813.90587  52.32287   33.5404   19.5123  58853.49486 
    14.44124  1.58397  3.80559       2.46376         2021.54511  0.35023  0.01809     0.03471   19.4007     16.31437   4759.46248    -12.0901  0.39823  9310.98471    1e-05  58815.45587  52.59605  26.71705  19.54155  58853.49609 
    14.66134  1.72033  3.45358       4.49889         2662.90289  0.49576  0.02148     0.02913   21.6362     16.91921   3679.35124    -6.18841  1.06604  9017.10947    5e-05  58821.35756  52.57708  38.60028  19.50321  58853.49609 
     14.1472  1.85226  5.74356       3.51867          2763.2448  0.32619  0.01253     0.01173  21.76144     17.88959   5404.19499     -9.9474  1.32801  7819.28939  0.00043  58817.59857  52.45375  25.42456   19.4874  58854.43448 
    14.39357  1.34224  3.72115       2.54612         2849.94392   0.2983  0.01048     0.01128  34.09961     17.49062   4123.81293    -7.50579  1.00904  8456.70388  0.00017  58820.04018  52.55658  25.18855  19.53171  58853.49609 
    14.17667  2.05361  3.60421       0.07598         3889.13927  0.49725  0.01926     0.02176  11.95104     16.45377   6155.02384   -12.56283  1.34908  8674.13648    2e-05  58814.98314  52.49267  34.44842  19.53176  58854.43359 
    14.31236  1.89538  4.70785       3.87952         2203.16381  0.27636  0.01384     0.01213  28.91073     18.66831   7676.98245   -12.00752  1.04561  8495.98234  0.00259  58815.53845  52.54815  22.67592   19.5229  58854.43359 
    14.57968  1.79953  4.03158       1.86456         2870.22557  0.42251  0.01652      0.0106  23.95271     17.53237   9437.48535   -10.35482  0.82039  8224.47586  0.00019  58817.19116  52.50529  33.51876  19.51567  58855.48438 
    13.86229   1.5597  3.74916       2.55984         2139.98361  0.44652  0.02758     0.02247   8.84595     17.42443   4531.89582   -11.92004   1.5386    8950.754  0.00015  58815.62594  52.49177  28.99106  19.49409  58854.43448 
    14.00729  1.37522  2.95088       0.24967         3628.00098   0.4702  0.02158     0.02073   9.85221     16.53902   4698.35961   -13.54727  0.70935  8553.70415    2e-05   58813.9987  52.46266  31.26123  19.51628  58854.43359 
     14.3773  1.60146  4.61426       4.10764         2968.92398  0.48943  0.02618      0.0115  16.60438     18.26187   3715.07461   -11.44573  0.94136   7169.3327  0.00102  58816.10024  52.35601  36.23429  19.53425  58855.19446 
    14.06777  1.81271  4.72798        2.6381         2808.05043  0.33674  0.02304     0.01103  15.36578     19.59263   4223.65747   -12.93985  1.13994  8488.52537  0.02174  58814.60612  52.49609  24.55223   19.5014  58855.19446 
    14.02737  2.08529  4.44038       3.02675         2342.63221  0.32444  0.03929       0.077   7.68785     19.39163   6617.53937   -14.61192  1.38194  8154.88298  0.01369  58812.93406  52.39709   20.4065  19.49789  58854.43448 
    14.49909  1.63303  1.56509       0.00457          2950.5979   0.4261  0.01402     0.01153  26.93173     18.76412   3068.94259    -8.31923  0.94492  9719.30888  0.00323  58819.22674  52.65953  34.52569  19.55004  58855.48438 
    13.97402  1.66801  4.39191       3.20405         2491.92385  0.35114  0.02074     0.02704  15.60947      16.6373   4798.02119    -12.7419  1.48406  8304.46186    2e-05  58814.80407   52.4784  25.68231  19.50996  58853.49609 
    14.43629  1.57798   3.7834       1.91492         2878.19529  0.47147  0.02231     0.01201  18.97104     18.14584   6036.21384    -9.38382  0.80537  8429.02392  0.00078  58818.16215  52.50777  35.81325  19.51684  58853.49609 
    14.15719  1.67618  3.71078       0.94968         2171.65225  0.41856  0.02347     0.02229  17.05638     16.22631   3449.02326   -12.16108  1.14676  9503.37636    1e-05  58815.38489  52.60308  31.14999  19.53049  58852.48438 
     14.5177  1.85333  4.13269       3.37128         2508.74447  0.45892   0.0177     0.01202  22.29663     19.64299   7106.34777    -8.18237  1.04548  8232.28018  0.02442  58819.36361  52.50041  35.93157  19.47989  58854.43448 
    14.69515  1.68689  2.69072        4.8734         2963.37851  0.49433   0.0235      0.0131  19.93533     18.68836   3338.64585    -6.70965  1.07411  7905.28334  0.00271  58820.83632  52.45613  37.90366  19.47504  58853.49609 
    14.43637  2.01265  4.00693        0.3692         3654.70638  0.27515  0.01234     0.01762  25.24788     17.18934    8568.3987    -10.8762  0.72376  8484.35462    9e-05  58816.66977  52.53647  22.03759   19.5316  58855.48438 
    14.52975  1.78325  3.35512       2.86963         2351.48575  0.42144  0.01834      0.0289  24.25556     19.73557   6427.84209    -8.86327   0.8616  8411.87798  0.03022   58818.6827  52.52586  33.51008  19.48884  58854.43359 
    14.17948  1.88493  5.89838       4.93736         2801.95198  0.32453  0.01518     0.01512  19.93372     16.31894   3914.27645   -10.82572  1.13354  7675.32455    1e-05  58816.72025  52.43048  24.88386  19.47789  58853.49609 
    14.27003    1.606  3.29972       0.12595         3487.92547  0.45104  0.01258     0.03683  18.61489      16.4452   3876.50859    -8.57666  0.77175  9456.21604    2e-05  58818.96931  52.60608  34.13767   19.5401  58854.43448 
    13.94983  1.84524  4.17173       2.23611         2559.38024  0.27771  0.02945     0.02597   8.07229     19.61085   3405.55317   -11.72403  1.19267  8540.97119  0.02268  58815.82194  52.44212  17.66314  19.47236  58851.58693 
     14.4654  1.53283  2.39795       0.08424         3480.29651  0.34486  0.01281     0.01483  27.45044      17.4678   5445.15447    -14.3943  0.50856   8175.8131  0.00016  58813.15167   52.5108  28.03813  19.52589   58855.3617 
    14.16231  1.86947  3.66488       0.32919         3935.89875  0.36803  0.02643     0.02522    9.3678     18.66207   3213.75539   -13.25798  0.85416  8372.84889  0.00255    58814.288  52.43931  24.20005  19.52065  58855.48387 
    13.88244  1.62926  3.85453       2.58348         2680.57668  0.29728  0.03249     0.02627   8.38922     18.90688   5089.25896    -15.0428  1.05864  7621.43137  0.00448  58812.50317  52.34696  19.07353   19.4591  58854.43359 
    14.75228  2.04171  4.07741       3.33852         2863.31104  0.46938  0.01804     0.01161  23.56516     18.07703   4137.70039    -6.46384  1.43131  8906.66027  0.00066  58821.08214  52.57321  37.12631  19.46824  58851.58693 
    14.04616  1.56589  3.38963       1.20686         2843.60767  0.19532  0.03453     0.02375  12.53354     16.73545   7076.45029   -19.27333   0.7727  7390.54343    3e-05  58808.27264  52.35787  13.66586  19.53916  58855.19446 
    14.56327  1.80903  3.58836       0.65788         2738.75543  0.42406  0.01521     0.01151   23.7324     16.99137   6974.48982   -12.08252  0.59275  8381.59159    5e-05  58815.46346    52.521   33.5852  19.50852  58855.48438 
    13.95889  1.64793   4.0712       3.08115         2239.34439  0.27985  0.01756     0.03531  15.13125     17.46283   8259.46498    -11.5337  1.17194  8960.07255  0.00016  58816.01228  52.54172  20.34202   19.4939  58853.49609 
     14.5088  1.46456  4.16008        3.6391         2569.09129  0.45937  0.01887     0.01602  22.26768      17.1102   4371.15915    -8.73423  0.70553  8885.78769    7e-05  58818.81174  52.56666  35.95862  19.51869  58855.48438 
    14.04536  1.50453  3.12795       0.56941         2223.40202  0.44773  0.01583     0.03316  16.60746     18.49763   9389.73784     -12.049  1.23547  8729.06089  0.00175  58815.49697  52.52701   33.1479   19.5125  58853.49609 
    14.14852  1.85563  4.26823       0.83433         2718.37917  0.48852  0.01882     0.01166  10.16223     17.57969   7607.32654   -11.39782  0.78646  9096.67864  0.00021  58816.14816  52.51903  32.69787  19.53928   58852.4375 
    14.59649  1.73445  5.17222       2.34802         3143.89163  0.24175   0.0107     0.01164  32.40892     17.84402   9462.02242   -13.28981  0.41417  7087.41247  0.00039  58814.25616  52.39935  20.23569  19.51599  58855.48438 
    14.10301  1.61181  4.11617       2.59137         2883.28849  0.38948  0.03316     0.01933   7.66585     17.74982   6057.81689   -11.40873   0.6417  7788.88184  0.00031  58816.13724  52.35692    24.481  19.50637  58855.48438 
    14.68107  1.60275  1.01768       1.09974         2536.66672  0.42795  0.01927      0.0158  23.76571     19.59825   4629.20985    -4.46426  0.69864  9546.19748  0.02203  58823.08172  52.63412  33.90164  19.49671  58853.49486 
     14.1527  1.55032  3.82324       1.66083         2851.62884  0.46011  0.02837     0.01902   8.30405     19.84199   7710.02739    -9.88608  0.59954  8234.52959  0.03861   58817.6599  52.41317  29.45272  19.51369  58855.48438 
    14.51852  1.92494  3.90664       0.76547         2407.12607  0.35065  0.01937     0.01984   16.7925     18.56145   7716.16568   -11.57228  0.46288  8640.33625  0.00202  58815.97369  52.51907  26.01668  19.49769  58855.36328 
     14.7071  2.02523  3.39836       3.67966         2828.85197  0.46479  0.02207     0.02339   22.5715      17.2037   4106.48598    -6.97667  1.42632  8659.19589    9e-05   58820.5693  52.54531  36.47375  19.52187  58854.43359 
    14.41959   1.5953  1.68918       0.25008          2921.3403  0.37583  0.01193     0.01071  33.01883     19.80007   3639.45173   -11.00615  1.03223  9181.77944  0.03506  58816.53982  52.62563  31.56035  19.50896  58852.52197 
    14.62014  1.84229  2.97633       2.39243         2078.86696  0.32756  0.01164     0.01122  34.28683     16.05286   4487.70169    -6.56756  0.89988  9178.37919    1e-05  58820.97841  52.62812  27.68514  19.52449  58854.43359 
    14.12343  1.64757  3.07481       0.28495         2933.15859  0.38374  0.01263       0.012   18.0369     17.07849   6909.07657   -12.79966  0.98676  7757.45801    7e-05  58814.74631  52.43146  28.86878  19.45857  58853.49486 
    14.29188  1.58605  4.34281       2.66061         2472.40327  0.35331  0.01417     0.01047  28.56386     19.12458   7216.05674    -9.58167  1.22916  8906.23883   0.0074   58817.9643  52.58819  28.92819  19.49498  58854.43448 
    14.50863  2.19106  5.66117       2.90723         2463.50567  0.49811  0.01654     0.01324  20.18666     17.39664    4184.7649   -10.15981  1.12313  8120.10662  0.00014  58817.38616  52.48044  38.28398  19.54067   58852.4375 
    14.17315  1.83511  3.68001       1.92009         2240.72628  0.40454   0.0537      0.0336   6.71128     17.66566   3820.33371   -15.55921  0.74589  7376.40977  0.00026  58811.98676  52.29617   24.6499   19.4885  58852.52197 
    14.78544   1.7887  1.02595       1.06441          2272.8512  0.37063  0.01532     0.02249  31.51308     20.18263   4001.31398    -8.00958  0.54068  8930.61625   0.0846  58819.53639  52.59803  30.87331  19.55638  58853.49609 
    14.68775   1.8317  2.55296       4.79788         2765.08825  0.44193  0.02249     0.01601  21.54901     17.87896   3877.58773    -2.88707  1.52508  8724.79641  0.00042   58824.6589  52.54813  34.38356  19.49652  58854.43448 
    13.73371  1.26957  3.30079       2.58393         2696.40519  0.29178  0.02651     0.03042   9.27523     16.83868   4950.66686   -11.63417  1.23608   7799.4932    4e-05   58815.9118  52.37674  19.14439  19.52963  58853.49609 
     14.4026  1.60062  4.05091       4.00709         2186.78054  0.41364  0.02697     0.03895  12.05794     16.22026   5524.52152   -10.92862  0.37552   8848.7215    1e-05  58816.61736  52.51079  28.70908  19.51376  58854.43448 
    14.37434  1.80636  2.96022       0.09989         2994.02387  0.37123  0.01488     0.02307  23.63662     18.14913   3640.10187   -10.39653  0.91952  9498.73936  0.00078  58817.14945  52.62936  29.37955  19.48343  58855.48387 
    14.67899  1.72713  3.66965       4.04668         2783.04434  0.34955  0.01464     0.01072  31.15498     18.69313   5478.47571    -7.76584   1.0318  8675.99665  0.00274  58819.78013  52.57205   29.0598  19.50944  58854.43359 
    14.10319  1.94619  4.79357       1.98391         2899.51196  0.29937  0.01693     0.01359  12.07408     17.95902   3221.40912   -11.01412  0.89143  8170.38526  0.00051  58816.53185  52.44163  20.78402  19.48519  58853.49486 
    13.97188  1.80201  4.99035        4.0085         2932.77086  0.47932   0.0296     0.02118  10.05891     16.64108   7663.70143    -16.3678  1.52242   6634.6531    2e-05  58811.17817  52.24394   32.0114  19.52943  58855.36328 
    14.94613   1.9198  3.92654       3.40826         2884.95222  0.49787  0.01207     0.02571  24.63949     18.36248   3178.51451    -5.29651  1.44395  8648.53248  0.00128  58822.24946   52.5512  39.70051   19.5175  58855.19446 
    14.55989  1.69357  4.95158       2.07671         2591.13504  0.31816  0.01239     0.01132   26.2925     16.35264   4058.37013   -12.20228  0.36571  8419.04813    1e-05  58815.34369  52.53292  25.66921  19.52245  58853.49609 
    14.50876  1.94627  6.31778       4.86665         2847.06086  0.43024  0.01896     0.01736  18.17105     16.26813   7311.09989   -14.49108  0.53757  7095.71997    1e-05  58813.05489  52.35463  32.41316  19.51648  58853.49609 
    14.12309  1.86818  4.16927       1.35217         2472.82582  0.46658  0.02545     0.01273   9.14853     18.93175   4888.38211   -13.21023  0.74451  8727.34589  0.00475  58814.33574  52.47306  30.52048  19.47689  58854.43359 
    14.16403  1.85739  3.58865       0.14476         3401.03308  0.45444  0.01985     0.07624  10.38846      16.3743   4630.69468   -10.35525  0.99714  9054.31618    1e-05  58817.19072  52.51704   30.5617  19.50072  58854.43448 
    13.91913  1.27614  2.39658       0.04939          3357.0565  0.29069  0.01616     0.01306  16.90808     16.43437   7587.91883   -13.75571  1.04786  8742.84526    2e-05  58813.79026   52.5299  21.59718  19.49562  58854.43359 
    14.59541  1.74216  4.14611       1.28579         2936.29233  0.46354  0.01948      0.0103  18.25695      20.2698   6505.55513   -11.10863  0.34706  8956.91303   0.1034  58816.43734  52.55735  34.95333  19.49688  58853.49486 
    14.88071  1.88412  3.45013       2.42168         2801.02289  0.28367  0.01029     0.01168  38.45078     17.94028   3729.16222    -7.32662  0.59478  8317.52204  0.00048  58820.21935  52.55101  24.44595  19.51689  58853.49486 
    14.37132  1.75003  3.34499        0.4291         3817.39426  0.25091  0.01219     0.02565  19.72284     17.00935   9722.69221   -12.11471  0.54456  7133.16316    6e-05  58815.43126  52.36598  19.20064  19.51499  58854.43359 
    14.32068  1.58286  3.64824       1.79758         2221.74416  0.43337  0.01864     0.01594  18.50422     16.29865   4506.69806   -10.94011  0.72741  8464.09509    1e-05  58816.60587  52.50931  32.76299  19.50554  58853.49609 
    14.09185  1.59688  3.07914        0.2873         2006.39866   0.4113  0.02379     0.03694  12.32868     17.06525   4963.85667   -10.30957  1.08972  9325.02512    6e-05   58817.2364  52.55833  28.67878  19.52193  58852.52197 
    15.07021  1.94263  3.61492       3.29114         2825.45866  0.26695   0.0113     0.01084  41.58472     18.83042    5435.1142    -5.82198  0.47506   9645.6729  0.00376    58821.724  52.68536  23.30746   19.5122  58853.49486 
    14.34717   1.7328  4.16974        2.0383         2311.16029  0.33927  0.01706     0.01332  19.15062     16.17367   4798.85288   -11.74189  0.60284  8409.89549    1e-05  58815.80408  52.50657  25.81713  19.49504  58853.49609 
    14.02508  1.65465  4.12033       4.57131         2448.69939  0.29951  0.02366     0.02496  14.51068     18.05635   5540.01799   -13.18219  1.23831   6924.0217  0.00063  58814.36379  52.31418  21.58971  19.49263  58855.19446 
    14.62631  1.44024  3.07107       4.37419           2289.637   0.3738  0.02005     0.40748  26.40819     18.00627   5485.66548     -8.4754    0.496  9062.56367  0.00056  58819.07057  52.59724  30.18196   19.4988  58855.19446 
    14.53045   1.7824  3.84939       4.48052         2196.99636  0.48406  0.02665     0.01064  17.79985     16.48545   5397.69349    -9.96937  0.67306  8569.33712    2e-05   58817.5766  52.51681  36.32302  19.47799  58852.52197 
    14.54766  2.05849   4.4087        2.2711          2017.9097  0.34769   0.0264      0.0468  11.42853     16.36342   3271.30256   -13.33647  0.34729  8615.77129    1e-05   58814.2095  52.48274  23.86262  19.48591  58854.43448 
    14.35226   1.6895  6.01457        3.5198         2767.09767  0.40213  0.01473       0.051  24.37032     16.82814   3108.35143   -10.02831  1.20371  8280.56552    4e-05  58817.51766  52.51256  32.00217  19.51712  58855.48438 
    14.90266  1.93078  4.56641       4.39124         2335.54384  0.45857  0.02389     0.01308  18.45375     19.07479   3467.57587   -13.90057  0.24542  7663.22123   0.0066   58813.6454  52.42275  34.65018  19.50413  58853.49486 
    13.86628  1.60515  3.88836       1.80429         3030.34366  0.19154  0.01614     0.01122  19.01652     17.40104   5665.54438   -19.53158  1.27327   6993.0359  0.00014  58808.01439  52.34574  14.55588  19.53513  58854.43448 
    14.48375  1.22549  1.89082       4.26614         2356.62742  0.38262  0.01314      0.0163  29.05575     18.92223   9097.95201    -3.56017  0.95487  9296.04594  0.00464  58823.98581   52.6267  31.42301  19.50682  58854.43448 
    14.24194   1.4794  3.71791        4.8109         2010.30968  0.41986   0.0169     0.01129  24.89537     18.85242   5005.77364   -11.31263  1.27159  8911.18177  0.00396  58816.23334  52.57799  33.54268  19.51396  58854.43448 
    14.34673  1.83926  4.97401       2.77158         2645.33779  0.42544  0.02333     0.01383  14.26467     17.40484   6246.82581   -11.84915  0.62669  8189.23723  0.00014  58815.69682  52.45846   30.5623   19.5183  58853.49486 
    14.27621  1.56756  4.79183       4.28825         2592.86548   0.4922  0.01959     0.01112   19.1067     16.88574   5668.72207    -8.82145  1.37232  8371.10658    4e-05  58818.72452  52.50237   37.4388  19.52712  58854.43359 
    14.75438    1.625  3.11838       1.99417          2272.3615  0.20874  0.01005     0.01563  43.81176     16.08449   7119.61872    -9.34911  0.34854  8550.88774    1e-05  58818.19686  52.58445  18.38266  19.50946  58855.36328 
    14.40371   1.7091  3.30949       0.60737         2274.32534  0.32338  0.01809      0.0113  14.97098     16.44626   4187.25391   -13.41096   0.4063  7880.40113    2e-05  58814.13501  52.42928   23.4568  19.52015  58853.49486 
    14.02281  2.10767  4.63563       3.89363         2408.18655  0.27504  0.03047     0.01767   7.55578     17.89827   6208.44017   -12.65189  0.95398  8761.01872  0.00044  58814.89408  52.45763  17.23013  19.49938  58853.49486 
    14.08496  1.53469  3.17432       0.26823         2791.96418  0.26439  0.01627      0.0157  19.72338     18.39501   6938.72338   -12.16263  0.90942  8994.54256  0.00138  58815.38334  52.56738  20.23179  19.51069  58853.49486 
    14.34421  1.26468  4.05538       3.19807         2736.59661  0.49216  0.02003     0.01115   21.5359     17.89645   6206.12385    -8.35595  0.91357   8713.5675  0.00044  58819.19002  52.54697  38.28716  19.52333  58852.52197 
    13.85558  1.58336  2.43711       1.16068         2189.13294  0.32055   0.0161     0.02536  20.58535     20.77569   3047.40547   -13.81039  1.44782  8958.70892  0.33145  58813.73558  52.56741  24.72763  19.52151  58853.49609 
    14.37468  2.08805  5.55663       4.94007         2206.02529   0.3662  0.01465     0.01154  23.49756     17.72467   8042.47201     -8.9412  1.43509  9008.18367  0.00029  58818.60477  52.58283  28.94986  19.49922  58854.43359 
    13.93982  1.42414  3.29215        0.9759         2571.19893  0.42873  0.02434     0.01068  12.07031     19.67834   8288.33534   -12.55723  1.08266  8438.13493  0.02649  58814.98874  52.46961   29.7627   19.5094  58854.43448 
    14.26811  1.46509  4.15761       2.98706          2193.7561  0.46667  0.01906     0.03333  18.88262     18.29579   3478.18739   -10.27724  0.69125  9253.18142   0.0011  58817.26873  52.58841  35.41704   19.5134  58855.48438 
    14.08159  1.74711  4.91711       1.85602         3199.35751  0.48333  0.02148     0.02128  12.39361     16.70171   8422.03051    -9.50099   1.5593  7567.24182    3e-05  58818.04498  52.37738   33.7379  19.48714  58853.49609 
     14.3892  1.83164  5.80277       4.26504         2828.67333   0.2505  0.01183     0.01473   28.5827     16.86224   7354.21693   -11.01988  0.73343  7828.21775    4e-05   58816.5261  52.47617  20.51329  19.48465  58853.49609 
