 texplosion  fnickel     Pspin  log(Bfield)      Mns  thetaPB  mejecta    kappa  kappagamma      vejecta  temperature    alpha  cutoff_wavelength  log(nhhost)      A_V         MJD0  kenergy  mnickel           TSD   log(L0)  Peak_mag     Peak_MJD  log(E_rad)  log(Peak_lum)  Rise_Time    E_fold  tau_1  delta_m15     r_peak     frac 
   -0.61618  0.10088   8.40939     15.00214  1.01331  1.18789   1.4891  0.18703     0.23255  11424.09865   6141.77936  4.70491         4380.75192     16.78125    3e-05  58659.59043   1.1593  0.15022   65887.02436  45.60626  16.50868  58671.81054    49.59504        43.1244   10.05405  19.35499   17.5    1.18928  -19.21917  0.90823 
   -0.76217  0.08504  10.07093     14.97845  1.02128  1.55822  1.84336  0.08704     0.06617    7506.5393   6345.65995  4.75993         4641.76218     17.56958  0.00021  58659.44443  0.61961  0.15676  106218.71455  45.24565  16.50065  58671.81054    49.57336       43.10314   10.05405  19.35499   17.0    1.09809  -19.26732  0.85961 
   -0.68493  0.11682   9.53624     14.98374   1.0771  1.49284   1.1546  0.24134     0.35902  11500.27848   6189.91725  4.95728         4354.98738     17.53569  0.00019  58659.52167  0.91091  0.13488   98029.14557  45.35099  16.50193  58671.81054     49.6028       43.13714   10.05405  19.19169   17.0    1.25019  -19.28468  0.89676 
   -0.63336   0.1704   8.38595      14.9866  1.01151   1.3758  0.93072  0.30081      0.3634  11741.54124   5985.44638   4.5025         4370.86725     17.09238    7e-05  58659.57325  0.76541   0.1586   70256.43244  45.58002  16.50068  58671.81054    49.59199       43.11823   10.05405  19.35499   17.0    1.20204  -19.20451  0.90528 
    -0.5419  0.06556   7.19968     14.99876  1.01354  1.49637  2.39804  0.10046     0.12656  10513.76624   6396.13958  3.31459         4573.78005     18.56508  0.00204  58659.66471  1.58125  0.15722   49064.18464  45.86929   16.5028  58671.81054    49.58526       43.12271   10.05405  19.19169   17.5    1.18345  -19.21967  0.93951 
   -0.65205  0.07416   7.91169      14.9695  1.01909  1.37353  2.03089  0.11736     0.14641   9894.70032   6634.10889  3.87264         4532.00324     19.99207  0.05455  58659.55456  1.18609  0.15062    68166.4468  45.64695  16.50492  58671.81054     49.5846       43.11585   10.05405  19.19169   17.5    1.16501  -19.24926  0.92025 
   -0.66081    0.063   8.66655     15.00211  1.06454  1.38943   2.2463  0.12413     0.13954  10844.04973   6368.04942  4.52348         4504.94827     16.02293    1e-05   58659.5458  1.57571  0.14152   73526.41471  45.55387   16.4912  58671.81054    49.58738       43.13122   10.05405  18.20594   17.5      1.186  -19.29311  0.91373 
   -0.67453  0.07186   8.86071     14.97778  1.02483  1.53934  2.11879  0.10332     0.10242   9192.34209   6295.59102  4.31286         4576.36296     16.80139    4e-05  58659.53208  1.06799  0.15226   82763.53421  45.46672   16.4975  58671.81054    49.58383       43.12655   10.05405  18.20594   17.5    1.12209  -19.27906  0.89704 
   -0.63534   0.1667   8.57959     14.96223  1.00528  1.55249  0.87961  0.29681     0.39097  10920.63011   6259.61254  4.75094         4353.49505     17.06482    6e-05  58659.57127  0.62577  0.14663   81767.14099  45.49162  16.51006  58671.81054     49.5903       43.12467   10.05405  19.19412   17.0    1.17715   -19.2027   0.9042 
    -0.5675   0.0981   7.88356     14.97883  1.00045  1.38046  1.62035  0.18264     0.22262  11787.51425   6094.22694   4.5842         4424.63208      19.6251  0.02343  58659.63911  1.34301  0.15896   63650.80665  45.67179   16.5038  58671.81054    49.58837       43.12226   10.05405  19.35499   18.0    1.11102  -19.23274  0.91694 
   -0.58076  0.10136    8.1284     14.98289  1.00785  1.46356  1.53587  0.17256     0.18611  10936.92971   6207.59254  4.65384          4387.8364     18.05467  0.00063  58659.62584   1.0959  0.15568   66900.89315   45.6268  16.52256  58671.81054    49.59019       43.11329   10.22465  19.18439   18.0    1.16798  -19.20602  0.91381 
   -0.66831  0.06777   8.39016      15.0018  1.06378  1.39884  2.17599  0.11725     0.14767  10910.67841    6290.5428  3.43201         4506.40295      18.5729  0.00208   58659.5383  1.54521  0.14748   68960.01337  45.60956  16.49481  58671.81054    49.61237       43.11063   10.22465  19.18439   17.0    1.22912  -19.29891  0.91724 
   -0.59469  0.10241   8.30489     14.99148  1.04976  1.55519  1.34802  0.18662     0.38824  10317.34003   6379.65023  4.11098          4504.9637     18.54392  0.00194  58659.61192  0.85597  0.13805   69922.78553  45.60665  16.52121  58671.81054    49.59949       43.11405   10.05405  19.35499   17.5    1.15566  -19.21586  0.92271 
   -0.61443  0.15217   8.33635     14.99348  1.01851  1.42149  1.08572  0.22119     0.21343  10350.72642   6106.21894  4.15484         4462.25006      16.6613    3e-05  58659.59217  0.69389  0.16521   67728.86959  45.60408   16.5227  58671.81054    49.59474       43.11072   10.22465  19.18439   18.0    1.13031  -19.20751  0.90519 
   -0.67456  0.15226   8.47531     14.98728  1.00999  1.30793  1.00034  0.23281     0.25125   9951.40775   6125.04301  3.90017         4554.94878     16.96322    5e-05  58659.53205  0.59094  0.15231   71430.35411  45.56297  16.51537  58671.81054    49.59089        43.1177   10.05405  19.19169   17.0    1.17988   -19.2807  0.90536 
   -0.67096  0.12706   8.59894     14.96903  1.03237  1.35726  1.02522  0.27417     0.49345  10954.97008   6272.95532   4.5224         4414.71696        16.46    2e-05  58659.53565  0.73395  0.13027   81748.03492  45.50131  16.52627  58671.81054    49.59143       43.10837   10.22465  20.44931   17.5     1.1908  -19.27659  0.91539 
   -0.65359  0.05143    9.0709     14.97931  1.01144  1.41243  2.99239   0.0733       0.061   9216.61055   6363.90409  4.89417         4535.45564     17.33227  0.00012  58659.55302  1.51631   0.1539   85001.58388  45.42906  16.48883  58671.81054    49.58737        43.1232   10.05405  19.19169   17.5    1.13951  -19.20546  0.88842 
   -0.69538  0.05411   9.14028     14.98381  1.03513  1.56696  2.81155  0.06947     0.06058   8525.88956   6270.53018   4.4252          4538.3278     18.35505  0.00126  58659.51123  1.21914  0.15215   86518.51885  45.42481  16.50094  58671.81054     49.5968       43.12805   10.05405  19.35499   17.0    1.11396  -19.26698  0.89135 
   -0.59518  0.08955   7.83914     14.97937  1.00328  1.55605  1.79779  0.13462     0.13089  10224.07626   6007.71283  3.84378         4531.79153     18.90833   0.0045  58659.61143  1.12102    0.161   62955.10473   45.6827  16.50794  58671.81054    49.58668       43.10933   10.22465  20.44931   17.5    1.12057   -19.2112  0.91854 
   -0.63077   0.0749   8.56047     14.99339  1.00647  1.21128  1.96325  0.13276     0.15278  10742.08467   6417.70677  4.73537         4452.85773     18.43049   0.0015  58659.57584  1.35139  0.14705   70604.39465  45.55782  16.50247  58671.81054    49.57902       43.10495   10.22465  19.18439   18.0    1.16369  -19.21884  0.90487 
   -0.70246  0.04255   9.41273     14.99424  1.06683  1.42322  3.20029  0.06459     0.08623   8952.33368   6671.63988  4.34053         4631.91083     19.45786  0.01594  58659.50415  1.52999  0.13618   90127.98246  45.39465   16.5165  58671.81054    49.60742       43.13456   10.05405  19.19169   16.5    1.16976  -19.30171  0.89856 
   -0.77616  0.05514   9.52866     14.97256  1.00078  1.38246  2.90422  0.06759     0.05321   8810.94142   6246.24838  4.46121         4654.44625     19.12399  0.00739  58659.43045  1.34493  0.16013   95743.18457  45.33001  16.51245  58671.81054    49.59094       43.12231   10.05405  19.35499   17.0    1.13047  -19.27636  0.86859 
     -0.633  0.15901   8.99952     14.96859   1.0024  1.49368  0.90212  0.22717     0.22913   8705.96641   6584.50124  4.78761         4664.87973     18.28344  0.00107  58659.57361  0.40787  0.14344   87118.86851  45.42133  16.51619  58671.81054    49.60832       43.12644   10.05405  19.19169   17.5    1.16259  -19.23557   0.8954 
   -0.68348  0.14293   9.18749     14.98996  1.04119  1.44318  1.07147  0.18052     0.17055   8597.08061   6324.08034   4.2273         4595.26814     16.93775    5e-05  58659.52313   0.4724  0.15314   85470.98984  45.42816  16.50683  58671.81054    49.61046       43.09946   10.22465  19.18439   17.0    1.13083  -19.28711  0.89036 
    -0.7341  0.10096   9.07173     14.99057  1.00162   1.1576  1.40048  0.17327     0.36718   9845.24587   6308.20503  4.86177         4542.49563     17.52419  0.00019   58659.4725  0.80976   0.1414    79940.3138   45.4514  16.50978  58671.81054    49.61678       43.16137   10.05405  18.20594   17.5    1.15005  -19.26574  0.89305 
   -0.66896  0.18859   9.01145     14.99236  1.02224  1.43901  0.86609  0.28672     0.29612  10850.15661   6071.37638  4.73432         4395.49551     17.39327  0.00014  58659.53765  0.60822  0.16334   79843.14392  45.46657  16.50936  58671.81054     49.5888       43.12247   10.22465  19.18439   17.0    1.23432  -19.27406  0.88728 
   -0.72843  0.10523   9.04142     14.97793  1.04371  1.47664  1.34556   0.1435     0.19922    8433.4355   6381.46468   3.8414         4704.89958     19.27289  0.01041  58659.47818  0.57087  0.14159   87703.10193  45.43194   16.5124  58671.81054    49.59592       43.13025   10.05405  19.19169   17.0    1.12175  -19.29235  0.90054 
   -0.59235  0.14678   8.59642     14.99898  1.00316  1.41758  1.19057  0.19592      0.1736  10519.22359   6238.53735   4.4319         4456.99922     17.98888  0.00054  58659.61426  0.78587  0.17475   69160.19373  45.56172   16.4992  58671.81054     49.5944       43.13829   10.05405  18.20594   17.5    1.16987  -19.21389  0.89193 
   -0.57939  0.13963   7.17263     14.99915  1.00739  1.51108  1.21675    0.184     0.17472  10238.02322   6056.14639  2.96823         4656.25642     18.16602  0.00081  58659.62722  0.76078  0.16989   48314.67779  45.87661  16.48622  58671.81054    49.58314       43.11781   10.05405  19.19412   17.5     1.1611  -19.21707  0.93549 
   -0.67843  0.09939   9.18526      14.9953  1.02257  1.48666  1.65764  0.08431     0.05555   6784.16228   6475.07092    4.001         4733.80805     18.04028  0.00061  58659.52818   0.4551  0.16475   81862.73702  45.43927  16.48731  58671.81054    49.59207       43.13921   10.05405  18.20594   17.0     1.1526  -19.28838  0.88209 
   -0.61304  0.05385   8.23944     14.99883  1.03446  1.34631  2.75013    0.078     0.08407   8992.80925   6236.81703  4.02972         4544.84034     16.31873    1e-05  58659.59356   1.3267   0.1481   65563.30465   45.6351  16.49794  58671.81054    49.60439       43.15345    9.02016  19.09764   18.0    1.06907  -19.20054  0.91766 
    -0.7534  0.06246  10.18474     14.99218  1.06411  1.55603  2.53318  0.08747     0.08669   9979.39448    6214.6969  4.84153         4453.38037     18.84966  0.00393  58659.45321  1.50488  0.15823   106255.1765  45.25358  16.50849  58671.81054    49.60272       43.14272   10.05405  19.19169   17.0    1.18471  -19.27028  0.86266 
   -0.63547  0.18706     9.317     14.99265  1.03794  1.51881  0.87906   0.2355     0.21138    9440.9484   6334.14482  4.73639         4513.84841     19.80607  0.03555  58659.57113  0.46739  0.16444   86546.11245  45.40922  16.50273  58671.81054    49.61008        43.1245   10.05405  19.35499   17.5    1.20634  -19.25299  0.87989 
     -0.563   0.1271   7.93237     15.00742  1.00724  1.31928  1.30591  0.17175     0.14629   9360.00937   5940.24674  4.37602         4533.58053     19.05787  0.00635   58659.6436  0.68249  0.16598   56874.01799  45.71826  16.52029  58671.81054    49.59284       43.12193   10.05405  19.35499   18.0    1.07266  -19.20739  0.91602 
   -0.61482  0.14727   2.42681     14.75259   1.0373  0.74426  2.07343  0.05392         0.5   8732.96444   7932.43406  3.57143          2218.5777     21.25614  1.00199  58659.59178  0.94328  0.30534   17725.97186  47.26607  16.51508  58671.81054    49.57919       43.11226   10.22465  19.18439   19.5    1.15653  -20.07116  0.98812 
   -0.61378  0.11675   2.66819     14.74537  1.00226  0.75612  2.42127  0.04726         0.5   9044.44067   7515.19083  4.20871         2130.99227     21.22157  0.92533  58659.59283   1.1815  0.28267   21404.07287  47.08689  16.51492  58671.81054    49.64381       43.16193   10.05405  19.19169   18.5    1.11888  -19.99895   0.9848 
   -0.65827  0.09182   9.30608      14.9923  1.01986  1.48655  1.77347  0.12934     0.11757  10467.11537   6211.11606  4.26265         4597.08412     17.66652  0.00026  58659.54834  1.15906  0.16283   84974.83696  45.41056  16.47976  58671.81054    49.57732       43.12176   10.05405  18.20594   16.5    1.26223  -19.22474  0.87905 
   -0.60888  0.04522    8.2883     14.96667  1.01916  1.43272  3.04781   0.0879         0.5  10514.92356   6192.42396  4.36182         4497.84459     18.39406  0.00138  58659.59773  2.01015  0.13781    75796.9871   45.5605  16.52728  58670.55776    50.26306       44.01479    6.18831  13.59396   18.0    1.12091  -19.21761  0.91775 
   -0.74394    0.091   9.62349      14.9882  1.06219  1.36911  1.45484  0.16522     0.27819   9716.91499   6516.96727   4.8976         4545.37315     16.58841    2e-05  58659.46267  0.81941  0.13239   96446.51431   45.3441  16.52139  58670.55776    50.20442       43.93901    7.66849  12.11379   17.5    1.14871  -19.26736   0.8946 
   -0.68426  0.15835    8.8651     14.99016  1.01626  1.17915   0.9695  0.27445      0.3726  11461.57278   6222.64921  4.47661         4385.37223     19.76457  0.03231  58659.52234  0.75974  0.15352   77599.48891  45.49062  16.50922  58671.81054    49.61953       43.10331   10.22465  19.18439   17.0    1.25363  -19.31228  0.89267 
   -0.52322  0.13224   7.81577     14.99506  1.00632  1.40098  1.19678  0.22642     0.25073  10959.97753    6216.5119  4.71768         4401.11698     17.87894  0.00042  58659.68339  0.85755  0.15826   58394.72173  45.71926  16.51546  58671.81054    49.64488       43.14357   10.83166  19.18439   18.0    1.09412  -19.20919  0.92196 
   -0.64095  0.13086   8.41866     14.96412  1.01241   1.4924  1.10044  0.24334     0.42635  10842.92515   6188.43573  4.54011         4404.41058     17.44027  0.00015  58659.56566  0.77177  0.14401   78597.48791  45.52831  16.49897  58671.81054    49.60431       43.11733   10.22465  19.18439   17.5    1.14666  -19.20292  0.91057 
   -0.66418  0.13164   8.84786     14.97134  1.01361  1.32934   1.1079  0.25158     0.33178  11344.87824   6260.43195  4.72392         4401.12378     17.28947  0.00011  58659.54243   0.8506  0.14585   84077.69732  45.45636  16.51083  58671.81054    49.59982       43.10763   10.22465  20.44931   17.5    1.21855  -19.27766  0.89797 
   -0.70306  0.08918   9.69289     15.01735  1.11915  1.41943  1.46764  0.15555     0.28155   9140.02957   6457.73766  4.99786          4520.4595     18.89162  0.00433  58659.50355  0.73138  0.13088   90137.36574  45.38992  16.50729  58670.55776    50.41904       44.21132     6.0126  11.88054   17.5    1.12079  -19.28012  0.90273 
   -0.65494  0.07274   9.34013     14.98456  1.02514  1.43272  1.99524   0.1078     0.11318   9167.24157   6285.96296  4.86132          4593.5452     16.11407    1e-05  58659.55167  1.00023  0.14513   89163.42814  45.38873  16.51598  58670.55776    50.43335       44.22387     6.0126  11.88054   17.5    1.17518   -19.2149  0.88913 
   -0.66046  0.05944   9.08036     14.97814  1.00998  1.38251  2.56407  0.07927     0.06249   8525.32353   6495.05676  4.77951         4599.00705     16.54141    2e-05  58659.54615  1.11168   0.1524   85516.22838   45.4249  16.51334  58671.81054    49.61283       43.13426   10.05405  19.35499   17.5    1.09024  -19.27926  0.88853 
   -0.67571  0.08188   8.48291     15.00104  1.05461  1.55132  1.93946   0.1328     0.14325  11409.96877   6269.53541   3.4613          4516.2043     17.38879  0.00014   58659.5309  1.50618  0.15881   70131.68936  45.58893  16.51698  58671.81054    49.60518       43.12187   10.22465  19.18439   16.5    1.27646  -19.31008  0.90907 
   -0.63959  0.13496   9.03693     15.00048  1.02996  1.33652  1.12427  0.21507     0.25755  10596.23878   6369.53534  4.31239         4525.97205     17.95331   0.0005  58659.56701  0.75301  0.15173   77930.56016  45.47792  16.51128  58671.81054    49.59409       43.12539   10.83166  19.02109   17.5     1.1901  -19.21416  0.89448 
   -0.65218  0.08283   9.63474     15.00553   1.0019  1.53809   2.3178  0.06529     0.03969   7531.34702   6315.52766  4.89851         4688.35759     19.91244  0.04541  58659.55443  0.78424  0.19198   84191.61432  45.37672  16.51774  58671.81054    49.62178       43.15607   10.05405  19.19169   17.5    1.11797  -19.26168  0.84938 
   -0.68742  0.09941   9.05889     14.98504  1.02612  1.32992  1.46278  0.16446     0.18603  10233.77666   6401.00075  4.77864          4415.0837     17.10945    7e-05  58659.51918  0.91386  0.14542   83768.87295  45.44281   16.4862  58671.81054    49.59976       43.15094    9.02016  19.09764   17.0    1.20597  -19.27157  0.89553 
   -0.60936  0.05501   8.33915     15.00012   1.0535  1.42622  2.44155  0.07056     0.07358   7028.52788   6824.37698  4.06188         4764.65106     18.89058  0.00432  58659.59725  0.71948   0.1343    67991.4437  45.61678  16.50085  58671.81054    49.60252       43.12204   10.05405  19.19412   18.0      1.044  -19.21337  0.92458 
   -0.69302  0.10381    9.1768     14.98433  1.02638  1.47648  1.52371    0.123     0.09927   8393.72437   6437.40129  4.36059         4578.12107     19.09441   0.0069  58659.51358  0.64038  0.15817   86268.76473  45.41892  16.53421  58672.06069    49.60513       43.11903   10.22465  20.44931   17.0    1.11796  -19.27965  0.88538 
   -0.53007   0.0708   7.46313     14.99554  1.02981  1.54365  2.20028  0.12264     0.13172  10752.23805   6068.34844  4.26997         4460.55147     19.71952  0.02912  58659.67654  1.51741  0.15579   54366.30773  45.80043  16.52186  58671.81054     49.6047       43.13961   10.05405  19.35499   18.0     1.0753  -19.23618  0.93412 
   -0.64706  0.05989   9.02984     14.99125  1.05817  1.54416  2.15418  0.11531     0.43804  10020.99775   6729.54482  4.74704         4592.09367     17.26008   0.0001  58659.55955  1.29042  0.12902   83410.54675  45.46082  16.51185  58671.81054    49.61187       43.15407   10.05405  18.20594   17.5    1.15592  -19.22259  0.91164 
   -0.72118  0.09615   8.93769     14.98345  1.03515  1.25835  1.44582  0.19936     0.38677  11704.05533   5948.08362  4.41234         4398.24122     18.50315  0.00177  58659.48542  1.18144  0.13902   82865.49483  45.46303  16.37029  58670.55776    49.61202       43.17024   11.57052  15.50758   17.0    1.23765  -19.27483  0.90243 
   -0.65521  0.08408   8.43754     14.98045  1.02589  1.45232  1.75098  0.14513     0.16341  10032.21433   6242.93438  4.48676         4541.07296     16.06825    1e-05  58659.55139  1.05124  0.14722   74207.74132  45.55706  16.48897  58671.81054    49.60078       43.14026   10.05405  18.20594   17.5    1.14822  -19.20185  0.91116 
   -0.64197  0.05074    8.3229     14.97126  1.00784  1.52855  2.91616  0.09077     0.12773  11196.26639   6155.97645  4.25593         4433.97995     17.21043    9e-05  58659.56464  2.18065  0.14796   74001.65843  45.56245  16.50111  58671.81054    49.59783       43.12356   10.22465  19.18439   17.0    1.20358  -19.20697  0.91147 
   -0.65857  0.10473   8.87419     14.98651  1.03943  1.39519  1.29659  0.18592     0.33433   9794.38171   6216.29803  4.79219         4492.93101     18.10915  0.00071  58659.54804  0.74197  0.13579   80881.93093  45.48153  16.39939  58670.55776    49.70205       43.32936    9.62695  14.89498   17.0    1.18851  -19.20169  0.90832 
   -0.75726  0.10129   9.04933     14.98929  1.06322  1.36512  1.43174  0.16981     0.21178   9954.15866   6109.47761   4.1148         4482.17966     19.09209  0.00687  58659.44935  0.84625  0.14502   84936.48388  45.45314  16.36523  58670.55776    49.67601       43.28656   10.53618  14.43363   17.5    1.12406   -19.2614  0.90047 
    -0.6671  0.07209   9.29821     14.99216  1.05955  1.48139   2.0738  0.12773     0.19437  10951.54879   6036.42047  4.81885         4458.57386     16.05453    1e-05  58659.53951  1.48369   0.1495   88190.38802  45.41175  16.51904  58671.81054    49.59402       43.10824   10.22465  19.18439   17.0    1.20945  -19.29107  0.89209 
   -0.62496  0.06761   8.71094     14.99753  1.04804  1.52736  2.28892  0.11469     0.12832  10935.12212   6098.74828  4.49043         4460.52784     17.48916  0.00017  58659.58165  1.63269  0.15477   74691.89993  45.53582  16.51664  58671.81054    49.58947       43.09604   10.22465  20.44931   17.0    1.16304  -19.21747  0.90418 
   -0.69231  0.05544   8.60221     14.98349  1.00218   1.1935  2.59423  0.09948     0.12263  10209.60799   6236.45603   4.9542         4405.45998     18.32772  0.00118  58659.51429  1.61307  0.14383   74302.77717  45.52956  16.52474  58670.55776    50.35632       44.12742    6.18831  12.27902   17.5    1.14646  -19.26518  0.90378 
   -0.64448  0.10186   8.53425     14.97854  1.03937   1.3719  1.34563  0.19012     0.45185  10181.38157   6421.22142  4.58848         4442.12256     19.48686  0.01704  58659.56213  0.83209  0.13707   77594.52999  45.53345  16.52772  58670.55776    50.36274       44.13739    6.18831  12.27902   17.5    1.17912  -19.21748  0.91464 
   -0.71991  0.10392   9.74698     14.98787  1.05582  1.37658  1.50955   0.1566     0.16328   10417.0499   6254.53223  4.81454         4471.57084     19.89998  0.04413   58659.4867  0.97716  0.15688   98490.84283   45.3213  16.39212  58670.55776    49.70226       43.32293   10.53618  13.98575   17.0    1.20383  -19.31275  0.87337 
   -0.78338  0.10752   9.56933     14.95258  1.00894  1.51424  1.33824  0.15923     0.16497    9315.6518   6474.51026  4.56721         4558.92981     18.41929  0.00146  58659.42323  0.69277  0.14388  106727.44197  45.28267  16.38285  58670.55776    49.72193       43.36521    9.62695  13.61636   17.0     1.1579   -19.2651  0.87882 
    -0.5257  0.06131   7.66994     14.98137  1.01839  1.46371  2.25195  0.11402     0.13383  10000.64256   6206.92794  4.36258         4480.57877     16.99962    6e-05  58659.68091  1.34351  0.13806   60613.66394   45.7246  16.49925  58671.81054    49.58552       43.11496   10.05405  19.19412   17.5    1.04614  -19.21046  0.93403 
   -0.83424  0.08296  10.14743       14.998  1.09431  1.32909  1.54982  0.15022     0.49285   9661.33984    6275.0924  4.62571         4552.95133     17.92721  0.00047  58659.37237  0.86295  0.12857  105600.92563   45.2716  16.50708  58671.81054    49.62485       43.11727   10.22465  19.18439   17.0    1.15082  -19.26013  0.88907 
   -0.73135   0.0712   9.72705     14.97998  1.01517  1.38439  2.19545  0.09221     0.08545    9166.7832   6709.49921  4.52937         4604.17001     16.80579    4e-05  58659.47526  1.10049  0.15631   97801.59714  45.30907  16.49133  58671.81054    49.56202       43.09782   10.22465  19.18439   17.0    1.16258  -19.27431  0.86835 
   -0.74231  0.10675  10.06226     14.98715  1.04531   1.4367  1.40001  0.13764     0.12099   8568.31593   6606.76921    4.984          4537.8142     18.76809  0.00326  58659.46429  0.61312  0.14945  104267.16234  45.26455  16.50651  58671.81054    49.60011       43.12723   10.05405  19.35499   17.0    1.12548  -19.26169  0.86922 
   -0.48572  0.10372   7.53692     15.00058  1.00987  1.39809  1.49415  0.18231     0.20199  10798.51585   6163.59558  4.86259         4389.70645     16.21113    1e-05  58659.72088  1.03932  0.15497   53125.21565  45.79342   16.5108  58671.81054    49.59407       43.13038   10.05405  19.19169   17.5     1.0918  -19.21645  0.93148 
   -0.56664  0.09955   8.03218     14.97602  1.02103  1.54486  1.39954  0.19498     0.33462  10666.06252   6302.18974  4.82594         4522.35667     19.71943  0.02912  58659.63997  0.94977  0.13932   68310.72702  45.63373  16.50279  58671.81054    49.59397       43.13166   10.05405  19.19169   17.5    1.09786   -19.2485  0.92478 
   -0.66618  0.06485   9.28636     14.97604  1.01384  1.42834  2.29914  0.09924     0.09665   9664.88726   6472.27894  4.97471         4511.76823     17.20763    9e-05  58659.54043  1.28111  0.14911   90654.38766  45.38173  16.48439  58671.81054    49.58258       43.12405   10.66106  18.20594   17.0    1.16539  -19.26967  0.88561 
   -0.65399  0.08889   8.72681     14.97781  1.00971   1.5456  1.85154  0.14666     0.13874  11173.04881   5953.31356  4.98323         4419.79082     17.94166  0.00049  58659.55261  1.37881  0.16459   79088.20175  45.49322  16.51464  58671.81054    49.59535       43.12872   10.05405  19.19412   17.5    1.14195  -19.20553  0.89201 
   -0.62499   0.1118   8.47073     14.97265  1.01739  1.56553  1.36424  0.18927     0.21335   10469.1864   6089.73202  4.75837         4473.14944      19.6558  0.02515  58659.58162  0.89196  0.15253   76883.57379  45.53466  16.50304  58671.81054    49.61988       43.11094   10.22465  19.18439   18.0    1.12535  -19.22689  0.90606 
   -0.58941  0.08151     8.063     14.98266  1.01285  1.37489  1.77723  0.15885     0.21472  11451.63825   6416.04098  4.22508         4492.84031     16.15296    1e-05   58659.6172  1.39029  0.14486   66227.14152  45.64036  16.50519  58671.81054    49.59347       43.12463   10.05405  19.19412   17.5    1.20386  -19.22444  0.92052 
   -0.64887  0.04898   8.54995     14.99462  1.01002  1.14075  2.76488   0.0892     0.44107   9588.52547   6306.42326  4.83968         4531.24307     18.15872   0.0008  58659.55774  1.51638  0.13543   70280.82004  45.56241  16.51945  58671.81054    49.59551       43.11987   10.22465  19.18439   17.5    1.13698  -19.21658    0.911 
   -1.98791   0.0217  17.61049     14.85615  1.21958  1.42785  3.66394  0.02474     0.49654    6343.4891   7672.59634  4.03618          4878.9175     19.28163  0.01063   58658.2187  0.87949  0.07952  681176.14489  44.03025   16.4911  58671.81054    49.58972       43.12854   10.05405  18.20594   16.0    1.30328  -19.34242  0.81959 
   -0.58907  0.05474   8.74739     14.98673  1.00009  1.34014  2.81422  0.07153     0.05998   8453.28689   6352.56028  4.87572         4613.37684     18.21333  0.00091  58659.61754   1.1996  0.15405   75537.47997  45.50697  16.49579  58671.81054    49.57982       43.11521   10.05405  19.19169   18.0    1.05306  -19.22444  0.89639 
   -0.68009  0.08738   8.73829     14.97933  1.01275  1.31607  1.78651  0.13984     0.18956  10719.82707   6249.68658  4.47516         4467.03785     19.85092  0.03941  58659.52652  1.22464   0.1561   78979.74582  45.49398  16.48578  58671.81054    49.57478       43.10603   10.05405  19.19412   17.0    1.22313   -19.3122  0.89533 
    -0.6591  0.15377   8.99485     14.99175  1.05503  1.39578  0.93008  0.29147      0.3809  11119.57174   6213.91015  4.62959         4416.41799     18.78659   0.0034   58659.5475    0.686  0.14302    82332.8783  45.46855  16.49545  58671.81054    49.59358       43.13257   10.05405  18.20594   17.0    1.17158  -19.21282  0.90288 
   -0.80148  0.10487   9.00449     15.00093  1.02906  1.10329  1.26793  0.19201     0.45863   9877.16388    6444.0869  4.20829          4503.8941     16.40751    1e-05  58659.40512  0.73788  0.13297   77145.94854  45.48505  16.51264  58671.81054    49.59806       43.10287   10.22465  19.18439   17.5    1.13517  -19.24998  0.90309 
   -0.65996  0.04214   8.90728     14.99846  1.04536  1.30751  3.06405  0.06892         0.5   8307.71802   7012.70624  4.74524         4665.85953     16.09085    1e-05  58659.54665   1.2615  0.12912   77563.37899  45.49896  16.52278  58671.81054    49.58961       43.11865   10.05405  19.35499   17.5    1.09071  -19.28468  0.91251 
   -0.64556  0.08144   8.10017     14.95747  1.01319  1.54209  1.82677  0.11484      0.1274   8994.24897   6673.95457  4.09225         4624.02229     20.21455  0.09105  58659.56105  0.88154  0.14876   75086.36919  45.58199  16.49254  58671.81054      49.604       43.13963   10.05405  18.20594   17.5    1.16692  -19.28506  0.91552 
   -0.67407   0.1452   9.04126     14.97532  1.04125  1.50709  0.99163  0.25983     0.30068  10634.94725   6193.71366   4.8451          4397.9948     18.47627  0.00166  58659.53254  0.66903  0.14398    88549.8609  45.42675  16.51568  58671.81054    49.59225       43.12415   10.05405  19.19412   17.0    1.20013  -19.28195  0.89862 
   -0.56402  0.05786   7.77217     14.98959  1.01778  1.46824  2.53157   0.0735      0.0676   7667.07752   6491.73541   3.9431         4737.94871     19.39002  0.01364  58659.64258  0.88772  0.14648   59893.25062  45.71804  16.50092  58671.81054    49.61818       43.17172    9.02016  18.46593   18.0    1.01147  -19.21993  0.92887 
   -0.60908  0.09911   8.22041     14.99482  1.01598  1.49465  1.57546  0.12931     0.12549   9160.22683   6288.10687  3.87041         4627.49525     17.08406    7e-05  58659.59753  0.78858  0.15615    65291.4222  45.63109  16.49166  58671.81054    49.59199       43.14135   10.05405  18.06374   17.0    1.13741  -19.21912  0.91355 
   -0.67789  0.06402   9.72939     14.99966   1.0332   1.5455  2.69941  0.07469     0.05636   9331.61024   6030.60426  4.66923         4580.57898     17.08469    7e-05  58659.52872   1.4022  0.17282   90961.77476    45.348  16.51823  58671.81054    49.59961       43.13507   10.05405  19.19169   16.5    1.17043  -19.29532  0.86247 
   -0.63775  0.07211   8.60877     14.98826  1.01391  1.54187  2.22315  0.07371      0.0528   7544.60021   6550.73601   3.7967          4774.4205     16.58612    2e-05  58659.56886  0.75486   0.1603   73649.34272  45.53779   16.5018  58671.81054    49.58761       43.12186   10.22465  19.02109   17.5    1.10699  -19.22338   0.8997 
   -0.56072  0.11494   7.46115     15.00495  1.03533  1.35271   1.2209  0.17007       0.193   8737.62666   6383.21961  3.41832         4714.88799     17.02745    6e-05  58659.64589  0.55602  0.14033   52311.39563  45.81972  16.50183  58671.81054    49.59461       43.13302   10.05405  19.19169   17.5    1.08965  -19.22279  0.94044 
   -0.59155  0.12566   7.85731     14.99837  1.02122  1.54667  1.31766    0.187     0.17755  10704.30556   6218.99287  3.73802         4512.14224     17.18638    9e-05  58659.61506  0.90063  0.16557   58984.66645  45.71668  16.52451  58671.81054    49.59535       43.12061   10.05405  19.35499   17.5    1.16479  -19.21479  0.91985 
   -0.55416  0.10316   7.90906     14.99203  1.01519  1.29845  1.38138    0.204     0.47151  11251.65203   6198.72656  4.16572         4538.69234     18.94934  0.00494  58659.65245  1.04322  0.14251   61171.61176  45.69259  16.51825  58670.55776    50.43127       44.21346     6.0126  11.88054   17.5     1.1215  -19.23612  0.92579 
   -0.66682  0.09411    8.7278     14.97653  1.00385  1.27398  1.57981  0.17199     0.21969  11285.87156   6277.58193  4.76251         4352.70471     16.01583    1e-05  58659.53979  1.20033  0.14867   79110.92332  45.49047  16.50655  58671.81054    49.58737        43.1186   10.05405  19.35499   17.0    1.23298  -19.27508  0.89828 
   -0.61645  0.12847   8.73789     14.98855   1.0198  1.43506  1.26643  0.22745     0.22888  11830.13284   5966.97436  4.87243         4446.75145     17.18784    9e-05  58659.59016  1.05728   0.1627    76214.7304  45.51251  16.53036  58670.55776    50.37712       44.15373     6.0126  12.45473   18.0    1.18866  -19.22235  0.89471 
    -0.5906  0.09924   8.48843     15.00889  1.03724  1.37683  1.67334   0.1754      0.1907  12497.21397    5908.8407  4.36072         4434.90424     19.19816  0.00877    58659.616  1.55897  0.16607   66614.59311   45.6035  16.51586  58671.81054    49.60231       43.13733   10.05405  19.19169   17.5    1.25438  -19.24048  0.90373 
   -0.77635   0.0579   9.39797      14.9581  1.00458   1.4234  2.52595  0.07702     0.08153   8605.03417   6189.94387  4.41776         4625.82103     18.10074   0.0007  58659.43026  1.11572  0.14625   99921.92585   45.3251  16.51356  58671.81054    49.57684       43.10622   10.22465  19.18439   17.0    1.13145  -19.27581  0.88137 
    -0.7592  0.07643   9.51329     14.96901  1.00082   1.3064  1.95495  0.09668     0.09011   8609.09951   6536.61054  4.39551         4584.46018     16.88429    4e-05   58659.4474  0.86433  0.14941   97010.10087  45.32572  16.49324  58671.81054    49.57627       43.11429   10.05405  19.19169   17.0    1.14357   -19.2678  0.87546 
   -0.67637  0.07218   9.38875     15.00187   1.0501  1.51672  2.06914  0.09192     0.07542   8090.11197   6581.91274  4.96037         4624.50736     16.30732    1e-05  58659.53024  0.80784  0.14935   85214.67125  45.41435  16.49942  58671.81054    49.58922       43.12485   10.22465  19.02352   17.0    1.10134  -19.28374  0.89016 
   -0.67732  0.07721   8.54922      14.9997  1.02049  1.13591  1.84968  0.11649     0.13105   8864.17514   6674.77383  4.77151         4586.87642     20.09781  0.06959  58659.52929  0.86696  0.14281   69354.62788  45.57273   16.5194  58671.81054     49.5972       43.12467   10.05405  19.35499   17.0    1.13352  -19.35054    0.908 
    -0.5995  0.08195   8.59051     14.99756  1.03035  1.54979  1.97568  0.11651     0.10898   9730.80067   6414.77916  4.40564         4592.24845     18.94771  0.00493   58659.6071  1.11594   0.1619   71403.07208  45.56007  16.50936  58671.81054    49.61404       43.15741    9.02016  19.09764   18.0    1.10622  -19.22929  0.90208 
   -0.76317  0.05663   9.76353     14.96489   1.0036  1.56941  2.92639  0.07363     0.06483   9978.80599   6101.49503  4.78283          4449.6749     18.03925  0.00061  58659.44344  1.73827  0.16572   104425.4186  45.27238  16.51297  58671.81054     49.6221       43.15973   10.05405  19.19169   17.0    1.19922  -19.26614  0.85788 
   -0.57852  0.06816    8.3155     14.98879  1.01058  1.33723  2.08566  0.12171     0.15827  10477.69876   6692.32242  4.32363         4577.14889     16.51256    2e-05  58659.62809  1.36585  0.14216    68326.3095  45.59905  16.51263  58671.81054    49.58516       43.11284   10.22465  19.18439   17.5    1.17424  -19.22564  0.91578 
   -0.69371  0.12877   9.44008     14.97761  1.02922  1.50259  1.17686   0.1454      0.1203   7789.31839   6724.25424  4.44863         4655.76068     19.58069  0.02116   58659.5129  0.42594  0.15155   94417.55957  45.35635  16.51179  58671.81054    49.59098       43.11969   10.05405  19.35499   17.0     1.1142  -19.30182  0.88204 
   -0.63186  0.08439   8.46668     14.97813  1.01009  1.40596  1.79415  0.13363     0.13651   10066.5544   6213.07313  4.41588         4489.54083     16.33716    1e-05  58659.57475  1.08454  0.15141   74360.84057  45.54644  16.52175  58671.81054    49.59302       43.12415   10.05405  19.19169   17.0    1.12695  -19.21068  0.90612 
     -0.601  0.05777   8.09543     14.97206  1.02932  1.42717  2.29813  0.14239     0.24158  12005.02464   6271.71795  4.95951         4384.50039     18.77111  0.00328  58659.60561  1.97573  0.13275   71240.02491  45.61219  16.52209  58671.81054      49.603       43.12297   10.22465  19.18439   18.5     1.1725  -19.20705  0.92622 
   -0.69866  0.09676   9.02492     15.00484  1.04891  1.28035  1.56416  0.19144     0.22285  12438.33887   6288.88561  4.54142         4406.33454      18.1476  0.00078  58659.50795  1.44356  0.15135   77580.35918  45.48895  16.52446  58671.81054    49.59213       43.12122   10.05405  19.35499   17.0     1.2219   -19.2916  0.89657 
    -0.7148  0.09683   9.04309     14.98514  1.01997  1.39599  1.66824  0.16836      0.1883  11814.37651   6085.03097  4.82121         4377.97433     17.03304    6e-05   58659.4918  1.38902  0.16154   82938.58812  45.44604  16.51041  58671.81054    49.60796        43.1535   10.05405  18.20594   17.0     1.1781  -19.26796  0.88587 
   -0.74488  0.05906   9.72394     14.97519  1.05685  1.37403   2.2776  0.11733     0.49052  10792.79772   6406.43319  4.82107         4513.63979     16.43486    2e-05  58659.46173   1.5826  0.13452  104024.61563  45.30004  16.51234  58671.81054    49.60676       43.13145   10.05405  19.19169   17.5    1.18447  -19.27849  0.88888 
   -0.55321  0.10352   7.76041     14.99224  1.00755  1.23804   1.3523  0.21376     0.36659  10973.36396   6040.01243  4.80103          4416.1394     16.44161    2e-05   58659.6534  0.97136  0.13999   58394.03046  45.72598  16.51538  58671.81054    49.60027       43.13282   10.05405  19.19169   18.0    1.07539   -19.2121  0.92911 
   -0.59642  0.09066   7.98426     14.96316  1.00955  1.48396   1.4742  0.20178     0.38348  11235.29818   6252.42354  4.80095         4424.91969     17.09962    7e-05  58659.61019  1.11008  0.13365   70809.89451  45.61841  16.51888  58671.81054    49.59498       43.13032   10.05405  19.19169   18.0    1.15848   -19.2057  0.92637 
   -0.59281  0.09076    8.3585     14.98362  1.01241  1.50925  1.63514  0.14131     0.17736   9703.45967   6262.48138  4.29082         4571.14378     16.29262    1e-05  58659.61379  0.91841  0.14841   70825.34423  45.57976  16.51905  58671.81054    49.59585        43.1217   10.22465  19.18439   17.5    1.12916  -19.21042   0.9122 
   -0.69272   0.1143   9.33972     14.97486  1.02438  1.52489  1.33871  0.19945     0.20588  11370.65427   6244.67207   4.9039         4412.59885      17.3531  0.00013  58659.51388  1.03249  0.15302   93158.42603  45.36942  16.51606  58671.81054    49.58761        43.1254   10.05405  19.19169   17.0    1.17684  -19.27185    0.883 
   -0.64512  0.06068   8.31789      14.9821  1.05575  1.32635  2.34987  0.10504     0.32557  10102.07343   6590.73309  4.07847         4533.09105     20.19566  0.08717  58659.56149  1.43051  0.14258    73655.8173  45.58517  16.52706  58671.81054    49.59792       43.11972   10.05405  19.35499   17.5    1.18283  -19.28263  0.91791 
   -0.80292  0.07658  10.82113     15.03555  1.12385   1.3949  1.97879  0.09759     0.08764   8988.11274   6402.44181  4.32026         4688.44363      19.1284  0.00747  58659.40369   0.9536  0.15153  103743.08244  45.23505  16.49607  58671.81054    49.57959       43.11882   10.05405  19.19169   16.5    1.17762  -19.28554   0.8623 
   -0.62799   0.2006   3.36815     14.97217  1.04532  0.50073  1.51665   0.0828     0.17634   9323.84309   7285.73481  4.96422         2291.63216     21.18781  0.85612  58659.57862   0.7865  0.30424   12516.90273  47.13582   16.5058  58671.81054    49.58525       43.10491   10.22465  19.18439   18.5     1.1294  -19.94567  0.97323 
   -2.24951  0.02829   16.6371     14.97404   1.2318  0.68277  2.49755  0.02347         0.5   6329.72196   6586.86897  1.88621         5253.14138     16.24114    1e-05  58657.95709  0.59691  0.07066  356800.92893   44.3648  16.52051  58671.98669    49.60312       43.13283   10.05405  19.35499   17.0     1.2747  -19.30731  0.85293 
   -2.15713  0.02337   15.5666     14.88581   1.1452   0.8545  3.07886  0.02059         0.5   5615.81511    7185.9415   2.2287         5376.36995     16.82885    4e-05  58658.04948  0.57922  0.07195  435969.80526  44.30388  16.49964  58671.81054    49.59834       43.11621   10.22465  19.18439   16.5    1.28671  -19.33499  0.85385 
   -0.66278  0.12353   8.69384     14.97243  1.03455   1.5114  1.08877  0.25298     0.49895  10721.50187   6298.07346  4.86042         4458.91102     17.85456   0.0004  58659.54383  0.74658   0.1345   82439.92955  45.48904  16.50719  58671.81054    49.59331       43.12237   10.05405  19.35499   17.5    1.19163  -19.28032  0.91214 
   -0.61039    0.115   8.31319     14.95669  1.01132  1.51746  1.12345  0.24723     0.49705   10203.2102   6409.98545  4.86229          4566.6196     17.79199  0.00034  58659.59621  0.69767   0.1292   79223.64074  45.53535  16.52717  58671.81054     49.5911       43.11252   10.22465  19.18439   18.5    1.08407   -19.2102  0.92067 
   -0.64892  0.10102   2.96749     14.73931  1.01436  0.77458  2.61151   0.0437         0.5   9007.78323   7290.77308  4.82553         2118.41964     21.21385  0.90903  58659.55769  1.26402  0.26382   27552.94442  46.89009  16.51825  58671.81054    49.61301       43.12796   10.05405  19.35499   19.0    1.12186   -19.9914  0.98081 
    -0.6554  0.09673   2.98563     14.73145  1.01648   0.7811  2.67715   0.0421         0.5   9005.45667   7235.17446   4.9856          2094.5928     21.21982  0.92161  58659.55121  1.29512  0.25897   28979.22716  46.86378  16.50242  58671.81054    49.59705       43.13324   10.22465  19.02109   19.5    1.12695  -19.99945  0.98067 
   -2.19711  0.02018   14.8301     14.74809  1.11721  1.20112  3.27966  0.01853         0.5    5662.5769   7801.50681  2.09062         5343.94423     19.94678  0.04915   58658.0095  0.62731  0.06618   727874.6098  44.11263  16.50031  58671.81054    49.58041       43.11832   10.05405  19.19169   17.0    1.26498  -19.35524  0.87076 
   -1.98545  0.02633  13.62209     14.83005  1.11701   1.0809  3.21228  0.01965         0.5   5754.89744   7316.13057  1.81213         5402.09202     18.97922   0.0053  58658.22116  0.63462  0.08458  420982.51862  44.42415  16.52467  58671.81054    49.58969       43.12227   10.05405  19.35499   16.5    1.32721  -19.31854  0.86261 
   -0.66455  0.11147   9.11938     15.00909  1.05179  1.30602  1.30809  0.17391     0.19726   9547.59124   6133.35643  4.71549         4555.99324     18.86699  0.00409  58659.54206   0.7113  0.14581   77891.35278  45.47935   16.4973  58671.81054    49.60354       43.11548   10.83166  19.02109   16.5    1.17322  -19.29627  0.89871 
   -0.67244  0.04127   8.96621     15.00389  1.07647  1.30659   3.2739  0.08154     0.45999  10374.23093   6198.59272  4.63334         4482.50216      16.8268    4e-05  58659.53417  2.10186  0.13512   78932.24399  45.49837   16.4971  58671.81054    49.58041       43.11506   10.05405  19.19169   17.5    1.15205  -19.28603  0.91059 
   -0.74852  0.10918  10.25947     14.98592  1.02316  1.43457  1.43346  0.12149     0.08146   7909.51084   6905.99442  4.92319         4695.63403     17.61622  0.00023  58659.45808  0.53495   0.1565  106700.55797  45.22837  16.50774  58671.81054    49.57513       43.11083   10.22465  19.02109   17.5    1.09773  -19.27211    0.855 
   -0.64738  0.05502   8.66175     14.99461  1.03432  1.39786   2.8836  0.08776     0.09996  10670.79069   6214.28161  4.40723         4454.42033     17.25395   0.0001  58659.55923  1.95864  0.15865    73868.8203  45.53983  16.53022  58671.81054    49.59215       43.11418   10.05405  19.35499   17.5    1.21066  -19.21353  0.90095 
   -0.67695  0.06976    8.9443     15.00467  1.07982  1.50519  2.02133   0.1208     0.15839   10207.6198   6576.15241  4.04703         4546.05942     19.06797   0.0065  58659.52965  1.25636  0.14101   78508.75979  45.50418  16.50904  58671.81054    49.59826       43.11723   10.05405  19.35499   17.0    1.19869  -19.29067  0.90955 
   -0.72921  0.05107   9.42981     14.96871  1.03527  1.50085  2.89092   0.0728     0.07838   9208.34468   6528.99891  4.39433         4540.30981     19.41305  0.01438  58659.47739  1.46227  0.14765   98730.46388  45.34044  16.51613  58671.81054    49.57491       43.10427   10.22465  19.18439   17.0    1.14453  -19.28281  0.88468 
   -0.89753  0.04264   10.8865     14.99121  1.03332  1.12464  3.29506  0.04992     0.05302   7745.26945   6561.62382  4.85134         4573.09168     18.62639  0.00235  58659.30908  1.17914  0.14051  118416.84464  45.13589  16.51639  58671.81054    49.58816       43.10951   10.22465  20.44931   17.0    1.16958  -19.25888  0.84936 
   -0.62776  0.10521    8.8842     14.98411  1.00452  1.56175  1.69811  0.13953       0.122  10517.89764   5897.70409  4.90814         4458.20103     19.54352  0.01942  58659.57884   1.1206  0.17866   79213.74968  45.47477  16.51586  58671.81054    49.59216       43.11222   10.05405  19.35499   17.0     1.1473  -19.24135  0.87936 
   -0.59472   0.0723   7.69149     14.97772  1.00263   1.3969  2.02544  0.11596     0.11871   9430.99486   6458.06735  3.85734          4623.2382     16.87992    4e-05  58659.61188  1.07463  0.14643   61028.01864  45.71243  16.51071  58671.81054    49.62817       43.12205   10.05405  19.35499   18.0    1.07139  -19.20546  0.92791 
   -0.62785  0.12464   8.47056     15.00789  1.02584  1.25553  1.23501  0.16714     0.17638   9101.37624   6272.31483  3.74562         4679.73919     16.94627    5e-05  58659.57876  0.61026  0.15393   65909.85219  45.60515  16.51299  58671.81054    49.59687       43.12968   10.05405  19.19169   17.0    1.17175  -19.22852  0.90772 
   -0.68647   0.1094   8.41523     14.99399  1.03952  1.36786  1.43617  0.17139     0.20137  10776.30155   6355.36123  3.70704         4487.62166     19.63558  0.02401  58659.52014  0.99488  0.15711   70276.42693  45.58874  16.51259  58671.81054    49.60319       43.12626   10.22465  19.18439   17.0    1.23408  -19.31119  0.90845 
   -0.74374  0.18082    4.1435     14.98812  1.04603  0.48486  1.59054  0.07531     0.13653   8904.90151   7296.62057  4.98563         2449.42809     21.15876  0.80074  58659.46287  0.75237   0.2876   17613.69699   46.8078   16.5059  58671.81054    49.60873       43.14315   10.05405  19.19169   18.5    1.08211  -19.96778  0.95619 
   -0.71488  0.04648   9.16715     14.95948   1.0051     1.43  2.92987  0.06155     0.49349   7446.77793    6676.0927  4.83258          4649.4614     17.74039  0.00031  58659.49173   0.9692  0.13617    94521.9618  45.37105  16.52947  58671.81054     49.5935       43.11555   10.05405  19.35499   17.5    1.04614  -19.26373  0.89481 
   -0.84562  0.06356   9.53969     14.97033  1.07641  1.41037  2.22721  0.10154         0.5   9300.20109   6800.04207  4.59294         4538.34444     20.15706  0.07976  58659.36099  1.14914  0.14157  104280.66418  45.32355  16.51948  58671.81054    49.60419       43.12378   10.05405  19.35499   17.5    1.09688  -19.31145  0.89035 
    -0.7438  0.08661   9.14378     14.95353  1.02881  1.42998  1.52204  0.18157     0.48326  10988.31854   6246.14468  4.83754         4444.48513     16.29697    1e-05  58659.46281  1.09627  0.13182   98933.57439  45.36359  16.51616  58671.81054    49.59149       43.11755   10.22465  19.18439   17.0    1.19645  -19.27815  0.90024 
   -0.67903  0.06787   8.78907     14.99312  1.02864  1.16992  1.92085  0.13727     0.33337  10079.87943   6375.27442  4.87822         4502.33449     16.13057    1e-05  58659.52758  1.16421  0.13036   76160.05347   45.5115  16.50305  58671.81054    49.59282       43.11201   10.22465  19.18439   17.5    1.13485  -19.27882   0.9104 
   -0.72025  0.28347    3.2487     14.96832  1.29515  0.58057   0.9635  0.10742         0.5   8421.67624   7393.13226   3.0774         2351.97258     21.25388  0.99681  58659.48635  0.40764  0.27312   14686.67732  47.19082  16.50401  58671.81054    49.57443       43.10355   10.22465  19.18439   18.5    1.10147   -20.1899  0.98361 
   -0.64398  0.27514   2.86405     14.96773  1.24021  0.55181  1.07062  0.10387         0.5   8808.50229   7314.48698  3.63542         2209.00751     21.26708  1.02756  58659.56262  0.49553  0.29457   10960.07401  47.40856  16.50683  58671.81054    49.57734       43.10695   10.22465  19.18439   19.5    1.16411  -20.09575   0.9869 
   -0.61448  0.11636    8.4398     14.99243  1.06195  1.46947  1.25169  0.24247     0.46132  12153.11181   6204.70581  4.67016         4345.22775     19.65897  0.02533  58659.59213  1.10281  0.14564    72731.3048  45.58056  16.49794  58671.81054    49.60457       43.15213   10.05405  18.20594   17.5    1.21857   -19.2387  0.91623 
   -0.62298  0.13722   8.32551     14.97595  1.00986  1.22451  0.98141  0.25898         0.5   9870.25889   6355.03785  4.89451         4468.58916     19.69586  0.02758  58659.58362  0.57034  0.13467     72609.844  45.57129  16.50948  58671.81054    49.58659       43.12048   10.05405  19.19169   18.0    1.09133  -19.23163  0.91645 
   -0.95796  0.06601  11.11631     14.98736  1.04855  1.26938    2.477  0.07917     0.08159   9355.22696    6119.1096  4.93657         4490.74511     19.82179  0.03686  58659.24864  1.29319   0.1635  127525.21951  45.09192  16.49334  58671.81054    49.58976       43.12014   10.05405  19.19169   17.0    1.22288  -19.26165  0.82669 
   -0.56921  0.06825    7.1712     14.98501  1.01304  1.27441  2.12344  0.11664     0.15317   9746.29644   6346.73208  3.96615         4518.10068      19.9557  0.05017   58659.6374  1.20322  0.14493   51832.27986  45.84869  16.51572  58671.81054     49.5853       43.12112   10.05405  19.19169   18.0    1.08474  -19.24948  0.94071 
    -0.6757  0.07107   8.48278     15.00926  1.04925  1.37463  2.17962  0.10199     0.10093  10004.41846   6679.63863  3.35077         4738.41076      19.3806  0.01335  58659.53091  1.30134   0.1549   67183.15462  45.60539  16.50414  58671.81054    49.59076       43.12576   10.05405  19.19169   16.5    1.23676  -19.33071  0.91069 
   -0.70759   0.1186   9.36291     14.99988   1.0945  1.45648  1.11251  0.21833     0.48776   9826.50609   6460.77439  4.39328         4543.67909     16.68952    3e-05  58659.49902  0.64081  0.13195   89142.69463  45.41516  16.50762  58671.81054    49.58931       43.12887   10.05405  19.19169   17.0    1.15312  -19.28111  0.90582 
   -0.52911  0.15914   7.35596     14.97997  1.00239  1.40505  1.00317  0.32848     0.38053  12321.33683   5875.59697   4.5449         4329.94507     18.30314  0.00112   58659.6775  0.90848  0.15964   55232.27494  45.79441  16.52343  58671.81054    49.60539        43.1354   10.05405  19.35499   18.0    1.08237  -19.20695    0.931 
   -0.63174  0.15401   8.33266     14.97505   1.0042  1.22435  0.97351  0.26927     0.29786  10699.48222    6402.7298  4.92494          4382.7265     20.02619  0.05901  58659.57487   0.6648  0.14993   72627.32304    45.568  16.49718  58671.81054    49.59938       43.10624   10.05405  19.19412   17.5    1.14337  -19.25571  0.90707 
   -0.67984  0.09993   8.75761     14.99959  1.06368  1.55234  1.44834  0.16168     0.22237   9518.10128   6326.38595   4.4405          4488.5312     17.42725  0.00015  58659.52677   0.7827  0.14473   75895.07455  45.53067  16.51371  58671.81054    49.59084       43.11269   10.22465  19.18439   17.5    1.13847  -19.27083  0.91019 
    -0.7681  0.03937   9.79308     14.96049  1.04153  1.55885  3.39672  0.05868     0.49836   8368.02562   6562.83338   4.8943         4644.91116     19.63335  0.02388  58659.43851  1.41884  0.13373  111259.43372  45.25834  16.48946  58671.81054    49.62291       43.11356   10.22465  19.02352   17.0     1.0999   -19.2946  0.88543 
