 texplosion  fnickel     Pspin  log(Bfield)      Mns  thetaPB  mejecta    kappa  kappagamma      vejecta  temperature    alpha  cutoff_wavelength  log(nhhost)      A_V         MJD0  kenergy  mnickel            TSD   log(L0)  Peak_mag     Peak_MJD  log(E_rad)  log(Peak_lum)  Rise_Time    E_fold  tau_1  delta_m15     r_peak     frac 
  -12.13624  0.00516    9.1327      14.6311  1.61134  1.54842  0.71894   0.1268     0.47702   8185.97638   3182.20694  1.09041         4747.27111     20.67505  0.26289  57507.12376  0.28738  0.00371   682345.23474  44.72083  19.59832  57525.01361    50.24679       43.94105    9.26706  14.55658   22.0    0.98807  -20.10166  0.99818 
  -10.19276   0.0016  11.55655     14.72271  1.62472  1.54587  2.53151  0.01745     0.18134    5201.6434   3260.87025  1.79273         5404.68153     17.36081  0.00013  57509.06724  0.40859  0.00406   722473.83003  44.49514   19.3151  57525.01361    50.07006       43.84933    8.60022  12.87166   18.5    1.11285  -20.11015  0.99686 
   -7.61309  0.03071  10.59236     14.75782  1.37018  1.24276  4.47311  0.01211     0.01062   6178.82341    3852.8095  1.75223         5643.15469     16.15059    1e-05  57511.64691  1.01871  0.13737   435450.08195   44.7167  19.28668  57525.01361     49.9939       43.80998    7.95838  10.64314   16.5      1.258  -20.13824  0.89676 
   -6.75594  0.00737  13.43584     14.87713  1.91596  1.35718  0.94191  0.03237     0.01539    4300.1506    4876.7888  2.27461         5725.51056     18.48747  0.00171  57512.50406   0.1039  0.00694   565556.26468  44.54223   19.1385  57525.01361    49.95658       43.78354    5.85597  11.71194   14.5    1.32812  -20.41083  0.99435 
   -8.14333  0.00408  13.17503     14.98113  1.99438  1.00542  1.67501  0.02358     0.01429   5269.87024   8427.95385  2.05802         5458.90195     18.64973  0.00248  57511.11667  0.27749  0.00683   350636.71838  44.78429  19.54234  57522.69659    50.07836        43.7946    9.26706  14.55658   15.0    1.33256  -20.32656  0.99497 
   -8.61352  0.00231  12.31502     14.88453  1.62406  0.81846  0.53129  0.09128     0.05605   5724.67822   8799.63925   2.1627         5117.70817     19.06297  0.00642  57510.64648  0.10386  0.00123    389249.8834  44.70835  19.36785  57522.69659    50.09219       43.84353    8.86729  13.47936   16.5    1.23614  -20.17157  0.99892 
  -10.43288  0.00164  10.42234      14.8785  1.73315  0.97624  3.18108  0.02416     0.01062   7007.61888   7697.53063   1.4822         5716.44033      18.0581  0.00064  57508.82712  0.93184  0.00523   305897.39082  44.98618  19.23006  57525.01361    50.15031       43.90999    8.79241  11.71194   16.5    1.24466  -20.23487  0.99703 
   -9.09514   0.0136  11.10168     14.79414  1.49633  0.87836  0.68904  0.04523     0.02207   4139.05673   4420.51706  2.20005         5484.05746     18.76069   0.0032  57510.16486  0.07042  0.00937   441922.59011  44.70775  19.45294  57522.69659    50.34178       44.12149    8.20773  11.71194   16.5    1.18782  -20.27934  0.99246 
   -6.44492  0.00244  13.55411     14.85508  1.77225  1.11465  0.78657  0.03986     0.01142   4654.87255   9825.30021  2.34228         5526.32815      16.6779    3e-05  57512.81508  0.10167  0.00192   589288.96352   44.4829  19.64304  57525.01361    50.06733        43.7408   10.81928  16.02359   15.0    1.29235  -20.33258   0.9982 
   -5.64729  0.00199  12.31565      14.6622  1.40387  1.39308  0.26409  0.03953     0.01358    2569.0229   4505.48777   2.9974         5294.56535     16.86252    4e-05  57513.61271   0.0104  0.00053   936807.23425  44.26361  19.53309  57525.01361    50.11192       43.84126    9.21651  13.53833   13.0    1.34198   -20.4203  0.99942 
   -9.12163  0.09271  11.14672      14.8297  1.43866  0.86105  1.62043  0.04927     0.04678   7607.18106   4390.94535  1.66982         5268.55568     17.94509  0.00049  57510.13837  0.55938  0.15023   363629.50149  44.77185  19.31502     57521.29    50.11469       43.92107    7.57372  10.70315   18.0    1.18332  -20.11509  0.88493 
   -6.73498  0.00155  11.57869     14.91092  1.74027  1.02111  1.28204  0.03281     0.28199   4785.26635   7957.05089  2.22518         5312.21087     17.04389    6e-05  57512.52502  0.17512  0.00198   326525.08415  44.86823   19.4008  57525.01361    50.03904       43.78903    9.75995  11.71194   14.5    1.32473   -20.2934  0.99861 
  -11.29033  0.01069   6.18585     14.89415  1.45697  0.70674  2.48236  0.05315     0.02601   8389.83288   6475.59796  1.08639         5538.56115     20.25261  0.09939  57507.96967  1.04231  0.02654    84287.96037  45.92373  19.23205  57522.69659    50.12538       43.88627    9.65078   12.7043   17.5    1.15717  -20.18136   0.9933 
   -8.89243  0.01624  13.89362     14.88499   1.9446  1.06805  1.25077  0.02762      0.0103   4858.15244   7542.27298  1.96201         5352.91788     18.54198  0.00194  57510.36757  0.17609  0.02032    591952.7446  44.49976  19.57476  57525.01361    50.05349       43.74748   10.15972  15.13093   18.0    1.11249  -20.15926  0.98286 
  -10.07423  0.00757  11.93954     14.83201  1.69846  0.96107  1.22418   0.0416     0.01387   5823.03623   6099.78136  1.84905         5168.07324       19.416  0.01448  57509.18577  0.24761  0.00927   487339.56124  44.65709  19.30455  57525.01361    50.05382       43.81618    9.25864  12.92221   18.0    1.12694  -20.13718  0.99286 
  -14.65243  0.00186  12.26574     14.86894  2.02962  0.74917   0.8271  0.09497     0.01273    6897.7086   7117.85691  1.35385         5729.94665     17.34412  0.00012  57504.60757  0.23474  0.00154   518487.68357  44.68413  19.41238      57525.4    50.02216       43.75511   10.46891  13.17894   17.0    1.13125  -20.18036  0.99903 
  -11.67825   0.0194  11.75404     15.12481  1.84905  0.45144  0.84292  0.06396     0.01936   6060.01457   6329.53775  1.23164         5383.58572     17.54461  0.00019  57507.58175  0.18465  0.01635   133508.28635  45.26991  19.50893  57525.01361    50.04922       43.80617    9.30918  12.87166   20.5    1.02143  -19.93697  0.98929 
  -10.66221  0.00326   12.4447     15.07757   1.7942  0.52913  1.23935  0.05901      0.0261   7044.26538   7334.19781  1.76696         5270.75291     19.73088   0.0299  57508.59779  0.36685  0.00404   180514.18722  45.07624  19.34332  57525.01361    50.04549       43.84851     8.4246  11.79444   18.0    1.17011  -20.16565  0.99687 
   -9.32715  0.00258  11.90163       15.169  1.72373  0.41043  1.99473  0.02247     0.01192   5471.40438   6906.91616  1.95504         5484.97051     16.91714    5e-05  57509.93285  0.35621  0.00515   104111.77296   45.3366  19.23985  57525.01361     49.9886       43.79143    7.80796  11.71194   16.5    1.19706  -20.29313  0.99614 
   -9.95985  0.03892  11.67006      14.7105  1.49586  1.15876  1.59917     0.04     0.01014   5967.73411   8883.30101  1.77297         5106.03663     18.07047  0.00065  57509.30015  0.33974  0.06224   717561.03458  44.45373  19.43092  57525.01361     50.0535       43.80194    9.25864  12.92221   18.5     1.0616   -19.9743  0.94708 
   -10.1964    0.021  13.12232      14.9371  2.15487   1.5514  2.46997   0.0279     0.01365     6714.079   8560.53552  1.36084         5664.62111     17.40849  0.00014   57509.0636  0.66419  0.05187   460321.33775  44.70318  19.15877  57525.01361    50.03707       43.85991     7.9331  10.64314   18.0    1.16984  -20.10039  0.96721 
   -9.99476  0.01114  11.27531     14.84639  1.67611  0.95041  1.25249  0.05412     0.02633    6760.7707   9247.85986  1.60748         5510.60209     18.73839  0.00304  57509.26524   0.3415  0.01395   401411.27064   44.7853  19.51054  57522.69659    50.12927       43.82701    9.75995  14.54712   17.0    1.17277  -20.19264  0.99027 
  -10.28783  0.00892  12.13229      14.8045  1.71883  1.03799  1.60272  0.05189     0.01281   7450.16425   9530.51289  1.47177         5614.18655     16.98143    5e-05  57508.97217  0.53066   0.0143   577994.24277  44.57427   19.2068  57522.69659    50.13421       43.91266    8.51692  11.75267   16.0    1.15068  -20.13495  0.98887 
   -7.89375  0.08002  12.46889      15.0051  1.93514  1.08115  1.69169  0.05456     0.03891   7866.03275   5092.82642  1.64865         5613.29185     16.94988    5e-05  57511.36625  0.62439  0.13538   272891.94055  44.92791   19.2518  57525.01361    50.02259        43.7955    8.79241  11.71194   16.0    1.31767  -20.22984  0.91455 
   -6.23064  0.02027  10.83307     14.95579  1.46188  0.64108  0.77655  0.03473      0.0677   3844.23778   4325.32396  2.39297         5755.71051     19.17911  0.00839  57513.02936  0.06846  0.01574   195277.01021   45.0736  19.24129  57525.01361    50.06014       43.85448    8.60022  11.80286   14.0    1.41877  -20.44267  0.98761 
   -7.30274  0.00245  11.39289     15.07709   1.4824  0.43118  0.62615  0.05694     0.02493   4885.93771   9409.62773  2.23897         5559.64661     16.24163    1e-05  57511.95726  0.08917  0.00154   125273.92913  45.22868  19.15959  57525.01361    49.99785       43.83836    5.85597  10.64314   15.5    1.30579  -20.34132  0.99867 
   -8.61676  0.00214  10.74177     14.81288  1.71357  1.46787  0.42543   0.0984     0.05743   5080.31041   7597.13236  1.93068         5353.09848      19.6586  0.02531  57510.64324   0.0655  0.00091   434619.49158  44.80249  19.43991  57525.01361    50.06018       43.76471    9.25864  12.92221   15.5    1.32391  -20.27988  0.99944 
   -7.45801  0.00178  12.13811     15.15292  1.64208  0.41872  0.78273  0.02668     0.01037   3693.62895   7502.70557  2.48089         5668.04306     18.30683  0.00113  57511.80199   0.0637  0.00139   111086.68709  45.27027   19.3831  57525.01361    50.02084       43.79424    8.79241  11.71194   14.0    1.34541  -20.51316  0.99883 
  -10.18636  0.00303  11.88381     14.68493  1.64069  1.55077  0.59542  0.09139     0.06011   5955.96673   4597.43358  1.61382         5181.06881     17.90238  0.00044  57509.07364    0.126   0.0018   918085.67971  44.37108  19.53172      57525.4    50.07346       43.78831   10.15972  15.12251   21.0    1.00634  -20.01392  0.99854 
   -9.86006  0.00121  10.13421     14.73968  1.43837  1.03821  6.30898  0.01087     0.07986   5500.15844   3872.50857  2.05725         5282.30222     16.84741    4e-05  57509.39994  1.13851  0.00765   454886.32161  44.75723   19.2741      57525.4     50.0118       43.77432    8.79241  13.17052   17.5    1.11861  -20.16999  0.99457 
    -9.2354  0.00504   11.2073     15.08883  1.82344  0.61688  2.44511  0.02493     0.02776   6722.74793   9490.91904  1.71993         5803.46017     19.98929   0.0542   57510.0246   0.6592  0.01233   141270.32831  45.28068  19.10079      57525.4    50.01114       43.82292    7.80796   9.75995   15.0    1.35086  -20.39644  0.99253 
   -7.12629  0.00931  11.36765     14.85755  1.67823  1.21835  0.70688  0.09267     0.04563   6875.35281   8225.32102  1.69654         5306.69768       18.764  0.00323  57512.13371  0.19932  0.00658   388076.81018  44.79344   19.2994  57522.69659    50.10077       43.88477    8.40775  11.86184   15.5    1.35846  -20.13329  0.99534 
   -5.62448  0.00254  13.71305     14.85873  1.73591  1.11615  1.53643   0.0158     0.03923   3987.20713   3693.89183  2.40332         5393.09186     18.35559  0.00126  57513.63552  0.14571  0.00391   580954.20243  44.46996  19.45396      57525.4    50.04843       43.75009    8.79241  13.17052   15.0    1.28628  -20.23828  0.99615 
  -12.37817  0.00648   9.83934     14.83195  1.72464  1.05362  4.90095   0.0266     0.01829   8486.91471   5997.52338   0.9806         5332.40953     18.81872  0.00366  57506.88183  2.10575  0.03175   336153.72537  44.99307  19.43804  57522.69659    50.10456       43.81148    9.26706  14.55658   19.0    1.05804  -19.95651  0.98399 
   -8.05275  0.00226  12.43656     14.86971  1.80049  1.11774  1.97507    0.022     0.01483    5365.9569   4470.91163  1.99123         5366.01697     19.55965  0.02015  57511.20725  0.33924  0.00446   471179.01344  44.66165  19.34544      57525.4    50.03648       43.80088    8.79241  11.71194   16.0    1.23191  -20.23586  0.99658 
  -12.25847  0.00462   9.76768     14.63396  1.33356  0.94231  1.36766  0.04058     0.01231   5869.14569   8136.93594  1.53873         5493.96203     16.27213    1e-05  57507.00153  0.28103  0.00632   637523.80868  44.60978  19.30006  57525.01361    50.03267       43.79292    8.60022  12.87166   20.0    1.02632  -20.03891   0.9953 
   -10.0451  0.01109  12.06264     14.85701  1.88549  1.43859  2.84152  0.01976     0.11706   5996.58205   3708.64982  1.62647          4997.5024     18.36256  0.00128   57509.2149  0.60952   0.0315   492158.93934  44.68928  19.62562      57525.4    50.05086       43.72723   10.95198  14.82365   18.0    1.16986  -20.02431  0.97917 
   -7.79684   0.0025  11.24363     14.98986  1.70058  0.73085  1.86455  0.02584     0.01458   5354.05443   7904.69156  1.83141         5375.65792     18.97402  0.00523  57511.46316  0.31884  0.00467   209176.34055  45.07712  19.38227  57525.01361    50.25754       44.05983    8.60022  11.80286   16.0     1.2462  -20.16272  0.99682 
   -9.89112  0.00149   12.1607     14.81976  1.78741  1.32752  0.93863  0.05186     0.02795   4872.07756   4508.48209  2.02845         5538.69004     16.63473    2e-05  57509.36888  0.13291   0.0014   562912.47539  44.60071  19.46561  57525.01361    50.11385       43.82514   10.07582   15.2064   17.0    1.17969  -20.22674  0.99896 
   -8.75315  0.01077  11.63312     14.98122  1.85466  0.89668  0.66358  0.10347     0.05685   6404.86672   8954.45507  1.69534         5632.03205      18.4956  0.00174  57510.50685  0.16238  0.00715   254118.45239  45.00068  19.52841  57522.69659    50.12061       43.83748    9.75995  14.54712   15.5    1.30269   -20.2302  0.99543 
  -12.62087  0.00826   9.60763     15.08314  2.06546  0.84009   2.1427   0.0778     0.07385    9132.2173   6123.67704  0.99623         4985.38436     18.26518  0.00102  57506.63913  1.06596  0.01769   120720.60303  45.53685  19.46751  57525.01361    50.03969        43.7999    9.25864  12.92221   17.5    1.09327  -19.85369  0.99354 
  -10.42201  0.00113  12.94711     14.86526  2.01819  1.22992  1.80225  0.02374     0.01126   5337.31159   9738.85036  1.58069         5881.22006     19.16995  0.00822  57508.83799  0.30626  0.00204   584266.66782  44.58285  19.44822  57525.01361    50.02348       43.77668    9.30918  12.87166   18.5     1.0934  -20.18203  0.99857 
   -9.74729  0.00251  10.91311     14.76753  1.63713  1.48365  1.91446   0.0374     0.01753   6646.04321   8338.57791  1.67436         5386.03322     16.74126    3e-05  57509.51271  0.50443   0.0048   528129.42501  44.68429  19.41366      57525.4    50.04011       43.77617   10.46891  13.17052   16.5    1.24221  -20.16556  0.99673 
   -9.33364   0.0189   12.0631     14.99056   1.8406  0.85567  2.52908  0.02347     0.01002   5732.56652   8539.82745  1.71437         5286.88929      16.5383    2e-05  57509.92636  0.49578  0.04781   259761.00029  44.95631  19.33721  57525.01361     50.0458       43.81135    8.79241  11.71194   17.0    1.19004  -20.06934  0.96767 
  -11.42213  0.00605  11.31204     14.52924  1.42545  1.48055  0.48172    0.051     0.01109   4043.96118   9656.63155  1.88837         5230.46678     17.95286   0.0005  57507.83787  0.04699  0.00292  1480347.46742  44.14535  19.23376  57522.69659    50.01102       43.80142    8.60022  11.80286   21.0    0.89449  -19.94702  0.99735 
  -10.16816  0.00115  10.93207      14.8196  1.76643  1.30785  6.09767  0.01054     0.06582   6246.32931   4432.62263  1.54835         4885.36917     19.18361  0.00848  57509.09184  1.41919    0.007   449895.30081  44.78543  19.39267  57522.69659    50.00685       43.77426    9.25864  12.92221   18.5    1.12812  -20.00452  0.99574 
   -6.58764  0.01787  10.68943      15.0809  1.40338  0.44686   0.7368  0.05762     0.03829   5334.88503   9715.09276  2.10744         5342.75587     16.41788    1e-05  57512.67236  0.12509  0.01317   102587.00787  45.34702  19.31228  57522.69659    50.05127         43.852    8.54967  11.84499   14.5    1.35189  -20.20233  0.98926 
  -11.09062   0.0056  10.79357     14.87469  1.91476  1.42409  3.60404  0.02556      0.0129   7914.56953    7569.5605  0.99117         5672.20399      18.1676  0.00082  57508.16938   1.3467  0.02017   368867.69217  44.91776  19.21953  57525.01361    49.98724       43.79359    7.95838  11.71194   17.5    1.19351  -19.99529  0.98949 
   -6.75215  0.00195  10.85757     14.77753  1.55619    1.183  1.15669  0.02798     0.08306   4274.04263   4839.59243  2.24467         5563.31351     20.19666  0.08738  57512.50785  0.12604  0.00225   474549.98451  44.71316  19.36971  57522.69659    50.06684        43.8342    8.51692   12.5867   14.5    1.34653  -20.39057  0.99836 
  -11.03085  0.00184  12.31876     14.91876  1.97978  0.99621  1.35184  0.06302     0.03364   7702.49466   7113.36406  1.37256         5305.51135     18.05766  0.00063  57508.22915  0.47843  0.00248   405543.40033  44.77629   19.4874  57525.01361    50.03649       43.78543    9.30918  12.87166   18.5    1.11516  -20.10654  0.99837 
   -6.66948  0.00594   9.28213     14.77896  1.14607  0.64791  1.27234  0.02353     0.01031    4403.9354   8899.78395   2.2538         5349.25912     19.18883  0.00858  57512.59052   0.1472  0.00756   253750.05163  44.98835  19.32517  57522.69659    49.97633       43.79952    7.95838   9.80068   14.5    1.32201  -20.25356  0.99366 
    -7.6967  0.00181  10.23997     14.72644  1.38565   1.2682  0.68764  0.06672     0.02791   4975.47958   8595.72643  2.18535         5257.08996     18.01593  0.00058   57511.5633  0.10154  0.00125    475541.7656  44.71271  19.21341  57525.01361    50.01152       43.83066    7.90783  10.64314   15.0    1.33003  -20.17918  0.99904 
  -10.10873  0.00135  10.77749     14.80661  1.70653  1.20266  1.52979  0.05259     0.02911   7728.11309   7543.72353  1.37957         5125.91262     17.30426  0.00011  57509.15127  0.54501  0.00207   448478.37014  44.78418  19.34574  57522.69659    50.02449       43.81534    7.63269  11.79444   17.5    1.23583  -20.10133  0.99871 
   -8.42204  0.00235  10.76687      14.6905  1.44327  1.31448  2.93826   0.0121     0.01598    4692.1419   4019.73548  2.24805         5617.66248      18.8208  0.00368  57510.83796  0.38589  0.00689   646150.42079  44.55368  19.24583  57522.69659    50.06143       43.90073    7.58214  10.97022   15.0    1.30032  -20.39561  0.99448 
  -10.38359  0.01714  11.85343     14.79628  1.82112  1.51945  1.03605  0.07935     0.03756   7494.13055   7908.93044   1.1313         5875.51528      16.7342    3e-05  57508.87641  0.34709  0.01776   607138.75636  44.59821  19.29833  57525.01361    50.00264       43.78471    8.79241  11.71194   18.5    1.11009   -20.0451  0.98793 
   -4.47836  0.00109  12.63508     14.81132  1.63728  1.40369  0.60907  0.03301     0.01041   3582.15252   8918.09582  2.43348         5889.35645     17.59186  0.00022  57514.78164  0.04662  0.00067    578706.7888  44.51735  19.38026  57522.69659     50.0403        43.7818    9.25864  12.92221   13.0    1.44369  -20.44433  0.99939 
   -7.90188  0.02772  11.70205      14.9888  1.80344  0.89415  2.15768  0.03198     0.01907   6740.43645   6714.83275   1.8499         4925.99299     16.24049    1e-05  57511.35812  0.58478  0.05981   241456.35107  45.00558  19.38793  57525.01361     50.1269       43.84347    9.26706  14.55658   16.0    1.30729  -20.11791   0.9611 
   -10.7538  0.03469    9.1509     14.95047  1.65138  0.91526   6.6821  0.01001     0.01486   6625.45063   4269.70678  1.38411         5834.08114      19.5639  0.02035   57508.5062  1.74973   0.2318    161305.4885  45.35612  19.42036  57525.01361    50.06736       43.79415    9.65078   13.7731   17.5    1.22535  -20.16403  0.90228 
   -8.11311  0.00108   10.5095     14.83767  1.70403  1.38957  2.15716  0.02723     0.01715    6107.7816   8542.44674  1.94213         5147.52827     19.89654  0.04378  57511.14689  0.48004  0.00232   369084.72956  44.89003  19.33791  57522.69659    50.08388       43.82847    9.65078  12.69587   15.0    1.34198  -20.26272  0.99862 
   -7.82152  0.00229  10.73496     14.69038  1.44467  1.35369  0.60532  0.05331     0.05597   4850.73375   5885.63784  2.00811         5481.64712      17.1563    8e-05  57511.43848  0.08496  0.00138   643307.78555  44.55859  19.62786  57525.01361    50.12151       43.79236   11.71194  15.61592   15.5    1.29733  -20.25992  0.99889 
   -9.09899  0.01094  10.93173     14.83414  1.55957  0.81404  0.27517  0.14269     0.04611   4830.19379   8581.95182  1.85776         5478.79036     19.68964  0.02719  57510.16101   0.0383  0.00301   371464.99699  44.81456  19.20511  57525.01361    49.99334       43.79226    7.95838  11.71194   17.5    1.12882  -20.18926  0.99778 
   -6.37513  0.00398  12.54258     15.05802  1.64359  0.56726  0.77784  0.05233      0.0262   5422.71464   7627.91523  2.23671         5297.31794     17.75616  0.00032  57512.88487  0.13644  0.00309   183800.70955  45.02352  19.31507  57522.69659    50.05214       43.80353    8.51692  13.66393   15.0    1.35512  -20.24601  0.99723 
   -8.37533  0.00405   11.9299     14.92347  1.78049  1.01559  1.62351  0.03325     0.01744   5809.93985   6671.26609  2.19332         5007.64854     17.14041    8e-05  57510.88467  0.32691  0.00657    334730.7266  44.84141  19.35267  57525.01361    50.05248       43.80503    9.30918  12.87166   15.0    1.35483  -20.22921   0.9953 
  -13.12133  0.00836    8.4604     14.85369  1.79052  1.43936  3.76003  0.02883     0.01193   5616.00374   7907.18021  1.54244         5666.09362     16.75864    3e-05  57506.13867  0.70741  0.03143   233450.99049  45.29885  19.26464  57525.01361    49.93713       43.73931    5.85597  11.71194   19.5    0.94843  -19.92552  0.98902 
   -7.63071   0.0024  12.55736     14.94362  1.73397  0.75768  0.45017  0.05327     0.01625   3706.32058   9200.66127  2.12795         5412.20343     19.04197  0.00612  57511.62929  0.03689  0.00108   329167.07331  44.79267  19.28662  57525.01361    50.07331       43.86781    8.79241  11.71194   16.5    1.17629  -20.17609   0.9991 
   -8.37346  0.01425  11.94599     14.90915  1.66632  0.79868  0.50448  0.05779     0.03075   3975.38615   4740.99576   2.2585          5415.8249      16.5764    2e-05  57510.88654  0.04756  0.00719   335514.86521  44.81045   19.1741      57525.4    49.96086       43.76227    7.80796  11.21853   15.5    1.23379  -20.28458  0.99429 
  -10.13833  0.00564   12.7208      14.8371  1.89146  1.15403  1.18266  0.05115     0.01977   6517.45912   9354.73883  1.59139         5699.69548      16.9811    5e-05  57509.12167  0.29967  0.00667   601788.72707  44.55717  19.16986  57525.01361     50.0212       43.80491    8.79241  11.71194   17.5    1.11476  -20.21262  0.99502 
   -4.92782  0.01562   12.0768      14.7717  1.50264  1.53178  0.54143  0.04407     0.02406   3798.41716   3415.29843  2.66831         5238.52724     18.74527  0.00309  57514.33218   0.0466  0.00845   582348.46512  44.51661  19.25927  57525.01361    50.03298        43.7902    8.79241  11.71194   13.0    1.42838  -20.29895  0.99202 
   -9.46155  0.00273   12.5148     14.82311  1.71923  1.05536  0.58326  0.06398     0.01966    4878.3749   7612.41467  2.08286         5285.02152     19.69886  0.02777  57509.79845   0.0828   0.0016   564654.31642  44.55755  19.28482  57525.01361    50.00174       43.77247    8.79241  13.17052   17.0    1.18595  -20.19273  0.99867 
   -9.60239  0.00202   9.54263     14.63308  1.35073  1.41441  2.44502  0.02572     0.01486   6470.87838   9308.08027  1.46935         5676.95028     18.40045   0.0014  57509.65761  0.61071  0.00494   618807.41968  44.64852  19.44207  57525.01361    50.04165       43.78922    9.25864  12.92221   17.0    1.19211  -20.12846  0.99657 
  -12.74344  0.00143  10.25173     14.70637  1.60893   1.4367  0.71559  0.12088     0.06143   7471.98686   7256.33641  1.20953         5213.64687     16.83727    4e-05  57506.51656  0.23832  0.00102   607014.33903  44.67059  19.48876  57522.69659    50.18857       43.93296    9.75995  13.66393   19.5    1.04435  -19.94863  0.99937 
  -12.93893  0.01716  10.81621      14.7893  1.62278  0.88831  2.77966  0.03909     0.01503   8677.10502   5691.63717  0.95046         4499.51138     19.39419  0.01377  57506.32107  1.24844   0.0477   465178.56825  44.74333  19.29316  57525.01361    50.01397       43.79654    8.79241  11.71194   20.5    0.97897  -19.82465  0.96849 
  -12.97531  0.00566  10.28708      14.9665  1.79186  0.73161   2.6175  0.03998     0.02038   7964.81948    7606.4901  0.93168         5601.25728      18.9426  0.00487  57506.28469  0.99053  0.01481   205446.21832  45.18487  19.56515  57525.01361    50.07819       43.75784   10.81928  16.02359   19.0    1.05021  -19.91701  0.99222 
    -7.7237  0.00173  12.97007     15.09602  2.06946  0.78147  0.37982  0.10107     0.07179   4284.68745   7638.81218  2.13491         5392.60316     19.72175  0.02927   57511.5363   0.0416  0.00066   207739.15973   45.0413  19.28664  57522.69659    50.01559       43.82279    7.63269  11.79444   15.0     1.2848  -20.24588  0.99956 
   -10.7618  0.02063   8.61602     14.73403  1.46432  1.35559  1.72424  0.09149      0.0732     9179.566   7496.20372  1.08455         5812.28823     18.57254  0.00208   57508.4982   0.8667  0.03558   343565.61698  45.02786  19.50577      57525.4    50.06595       43.75527   10.50166   14.8742   17.0    1.17724  -20.07632  0.98254 
   -7.37315  0.00409  13.75504     15.13333  1.89165  0.55398  1.11825   0.0245     0.01033   4378.02446   8966.87031  2.20418         5679.16307     18.50909  0.00179  57511.88685  0.12786  0.00458   179856.63217  45.01384  19.31105  57525.01361    50.05123       43.83009    8.79241  11.71194   15.0    1.30298  -20.34993  0.99601 
   -7.03045  0.00181  10.90139     14.72052  1.46819  1.45939  0.75738  0.06185     0.03344   5564.50529   9433.60898  2.08747         5649.61156     18.27174  0.00104  57512.22955  0.13989  0.00137   586842.25913  44.59214  19.47127  57525.01361    50.07828       43.82849    8.51692  13.66393   14.5    1.34576  -20.32732   0.9989 
   -9.52541  0.01571  11.22584     14.87936  1.71817  1.01194  2.64487  0.02845     0.01578   7063.05759      7425.86  1.46321         5502.57709     18.25728    0.001  57509.73459  0.78708  0.04156   350429.98983  44.85887  19.37233  57525.01361    50.05717       43.80576    9.25864  12.92221   17.0     1.1978  -20.13002  0.97286 
    -5.9871  0.00612  12.52158     14.80487  1.69204  1.25075  0.49035  0.03579     0.01498   3167.21364   7236.81588  2.59678         5470.88669     19.93063  0.04735   57513.2729  0.02934    0.003   605065.13177  44.52014  19.45843  57525.01361    50.01184       43.74298    9.30918  14.82365   13.5    1.33503  -20.45227  0.99743 
  -14.38991  0.12641  12.07402     15.15579  1.93542  0.48644  2.20347  0.04514     0.01166   7964.41229   7939.34839  0.94328         5391.65791     16.97191    5e-05  57504.87009  0.83376  0.27855    127855.0433   45.2852  19.38621      57525.4    50.02998       43.75268    8.79241  13.66393   19.5    0.98488  -19.90852  0.84643 
   -9.01422  0.02659    9.3759     14.74906  1.55047   1.3206  1.39269  0.02855     0.02002   4325.51837   4927.31501  2.13861          5523.2493     20.21125  0.09036  57510.24578  0.15544  0.03703   401959.78393   44.9111   19.2318  57525.01361     50.0372       43.83016    7.95838  10.64314   15.0     1.2644  -20.45173  0.98022 
   -7.36004  0.01594   14.1278     15.15397  2.00363   0.5952  0.60203  0.06578     0.06354   5248.76804   3196.79479  2.21623         5138.06807     17.62537  0.00023  57511.89996  0.09894  0.00959   182740.69079  45.00868  19.25716  57525.01361    50.00507       43.79385    8.79241  11.71194   16.0    1.28792  -20.22101  0.99194 
   -8.43109  0.00358  10.74402     14.99163  1.66724  0.67435  0.64817  0.07459     0.02552   5372.10269   8934.15715  1.97536         5722.15813     16.84569    4e-05  57510.82891  0.11158  0.00232   185731.02733  45.15962  19.25451  57522.69659    50.08563       43.88953    7.80796  11.71194   15.0      1.342  -20.39972  0.99851 
   -5.01343  0.00574  13.38601      15.1314  1.78357  0.54783  0.51437  0.03294     0.01021   3151.97217   9929.85435  2.58658          5335.1021     17.96323  0.00051  57514.24657  0.03048  0.00295   162034.68594  45.05722  19.12044  57522.69659    50.03458       43.86282    7.63269  10.91967   13.5    1.40372  -20.34087  0.99734 
   -9.56932  0.00339  12.84857      14.8051  1.77581  1.43138  5.09893  0.01068     0.37486   6102.05069   3995.54199  1.75669         5201.78733     16.08659    1e-05  57509.69068  1.13255  0.01731    667915.6447  44.47581  19.47008  57525.01361    50.06193       43.77624    9.30918  14.33024   18.0    1.14242  -20.05976  0.98569 
   -7.52054  0.00822  11.66462     14.79439  1.56762  1.14852  2.55197  0.01661     0.01519   5448.88352   4150.69551   1.8985         5535.67165     17.86583  0.00041  57511.73946  0.45198  0.02097    510528.9537  44.62232  19.34227  57525.01361    50.05573       43.73902    9.30918  14.82365   16.0    1.25783  -20.18766  0.98282 
  -10.95398  0.00927  10.36258     14.81571  1.65554  1.07387   2.8017  0.03756     0.02105   7935.89402   5868.18314  1.10716         5161.99105     16.28235    1e-05  57508.30602  1.05255  0.02598   385721.36235  44.87058  19.30828  57522.69659    50.08961       43.87006    8.51692  11.75267   18.5    1.08442  -19.93759  0.98453 
   -7.02581  0.03649  11.85913      14.9864  1.89515  1.26424  3.08424   0.0275      0.0143   7776.69671   7843.44098  1.90687         5113.72793     17.87172  0.00041  57512.23419  1.11267  0.11253   263495.62535  44.97761  19.38794      57525.4    50.00323       43.78987    8.79241  11.71194   15.0    1.35187  -20.22134  0.93265 
   -4.82604  0.00351  11.87672     14.95704  1.85145  1.26216  4.07702  0.01404      0.0122   6812.98142   9032.73843  2.36317         5099.53276     19.81698  0.03645  57514.43396  1.12887  0.01431   295562.03235  44.91631  19.29136  57525.01361    50.00413       43.77228    5.85597  11.71194   13.0     1.5795  -20.41573  0.99053 
  -10.08182   0.0011  11.19251     15.14945  1.76487  0.43977  1.14961    0.042     0.01801   5744.77677   8153.22052  1.67828         5279.61131     16.70829    3e-05  57509.17818  0.22632  0.00126   103155.72884  45.40421  19.48394  57525.01361    50.12005       43.81199   10.05055  15.23168   17.5    1.17966  -20.17863  0.99919 
   -7.88622  0.04513  10.66931     14.81371  1.45851  1.13971  3.91368  0.01991     0.03161   7389.00081   4374.87912  1.71721         5291.89778     20.00232  0.05585  57511.37378  1.27463  0.17664   363557.67675  44.81591   19.3116  57525.01361    50.04212       43.81537    8.47515  12.87166   16.5    1.23867  -20.13643  0.87981 
  -12.12209  0.01254  11.42044     15.09012  1.70189  0.43168  2.73189  0.02211     0.01321   5872.27343   3674.64391  1.57976         5511.85432     19.73175  0.02996  57507.13791  0.56196  0.03425   136104.56485  45.25054  19.51008  57525.01361    49.98845       43.70661   10.46891  13.66393   20.5    0.98886  -20.08584  0.97631 
   -5.83669  0.00116  12.11998     14.71949  1.43467  1.14311   1.0244  0.01874     0.01373   3680.60856   3610.44978  2.52409         5350.57245     17.94535  0.00049  57513.42331  0.08278  0.00119   712195.66854  44.40599  19.44833  57522.69659    50.06942       43.80485    9.26706  13.48778   14.5    1.31432  -20.27674  0.99878 
   -7.95918  0.01245  12.90786     14.97251  1.88436  0.84689  1.05635  0.03422     0.01357   5113.66285   8951.53857  1.89811          5713.5216     19.26708  0.01028  57511.30082  0.16478  0.01315     330879.911  44.80263   19.2683  57522.69659    50.05853       43.82744    9.25864  11.85341   16.0    1.26388  -20.29334  0.98991 
   -9.45684  0.01872  11.09278     14.79022  1.57869  0.95941    0.825   0.0694     0.02509    6193.6483   8192.96524  1.45494         5724.95659     19.12595  0.00742  57509.80316  0.18879  0.01544   473981.71578   44.7013  19.53046  57522.69659    50.10772       43.86958    9.21651  12.69587   18.0    1.14189  -20.10291   0.9886 
  -11.91794  0.01069   7.31432      14.7503  1.80279  1.54735  2.19984  0.03647     0.01643   6873.42818   8163.26647  1.08132         5714.36047     20.69656  0.27624  57507.34206  0.61996  0.02352   282820.40196  45.34493  19.40454  57522.69659    50.08877       43.80806    8.51692  12.59513   19.0    1.05889  -20.28122  0.99386 
   -8.16115  0.02051   9.74559     14.80083   1.6134   1.5101  1.21496  0.06399     0.03694   7342.34204   7714.31652  1.53686         5324.15122     17.20333    9e-05  57511.09885  0.39071  0.02491   356049.58736  44.94746  19.46403  57525.01361    50.01418       43.76324    8.79241  11.71194   15.5    1.36272  -20.19944   0.9864 
    -6.3118  0.01445  14.52926     15.14811  1.88784  0.52783  0.52782  0.04009     0.01662   3957.60681   8491.80727  2.34517         5691.59093     18.09298  0.00069   57512.9482  0.04931  0.00763   187087.70548  44.94828  19.24276  57525.01361    50.02979       43.82341    7.95838  11.71194   15.0    1.29308  -20.35798  0.99257 
   -5.24092  0.00307  12.55694     14.90363  1.62883  1.00551  1.00343  0.02898     0.01225   4447.12836   9410.03012  2.76455         5026.84163     19.55653  0.02001  57514.01908  0.11838  0.00308   371712.14715  44.71275  19.22592  57522.69659    50.04615       43.84722     8.4246  11.01095   12.5     1.5279  -20.32016   0.9972 
  -12.77217  0.06133  10.36935     14.69589  1.47438  1.08745  2.10117  0.03989     0.01185   7461.87006   6809.94434  1.13473          5148.8646     16.95088    5e-05  57506.48783  0.69788  0.12886    597227.7895  44.62981  19.31833  57525.01361    49.99952       43.75132    9.75995  11.71194   20.0    1.00126  -19.89092  0.91472 
  -10.88523  0.00187   9.82428     14.77281   1.4894  0.95407   2.8571  0.02226     0.01899   6419.37548   5540.15935  1.55183         5697.56768     17.03321    6e-05  57508.37477  0.70232  0.00533   380027.12599  44.87744  19.34675  57522.69659    50.08907       43.85208    8.40775   12.7043   17.5    1.19719  -20.18963   0.9966 
   -7.41556  0.00205  11.42255     14.99968  1.82775  0.69572  2.45694  0.01643     0.38388   5256.74013   5182.59717  2.16942         5145.37507     20.48399  0.16933  57511.84444    0.405  0.00502   221771.42751  45.06933  19.27897  57522.69659    50.04635       43.81734    9.25864  11.85341   15.5    1.29339   -20.4206  0.99681 
   -13.3773  0.01642  10.24313     14.76861  1.63365   1.1578   1.6335   0.0934      0.0485   9244.67527   6505.08353  0.72223         5533.83998     18.67417  0.00262   57505.8827  0.83278  0.02682   461966.68605  44.79653  19.25327  57525.01361    49.97792       43.77669    7.95838  11.71194   19.0    1.02335  -19.82187  0.98407 
   -9.27865  0.00437  11.30523     14.86704  1.80762  1.37541  1.50171  0.07857     0.04695   9005.94322   7721.77735   1.4368         4940.92334     17.01517    6e-05  57509.98135  0.72656  0.00656   395728.28931    44.822  19.07956  57522.69659     49.9742       43.81071    5.85597  10.63471   16.0    1.24802  -20.08836  0.99588 
  -12.24944  0.04041   9.48163     14.66965  1.47718  1.31777   1.4134  0.07255     0.03673   8886.59113   7889.82651   0.8165         5443.70641     16.02724    1e-05  57507.01056  0.66583  0.05712   564571.78457  44.73279  19.41713  57525.01361    50.03377         43.729   10.46891  13.66393   18.5    1.10834  -19.94285  0.96677 
  -10.33174  0.00171  11.31976      14.7466  1.65745  1.11367  0.32566  0.06753     0.02433   3754.79567   7910.38907  1.92646         5630.67139     16.86304    4e-05  57508.92826  0.02739  0.00056   633471.24906  44.57889  19.21487  57525.01361    50.05535       43.82018    7.95838  11.71194   18.5    1.07473  -20.23827   0.9996 
   -8.33766  0.00671  13.42682     14.88709   1.9195   1.1455  0.75426  0.05835     0.04709   5274.54596   3199.04006  2.02709         4784.68373     17.10864    7e-05  57510.92234  0.12518  0.00506   540462.53434  44.56332  19.34336  57525.01361    50.21968       43.96935    9.21651  13.52991   17.5     1.1559  -20.02768  0.99589 
  -10.46891  0.00617    9.8714     14.73749  1.59054  1.14805  1.26828  0.05433     0.02578   6978.22279    8701.7083  1.66576         5433.32947     19.98458  0.05362  57508.79109  0.36841  0.00782   482106.46271  44.79849  19.36478  57522.69659    50.03744       43.80924    8.60022  12.87166   17.0    1.19294   -20.3437  0.99545 
  -12.31221  0.04082    9.1726     15.03058  1.19217  0.29929  2.97081  0.03303     0.01063   8063.42345   7098.41502  1.06243         5355.94405     16.54423    2e-05  57506.94779  1.15223  0.12127    80903.92604  45.51223  19.35421  57522.69659     50.0415       43.80295    8.51692  13.66393   20.0    1.03862  -19.91614  0.91366 
   -9.39104  0.00182   11.1121     15.17152  1.77271  0.47488  1.64914   0.0401     0.01943   6151.44073   8951.82709  1.82694         5636.68263     18.24839  0.00098  57509.86896  0.37225    0.003     92257.9263  45.46089  19.33269  57522.69659    50.11498       43.83694   10.76873  14.60713   16.0    1.26214   -20.3118  0.99812 
   -7.73273  0.00263   9.64946     14.81116  1.55101  1.37593  3.03786  0.02432     0.03374   6514.21936    9126.4088   1.7725         5254.34513     17.63584  0.00024  57511.52727  0.76899  0.00799   319967.18119  44.98535  19.37097  57522.69659    50.03223       43.76276   10.50166  12.92221   15.0    1.34798  -20.16103  0.99543 
   -8.66543  0.00162  10.83158     14.72398  1.51147  1.22366   0.7167  0.07075     0.02916   5521.43583   9967.27763  2.05812         5863.73912     18.98605  0.00538  57510.59457  0.13034  0.00116   586993.37874  44.61023  19.42049      57525.4    50.03783        43.8136    8.79241  13.17052   15.5    1.26296  -20.40107  0.99912 
  -11.23616  0.00322  11.82982     14.84921  1.77248  1.00881  1.33826   0.0893     0.10315   8698.44237   8284.02892  0.94772         5267.58386     18.33164  0.00119  57508.02384  0.60402   0.0043    461238.6125  44.70754  19.42167  57522.69659     50.1038       43.83601    8.43302   12.6706   18.0    1.04851  -19.88495  0.99693 
   -8.18734  0.00317   9.49761     14.93161  1.93736  0.81751  0.87005  0.05621     0.01983   5539.50652   9299.78984  1.64151         5895.77554     20.76217  0.32129  57511.07266  0.15926  0.00276   222352.66514  45.25378  19.34695  57522.69659    50.04108       43.78204    9.25864  12.92221   16.5    1.19356   -20.5964   0.9989 
  -10.93489  0.01713   8.70487     14.89297  1.75672  1.42732  2.95969  0.04703     0.01519   8118.79796   8281.17631  1.31048         5390.93224     16.89871    4e-05  57508.32511  1.16374  0.05071   202345.59118  45.32793  19.26145  57525.01361      50.062       43.85251    8.47515  11.80286   16.0    1.15347  -20.02305  0.98097 
  -10.60035  0.00145  13.42557      14.9154  2.07306  1.19231  1.66285  0.02929      0.0369   5596.51132   3855.57455  1.78001         5511.63087     17.04195    6e-05  57508.65965  0.31068  0.00241   512270.81275  44.62009  19.29448  57522.69659    50.05353       43.84804    7.63269   10.9604   18.0    1.13976  -20.19132  0.99825 
  -16.00905  0.00421   8.19101     14.67206  1.42225   1.0449  1.68687  0.12413     0.04465  10933.06134   6589.14395  0.31918         4551.85239     18.72305  0.00294  57503.25095   1.2028   0.0071   401179.76373  44.99181  19.39177  57525.01361    50.06022       43.83848    9.25864  11.85341   18.5    1.07531  -19.73503  0.99664 
   -6.13575  0.00274  13.30985     14.87737  1.76175  1.16974  0.74514  0.03526     0.02582     3993.115   5531.17617  2.51198         5379.09902     17.34825  0.00012  57513.12425  0.07087  0.00204   509747.95653  44.55909  19.26902      57525.4    49.98023        43.7672    7.95838  13.17052   14.0    1.37551  -20.32281  0.99814 
  -10.19167  0.00562  10.71622     14.82675  1.59312  0.96543  0.81524  0.05849     0.02455   4645.46071   5370.46044  2.05426         5609.29973     18.04805  0.00062  57509.06833  0.10495  0.00458   377271.97232  44.83436  19.23352  57525.01361    50.01953       43.79892    8.60022  12.87166   16.5    1.17891  -20.26337  0.99687 
   -9.24206  0.01632   11.1134     15.11847  1.73114  0.52056  2.63121  0.02855     0.01212   6862.74588   7562.18724  1.66578         5091.54617     17.91644  0.00046  57510.01794  0.73923  0.04294   115055.68614  45.35458  19.41823  57522.69659    50.12832       43.81851    9.75995  15.61592   17.0    1.18679  -20.13194  0.97284 
   -5.82289  0.00145  12.21492     14.98343  1.49471  0.63086  1.00107  0.03225     0.01192   4576.08686   9906.68643  2.52332         5626.37104     16.10864    1e-05  57513.43711  0.12505  0.00145   223509.73436  44.92032  19.35694  57525.01361    50.03364       43.83799    7.63269  11.80286   13.5    1.45184   -20.3734  0.99858 
   -7.42215  0.00109  11.52344      14.8483  1.75804   1.0584  1.25105  0.03219     0.01042   5001.82663   9346.54975  2.13215         5527.00278     20.37904  0.13297  57511.83785  0.18671  0.00137   435923.27757   44.7513  19.24987  57522.69659    50.04622       43.82775    8.60022  11.80286   15.0    1.26653  -20.43133  0.99907 
   -5.25964  0.00439  13.99607     14.95001  1.84961  1.05198  0.48582  0.04184     0.01258   2907.33269   7876.80106  2.87886         5275.30213       17.997  0.00055  57514.00036   0.0245  0.00213   423537.71231  44.61702  19.39599  57525.01361    50.05871       43.80529    9.25864  12.92221   13.5    1.35239  -20.32029  0.99801 
    -7.7692  0.00112  12.20389     14.85416  1.81035  1.55753  1.06353  0.04415     0.01994   5289.29652   9691.53978  2.29709         5337.30261     17.33298  0.00012   57511.4908  0.17749  0.00119   490056.54314  44.66337  19.18886  57525.01361    49.96147       43.77622    7.80796   9.75995   14.5    1.32853  -20.36168  0.99913 
   -7.33978  0.00154  12.69445     14.84783  1.76225  1.16975   0.4973  0.08416     0.13866   5234.72768   3024.20302  2.27822         5387.26406      19.9337  0.04769  57511.92022  0.08129  0.00077   531424.17018  44.58224  19.33751  57522.69659    50.02069       43.79949    9.25864  11.85341   15.0    1.28884  -20.33582  0.99937 
   -7.19226  0.00175   10.4937     15.06897  1.43471  0.46006  3.12023  0.01723     0.01131   5773.92528    9323.6205  2.14144         5732.54448     17.77646  0.00033  57512.06774  0.62052  0.00545   106780.64717  45.35526  19.46706  57525.01361    50.05623       43.81325    9.25864  12.92221   14.5    1.38185  -20.37911  0.99582 
   -9.86481  0.03479  11.94242     14.80365  1.73636  1.54746   2.4478  0.03067     0.01252    7515.1898   8038.47254  1.49334         5050.75696     19.47307  0.01651  57509.39519  0.82467  0.08515   568000.21099  44.59995    19.459  57522.69659     50.0969       43.82476    9.21651  13.52991   18.0    1.19028  -20.05678  0.94002 
  -13.61441   0.0031   9.93843     14.89897  1.81303  0.77279  1.27966  0.06796     0.02814   7749.28491   6249.38801  0.91875         5268.33214       20.024  0.05871  57505.64559   0.4584  0.00397   264793.22305  45.10971  19.62255  57525.01361    50.08398       43.78338   10.81928  16.01516   20.0    0.99399  -19.96185  0.99807 
   -7.70847   0.0087  14.43362      15.0195  2.19381  1.11173  0.87292  0.04587     0.01577    4619.8952   9329.87357  2.17531         5320.18177        18.46   0.0016  57511.55153  0.11114  0.00759   387943.45598  44.70253  19.53686  57522.69659    50.11888       43.84322    9.75995  14.53869   16.0    1.25876  -20.21934  0.99418 
  -11.19758  0.03326   8.08339     14.98415  1.53369   0.6519  2.61939   0.0409     0.02539   7033.30569   8664.35488  1.38449         5781.36028     16.64636    2e-05  57508.06242  0.77294  0.08713   100100.23297  45.63896  19.39396  57522.69659    50.17333       43.91492    7.80796  13.66393   17.0     1.1378  -20.12921  0.96571 
  -13.98604  0.00603     11.69     14.93521  1.87322  0.73546  1.97233  0.07113      0.0237    9291.7657   7017.31525  0.83341         4892.93057     18.43362  0.00151  57505.27396  1.01579  0.01189   320347.99282  44.90018  19.36183  57525.01361    50.04416       43.82678    8.79241  11.71194   19.0    1.03527  -19.85732  0.99242 
   -9.26965  0.00101  12.91093      14.8195  1.78179  1.22504  1.62618  0.02372     0.02778   4733.05207   4058.07966  2.02268          5491.0066     16.56236    2e-05  57509.99035  0.21731  0.00164   633260.34688   44.4962  19.33885  57525.01361    50.03291       43.79456    8.79241  11.71194   17.5    1.16959  -20.18475  0.99861 
   -7.31253  0.02511  12.02355     14.99608    1.653  0.59768   0.2037  0.08231     0.02794   3325.71198   7696.02561  2.25283         5861.08448      19.2058  0.00892  57511.94747  0.01344  0.00512   225945.29207  44.97305  19.55901      57525.4    50.06574       43.79767    9.25864  12.92221   15.0    1.29141  -20.43534  0.99583 
  -11.88033  0.00605   8.34182     14.62367   1.3803  1.36204  1.99892  0.07543     0.03621  10238.65723   7070.12407  0.94095         5471.80526     20.20858  0.08981  57507.37967     1.25  0.01208   504639.70288  44.86332  19.37236  57525.01361    50.04098       43.80366    8.60022  12.87166   17.5    1.19559   -20.1234  0.99381 
   -13.5875  0.00269   9.85738     15.06275  1.52285  0.36636   2.2194  0.03716     0.01328   7237.31843   8450.73389  1.04357         5972.13461     17.72531   0.0003   57505.6725  0.69345  0.00596   102921.10655  45.45148  19.46865  57525.01361    50.11333       43.81321    9.21651  14.60713   19.5    1.00788  -19.99536  0.99629 
   -9.41903  0.02169  13.14518     15.14842   2.0407  0.60905  0.65685  0.11184     0.05674   7427.17938    8449.6279   1.4013         5448.40915     19.58472  0.02135  57509.84097  0.21614  0.01424   165303.17059  45.12281  19.44205  57522.69659    50.09734       43.86366    8.40775  11.86184   17.0    1.21312   -20.1053  0.98996 
   -9.27271  0.02051   9.84106     14.84332  1.31739  0.62781  1.32859  0.04586      0.0163   6221.21248     7676.626  1.65341         5173.49899     17.11729    7e-05  57509.98729  0.30674  0.02725   243770.53639  45.01549   19.3706  57525.01361    50.03996       43.79136    9.25864  12.92221   17.5    1.17294  -20.04385  0.97944 
   -8.99425  0.00139    8.8771     14.62526  1.28916  1.54085  3.85652   0.0239     0.01702   7674.54365   6965.95232  1.46944         5422.26818     16.43648    2e-05  57510.26575  1.35496  0.00538    529847.6244  44.75846  19.43869  57525.01361    50.03454       43.79025    9.25864  12.92221   17.0    1.26087    -20.141  0.99655 
    -7.7477  0.00203  13.00253     15.02731  1.92442  0.77236  0.65061  0.04179     0.02601   3239.17156   6268.24131  2.29518         5703.38058     16.89653    4e-05   57511.5123  0.04072  0.00132   266415.23463  44.89953  19.50543     57521.32    50.03803       43.79274    9.26706  13.48778   15.5    1.22006  -20.29896    0.999 
   -8.19566  0.03559  11.82046     15.13879  1.57019  0.40476  0.65968  0.05063     0.01604   4557.39079   9448.67527  2.31585         5224.74436      18.1296  0.00075  57511.06434  0.08173  0.02348   107512.07511  45.28807  19.43982  57525.01361    50.11446       43.84683    8.51692  12.59513   16.0     1.2459  -20.25714  0.98032 
   -9.34496  0.03591  12.74041     14.93594   1.6713  0.67102  0.53067  0.07355     0.02221   5207.74106   7631.28018  1.94935         5486.70593     17.55333   0.0002  57509.91504  0.08585  0.01905    338342.7646  44.75218  19.31631  57525.01361    49.98971       43.78268    7.95838  11.71194   18.0    1.15296  -20.17389  0.98302 
   -8.56495  0.00157   9.71385      14.9086  1.43334  0.66977  1.22701  0.04003     0.01754   5697.33518    9094.2198  1.83947         5579.52851     19.45264  0.01575  57510.69505  0.23759  0.00193   191313.78618  45.16866  19.52125  57525.01361    50.10358       43.86212    9.26706  13.47936   15.0     1.3168  -20.28944  0.99873 
   -6.38085  0.00943  14.74383     14.91203  1.99503  1.47808  0.80467  0.03424     0.01498   4301.76999   9600.72402  2.43308         5492.44866     17.52531  0.00019  57512.87915  0.08883  0.00759    603833.3467  44.45066  19.29039  57525.01361    50.07184       43.85016    7.95838  11.71194   14.0     1.3288  -20.35443    0.993 
   -9.91302  0.01752  11.05844     14.82215  1.74097   1.3717  0.67822  0.06432     0.02588     4393.155     8629.474  1.91595         5545.63119     18.41519  0.00145  57509.34698  0.07808  0.01188   448422.59384  44.77056  19.38449  57525.01361    50.08131       43.81397   10.15972  13.66393   16.5    1.16447   -20.1811  0.99247 
   -9.63654  0.00931  13.32912     14.81037  1.91486  1.45767  0.91923  0.06422     0.02458   6684.10318    9342.4191  1.46448         5756.05163     16.18725    1e-05  57509.62346  0.24499  0.00855   756519.52169  44.42256  19.26907  57525.01361     50.0045       43.81689    7.95838  10.64314   17.5    1.10495   -20.1318  0.99313 
   -6.65216  0.00145  13.88101     14.99528  1.76178  0.76203  0.26408  0.07093     0.03196   3465.60205   9748.68922  2.41434         5396.81947     19.39729  0.01387  57512.60784  0.01892  0.00038   322147.13181   44.7219  19.32194  57525.01361    49.98513        43.7691    8.79241  11.71194   14.5    1.31408  -20.21912  0.99962 
   -5.95982  0.01142  12.21129      14.7853  1.55606  1.07423  0.43099  0.04569     0.01962   3608.95244   4817.74826  2.43957         5592.79215      16.4026    1e-05  57513.30018  0.03349  0.00492   579105.01446  44.52459  19.37926  57525.01361    50.07797       43.83633    8.51692  12.59513   14.5    1.33873  -20.38851  0.99547 
   -7.80759  0.00161  12.80935     14.99616  1.79976  0.78254  0.88587  0.03545     0.02862   4336.74958    3876.5064  2.10535         5509.11846     18.22672  0.00094  57511.45241  0.09939  0.00143   279107.64912  44.86323  19.22488  57522.69659    50.05057       43.81634    8.60022  11.80286   15.5    1.29474  -20.22316  0.99884 
   -7.55604   0.0045  10.03619     14.90121  1.61007  0.92302  1.16812  0.06966     0.03518    7345.6324   7450.32329  1.52521         5367.58542     19.82037  0.03674  57511.70396  0.37599  0.00525   237343.53863  45.09718  19.26415      57525.4    49.97971       43.82075    7.80796   9.75995   15.5    1.32536   -20.1523  0.99691 
   -9.63704  0.02421   8.24605     15.06663  1.72028  0.58817  5.66964  0.01483     0.01261   7404.58324   4650.68597  1.39116          5040.9702     20.59432   0.2183  57509.62296  1.85432  0.13727    79918.24998  45.76931    19.403  57525.01361    50.22912       43.99005    8.40775  12.69587   17.0    1.22434  -20.29126  0.95326 
