 texplosion  fnickel    Pspin  log(Bfield)      Mns  thetaPB   mejecta    kappa  kappagamma     vejecta  temperature    alpha  cutoff_wavelength  log(nhhost)      A_V         MJD0  kenergy  mnickel            TSD   log(L0)  Peak_mag     Peak_MJD  log(E_rad)  log(Peak_lum)  Rise_Time    E_fold  tau_1  delta_m15     r_peak     frac 
  -23.57187  0.00352  3.11567     13.81237  1.64602  0.89154   4.52193   0.1755     0.11071  6969.40408   7423.05114  0.94224         4036.59044     17.96219  0.00051  55538.02813  1.31021  0.01593  3520594.75471  44.95156  20.20388  55612.63773     51.2715        44.3715   41.36389   58.9895   78.0    0.12215  -21.57886  0.99908 
  -23.84611   0.0021  2.85176     13.61838  1.46116  1.40938   4.68755  0.17071     0.17323  7441.92645   7190.45346  0.92136         3912.39126     19.36588   0.0129  55537.75389  1.54862  0.00987  6397046.00839  44.71734  20.19815  55612.63773    51.28114       44.37799   38.46525  59.62113   83.0    0.12261  -21.60459  0.99943 
  -22.90135  0.09197  3.26075     13.87029  1.71093   0.8702   7.29822  0.11497     0.08138   7300.0881   7403.41318   0.8598         4193.19873     16.54923    2e-05  55538.69865  2.32006   0.6712  3069791.92651  44.98833  20.20356      55610.5      51.296       44.39967   38.46525  57.69787   76.0    0.12499    -21.607  0.96165 
  -19.78615  0.24489  3.63323     14.10893  1.78355  0.59515   12.1281   0.0743     0.06739  7367.60979   7156.09911  1.17164          3915.5788     18.40433  0.00141  55541.81385  3.92711  2.97001   1323805.4853  45.27772  20.19353      55610.5     51.2545       44.33874   40.38851  61.54439   80.5    0.12422   -21.6041  0.83033 
  -22.17147  0.40744  3.09359      13.8941  1.48063  0.63356   4.91708  0.15288     0.11216  7088.96905   7462.36555  0.98719         4158.23798     18.01754  0.00058  55539.42853  1.47401   2.0034   2142786.9614  45.12739  20.18247      55610.5    51.30017       44.41448   38.46525  55.77461   82.0    0.12428  -21.59054   0.8822 
  -23.54268  0.00695  3.53992     13.83004  1.92772  1.28268   4.20063  0.22148     0.17705  7614.53238   7629.83309  0.89768         4015.38345     17.10737    7e-05  55538.05732  1.45288   0.0292  4906505.18088  44.76513  20.21377      55610.5    51.28093       44.38581   40.38851  57.69787   75.5    0.12534  -21.60914  0.99829 
  -21.34676  0.12994  3.77389     13.92184  2.05373  1.10166   7.79837  0.10881     0.10454  7596.75162   7238.36206   0.8306         4106.50647      16.4895    2e-05  55540.25324  2.68464  1.01334  3892822.24932  44.83755  20.17395      55610.5    51.26092       44.36124   42.31177  59.35395   78.5     0.1226  -21.61871  0.94217 
  -20.16491  0.13825  3.50476     13.87075  1.83248  1.04033   5.58009  0.15395     0.14226  7426.75388   7414.84046   1.2137         3861.49641     17.52593  0.00019  55541.43509  1.83597  0.77145  3790363.72671  44.86389    20.213      55610.5    51.27813       44.38903   38.46525  57.69787   77.0    0.13084  -21.62107   0.9544 
  -23.65715  0.04626  3.32477     13.76065  1.79082  1.26134   3.50301  0.20986     0.14647  6972.08707   7587.58016  0.82389         4208.21298     17.15025    8e-05  55537.94285  1.01577  0.16203  5534572.58796  44.73529  20.20108  55612.63773    51.27509       44.38149   39.44063  56.72249   82.0    0.11943  -21.57859  0.99067 
   -20.6415  0.00153  3.40167     13.93269  1.82243  0.81741   8.59445  0.09329     0.06746   7203.2735   7653.41333  1.06798          4016.8658     16.63938    2e-05   55540.9585  2.66014  0.01318  2669739.88382  45.03964   20.2188      55610.5    51.29961       44.40791   38.46525  55.77461   74.0    0.12766  -21.60886  0.99923 
  -23.05662  0.04753  2.89476     13.77204  1.49532  0.86452   5.13095  0.17327     0.11418  7561.92952   7113.84661    0.822         3995.31833     16.87934    4e-05  55538.54338  1.75021  0.24385  3324327.02467  44.99865  20.18243      55610.5    51.27528       44.37811   39.44063  58.64575   77.5    0.12516  -21.61003   0.9862 
  -22.48686  0.03909  2.78345     13.68274  1.45893  1.00659   6.25746  0.13368       0.143  8477.69979   6847.27738  0.51125         3881.42265     19.66427  0.02564  55539.11314  2.68276  0.24458  4524171.24677  44.88817   20.1577      55610.5    51.26701       44.37634   39.44063  56.72249   81.0    0.12752  -21.65258  0.98667 
  -22.99502  0.08172   3.4438     14.25624   1.9025   0.3886   5.30127   0.1745      0.1409  7463.63497   7426.91716  0.78659         4189.15607     18.36664  0.00129  55538.60498   1.7616  0.43324   643785.01579  45.66535   20.1824  55612.63773     51.2773       44.37868   39.44063  58.64575   73.5    0.12638  -21.62085  0.97619 
  -22.59187  0.04961  3.00431     13.79923  1.53888  0.88506  11.12817  0.07131     0.05668  6982.93804   7337.97559  0.88517         4308.77222     17.88771  0.00043  55539.00813  3.23688  0.55207  3251199.61655  44.98852   20.1901  55612.63773    51.26881       44.37025   39.44063  60.56901   78.5    0.12431  -21.59687  0.96841 
  -22.06596  0.15474  3.06901     13.73339  1.55726  1.23619   8.44625  0.08046     0.05504  6411.49033   7512.44375  0.88643         4511.22762     17.95693   0.0005  55539.53404  2.07114  1.30695  4649312.80632  44.81982  20.18425  55612.63773    51.26911       44.36801   39.44063   58.9895   82.5    0.12367  -21.57473  0.92674 
  -21.36298  0.06202   2.9357     13.80426   1.5455  0.96003  15.16605  0.05225      0.0462  6666.68546   7520.72388  0.98235         4283.23595     19.46672  0.01627  55540.23702  4.02087  0.94057  3046375.27924  45.03871  20.20653      55610.5    51.28804       44.39578   40.38851  57.69787   76.0    0.12362   -21.6255  0.95022 
   -23.2899  0.03397  3.67027     14.01516    2.106  0.77433   6.60261  0.12496     0.12265  7612.73459   7543.42892  0.62894         4320.13639     19.68359  0.02681   55538.3101  2.28257   0.2243  2456688.01829  45.07256  20.20018  55612.63773    51.27742       44.37308   39.44063  58.64575   77.5    0.12043  -21.63235  0.98776 
  -19.98859  0.36901  3.85337     13.96699   2.0017  1.01773   4.67117  0.19653     0.13712  7393.12431   7455.95273   1.3789         3741.01938     16.12394    1e-05  55541.61141  1.52303  1.72371  3213018.06291  44.89165  20.18558      55610.5    51.26784         44.374   39.44063  56.72249   76.5    0.12435  -21.61033  0.89877 
  -21.68931   0.0082  3.20553     13.71686   1.6871   1.5647   5.60889  0.13257     0.10286  7201.39719   7270.65512   0.8726         4313.66332     16.92454    5e-05  55539.91069  1.73515  0.04598  5929819.97337  44.71115  20.18341  55612.63773    51.26859       44.36757   39.44063   58.9895   80.0    0.12985  -21.61198   0.9973 
  -22.20095  0.35604  3.81952     13.93733   1.9785  1.18745   7.94148   0.1208     0.10443  7836.24321   7161.80293  0.81526         4034.73179     18.11935  0.00073  55539.39905  2.90901  2.82746  3576988.96535  44.84765  20.21053      55610.5    51.27879       44.38083   38.46525  59.62113   79.0    0.12227  -21.62236  0.84441 
   -21.3414  0.01529  3.21073     13.94183  1.67319  0.65001   8.25743  0.08925     0.06913  7072.74669   7442.67451  1.04549         4131.70169     18.46309  0.00161   55540.2586  2.46404  0.12627  2093661.08194  45.15828  20.21928  55612.63773    51.28744       44.38991   38.46525  57.69787   79.0    0.13142  -21.60944  0.99251 
   -20.7989  0.09615   3.2376     13.79987  1.66838   1.0584   9.47356  0.07624     0.06435  7252.73062   7212.08801  0.87127         4222.55881     17.75703  0.00032   55540.8011  2.97265  0.91089   4081428.5099  44.85988  20.21295  55609.70668    51.26702       44.35318   40.38851  63.24572   80.5    0.12965  -21.60753  0.94748 
  -21.59669  0.05648  3.36744     14.02012  1.75106  0.58727  12.67468  0.05848     0.04683  7204.13153   7400.72392  0.92619         4163.18088     17.53024  0.00019  55540.00331  3.92399  0.71592  1680647.58686  45.23207  20.20505  55612.63773      51.275       44.37532   38.46525  59.62113   78.5    0.12388  -21.59834  0.95794 
  -21.18908  0.00634  3.14622     13.93306  1.65776  0.66821  12.25074  0.05656     0.04543  6773.36185    7492.0059  0.94086         4357.56112     17.35546  0.00013  55540.41092  3.35273   0.0777  2073893.68254    45.176  20.21872  55612.63773    51.26882       44.36481   41.36389  58.64575   79.0    0.12996  -21.60252  0.99551 
  -21.62688  0.00103  3.18679     13.72855  1.68198  1.28129   7.60649  0.09926     0.07044  7262.61562   7243.15169  0.88256         4296.04397     18.56509  0.00204  55539.97312   2.3933  0.00782  5536489.09222  44.74472  20.18465  55612.63773    51.28062       44.38276   39.44063   58.9895   80.0    0.12655  -21.62205  0.99954 
  -21.23839  0.06548  3.24175     13.98007  1.67881  0.64318  14.05772  0.06401     0.05134  7452.96799   7299.61616  0.98227         3957.90101     18.25426    0.001  55540.36161  4.65801  0.92047  1795748.51964  45.21804  20.20439  55612.63773    51.25294       44.35593   40.38851  59.62113   76.5    0.12792  -21.61006  0.94743 
  -22.03077  0.00557  3.31979     13.88691  1.79014  0.81872   5.74873  0.15888     0.11129  8084.49082    7165.1263  0.86931         3871.30697     18.72552  0.00295  55539.56923  2.24132  0.03202  3083955.67615   44.9904  20.18222  55612.63773    51.26918       44.37952   39.44063  56.72249   77.0    0.12854  -21.64599  0.99815 
  -21.35837  0.40252  2.98392     13.82534  1.44902  0.88056   7.28786  0.10845     0.09401  7061.45198   7559.62479  0.81524         4274.43375     19.31169  0.01139  55540.24163  2.16778   2.9335  2677780.08715  45.05257  20.21347      55610.5    51.26766        44.3717   38.46525  57.69787   80.0    0.12715  -21.59605   0.8434 
  -20.89187   0.2342  3.42349     13.97093  1.79498   0.8188     6.944  0.11004     0.08194  6626.99313   7750.10799  0.95437         4446.97856     16.09848    1e-05  55540.70813  1.81915  1.62631  2233337.17291  45.10501  20.18847      55610.5    51.25663       44.34045   40.38851  63.46766   76.0    0.12429  -21.60344  0.91043 
  -20.36586  0.00161  3.86854     13.86569  2.13596  1.55321   2.79872  0.26205     0.23843   7596.3532   7365.38366    0.928         4024.80885     16.06097    1e-05  55541.23414  0.96338   0.0045  5509548.73298  44.68223  20.22298  55612.63773    51.26937        44.3669   41.36389  60.56901   79.5    0.13049  -21.60923  0.99973 
  -21.29894  0.04703  3.03609     13.75662   1.5138  0.99463   6.16994  0.15466       0.122  7186.98168    7291.5948  1.87831         3537.35882     16.12021    1e-05  55540.30106  1.90108  0.29014  3974506.91367    44.885  20.19336  55612.63773    51.24983       44.32889   42.31177  61.54439   75.5    0.12472  -21.60627  0.98235 
  -21.73548  0.21227  3.23156      13.7744  1.64228   1.3246   8.09355  0.09836     0.07391   6810.9577   7499.65781  0.92753         4423.34196      16.8732    4e-05  55539.86452  2.23966  1.71803  4500789.25564  44.81218  20.18119  55612.63773    51.26972       44.37416   39.44063  58.64575   79.5    0.12099  -21.60746  0.90404 
  -20.79178  0.00141   3.4021     13.92876  1.88872  0.85422   2.41293  0.27344     0.17542  6327.13117   7814.20854  1.07833         4408.83938     19.71886  0.02908  55540.80822  0.57622   0.0034  2818170.55952  45.03155  20.19832  55612.63773    51.26772       44.36626   39.44063   58.9895   77.0    0.12381  -21.63093  0.99981 
  -20.67585  0.04932  3.59989     14.15187  2.00806  0.55921   4.61414  0.18711     0.15758  7228.54567   7270.10962   1.0401         3900.13679     19.23676  0.00958  55540.92415   1.4382  0.22756  1200684.05309  45.37962  20.21389      55610.5    51.28791       44.40307   38.46525  55.77461   75.0     0.1259  -21.60839  0.98727 
  -22.18187   0.0314  3.37372       13.835  1.81732  1.12615   9.41503  0.08418     0.05683  6634.69736   7611.11517  1.05261         4140.03864     18.42146  0.00147  55539.41813  2.47224  0.29563  4106469.62985  44.85859  20.18224      55610.5    51.26662       44.36054   40.38851  61.32246   77.5    0.12285  -21.58397  0.98312 
  -20.84278   0.0019  2.88413     13.77005  1.49346  0.89188   4.20254  0.17922     0.12565  6857.67825   7448.90334  1.02764         4020.09178     17.40331  0.00014  55540.75722  1.17894    0.008  3326096.83562  45.00107  20.20848      55610.5    51.27849       44.39013   38.46525  57.69787   77.5    0.12909  -21.59067  0.99955 
  -23.07019  0.00252  2.86302     13.97636  1.46012  0.44453   3.40378  0.23798     0.19263  7363.40627    7126.4919  0.85769         4186.96234     16.12268    1e-05  55538.52981   1.1009  0.00859  1239164.02952  45.42646  20.18019      55610.5    51.30429       44.42328   38.46525  57.69787   81.5    0.12475   -21.6107   0.9995 
  -22.07524  0.04351  3.18329      13.7364  1.64394  1.31212    5.1518  0.14721      0.1063  6613.56575   7707.36291  1.15859         4136.56505     16.67273    3e-05  55539.52476  1.34418  0.22415  5207753.04919  44.76233  20.21178      55610.5    51.27952       44.38496   38.46525  57.69787   78.5    0.12125  -21.58369  0.98668 
  -21.73347  0.14296  3.30741     13.97108  1.67875  0.75261  14.71939  0.05878     0.05205  6964.47698   7306.52486  0.93962         4185.71317     16.74142    3e-05  55539.86653  4.25887   2.1043  1948149.78229  45.16523  20.20255      55610.5    51.28793       44.38848   38.46525  59.96488   77.5    0.12119  -21.58358  0.88401 
  -23.45329  0.01513  2.85002     13.63819  1.45934  1.38735  14.29134  0.05434     0.04316  7046.82917   7407.06975  0.82517         4343.44981     18.85773    0.004  55538.14671  4.23338  0.21623  5824800.78474  44.75802  20.20106      55610.5    51.26956       44.37296   38.46525  61.27722   80.5    0.12134  -21.60177  0.98766 
  -21.72781   0.2144  3.74045      13.9117  1.93731  1.35002  11.56896  0.06488     0.04859  6440.69847    7501.6211  1.06743         4289.32355     17.10731    7e-05  55539.87219  2.86278  2.48044  3779683.84466  44.83274  20.20411      55610.5    51.27259       44.36257   41.36389  62.27034   81.0    0.11961  -21.57926  0.86231 
  -20.62387  0.49461  2.93487     13.96613  1.37359  0.55637   5.80312   0.1263      0.1016  6667.91296   7555.16719  0.96032         4449.64804     16.59394    2e-05  55540.97613  1.53911  2.87029  1284051.89838  45.36294  20.20734  55612.63773    51.28699       44.41132   38.46525  53.85134   80.5    0.12631  -21.59071  0.84006 
  -21.43776  0.11331  3.23827      13.7613  1.66969  1.14114   5.15431   0.1467     0.11156  7332.78025    7357.5002   0.9766         4032.10795     18.04445  0.00062  55540.16224  1.65324  0.58404  4880609.25945  44.78238  20.20637  55612.63773    51.27131       44.37131   39.44063   58.9895   80.0    0.12522  -21.60562  0.96557 
  -22.48606  0.01087  3.10675     13.79351  1.60804  0.86824   3.71534   0.2064     0.12846  7154.06379   7394.37731  0.97504         4026.39131     17.63396  0.00024  55539.11394  1.13431   0.0404   3729924.8747  44.91883  20.19272      55610.5    51.27239       44.37442   40.38851  59.96488   79.5    0.11823  -21.58628   0.9976 
  -23.26835   0.0046  3.46855      13.8314  1.92375  1.32837   4.15245  0.21573     0.17948  7614.49718   7241.54454  0.73289         4180.03394     16.71589    3e-05  55538.33165   1.4362  0.01909  4671519.57132  44.80324   20.2041      55610.5    51.24956       44.31443   44.23503  65.39092   75.5    0.12158  -21.61738  0.99892 
  -24.30847  0.09481   3.3387       13.838  1.82389  1.12274   4.78228  0.18376     0.15115  7379.24206   7172.70766   0.7104         4299.17698     16.54759    2e-05  55537.29153  1.55341  0.45343  3980762.92418  44.88272  20.17824  55612.63773    51.27473        44.3801   39.44063  58.64575   78.0    0.12096  -21.60974  0.97502 
  -22.65094   0.0343  3.31994     13.93335  1.77852  0.75298   5.77172  0.14035     0.14264  7278.68476   7416.93334   0.8197         4056.89841      17.5174  0.00018  55538.94906  1.82406  0.19797  2474162.85389  45.08322  20.21915      55610.5    51.31099       44.42573   36.54198  57.69787   77.5    0.12093  -21.58103  0.98861 
  -22.06043  0.06855  3.03221      13.8776  1.53863  0.69214  10.96668  0.07043     0.05771  7033.10059     7515.701  0.94019         4207.86737     18.76459  0.00323  55539.53957  3.23591  0.75173  2308178.87774  45.12919  20.18824      55610.5    51.27253       44.37801   39.44063  56.72249   80.0    0.12262  -21.60032  0.95663 
  -20.63534  0.00656  3.23528      13.7693  1.72968  1.27743   6.09472   0.1139     0.10731  6780.50472   7765.77997  0.93921         4380.75794     19.31762  0.01154  55540.96466  1.67149  0.03998  4864183.11168  44.79998  20.18515      55610.5    51.28195       44.38745   38.46525  57.69787   78.5    0.12847   -21.6106   0.9977 
  -21.05552  0.04336  3.16392     13.82763   1.6902  0.98099   3.59315  0.22458     0.16454  7202.26919   7653.59679  0.92997         4130.31443     17.39942  0.00014  55540.54448  1.11184   0.1558  3474911.41623  44.95539  20.19811      55610.5    51.27522       44.39205   38.46525  55.77461   73.5    0.13227  -21.61935  0.99122 
   -22.1086  0.02317  3.42936     14.04833  1.81132  0.56154   7.07307  0.11951     0.09777   7297.3482     7263.252  1.22924         3824.81905     17.51212  0.00018   55539.4914  2.24681  0.16388  1583355.10348  45.25684  20.20775      55610.5    51.26801       44.36697   40.38851  59.96488   78.0    0.12314  -21.60526  0.99017 
  -22.47385  0.10112  3.05529     13.72528  1.55767  1.32573  11.10565  0.07274     0.05126  6865.93494   7417.74918  0.88992         4360.96256     17.23282    9e-05  55539.12615  3.12299  1.12298  4784534.78915  44.81138   20.2003      55610.5    51.27586       44.35358   40.38851  61.54439   78.0    0.12444   -21.5973  0.93701 
  -19.93375  0.23558  3.43136     13.98972  1.71482  0.71908  10.21951  0.07198     0.06392  6971.81908   7582.13963  0.91878         4393.34465      18.9133  0.00455  55541.66625  2.96312  2.40752  1965697.67835  45.13861  20.21514  55612.63773    51.27419       44.37509   40.38851  59.62113   80.0    0.12586  -21.60704  0.86431 
  -21.37326  0.04978  3.55035     13.83192  1.92852  1.38154   4.59745  0.18869     0.16549  7775.99263    7169.3642  0.82918         4044.34187     18.21772  0.00092  55540.22674  1.65827  0.22884  4894987.20446  44.76378  20.21267  55612.63773    51.28516       44.39823   38.46525  55.77461   77.0    0.13109  -21.61976  0.98669 
  -22.28559  0.29368  3.45277     14.06869  1.79583  0.54369    3.7417  0.23598     0.17025  7631.94613   7314.92759  0.90549         4084.13256     16.01343    1e-05  55539.31441  1.30007  1.09886  1448902.69812  45.28574  20.19023  55612.63773    51.26935       44.38067   38.46525  57.69787   77.0    0.12248  -21.62178  0.93613 
  -21.31277  0.00214  2.98118     13.66239  1.53955  1.50206   3.23095  0.23348     0.20371  7184.65483   7368.74964  0.95898         4087.30495     19.17317  0.00828  55540.28723  0.99488  0.00691  6014445.66915  44.72827  20.20831      55610.5     51.2647       44.34655   42.31177  63.46766   80.0    0.12693  -21.60589   0.9996 
  -19.52579  0.00149  3.14172     13.80227  1.64963   0.9958   5.34931  0.13837     0.12146  6979.32988     7414.122  1.05047         4069.88344     17.29831  0.00011  55542.07421  1.55436  0.00796  3758430.76566  44.91689  20.20081      55610.5    51.27971       44.40154   38.46525  55.77461   77.0    0.13073  -21.60205  0.99954 
  -21.52735   0.2287  3.23844     13.83739  1.66604  0.97207   7.99167  0.09008     0.07367   6892.8976   7384.67117  0.89463         4173.94213     19.58593  0.02141  55540.07265    2.265  1.82772  3430837.13015  44.93446  20.19346  55612.63773    51.28525       44.39488   40.38851  57.69787   82.0    0.12239  -21.59671  0.89991 
  -21.70751  0.16113  3.49098     13.82977  1.78795  1.10374   6.80682   0.1066     0.07671   6896.2473     7421.091  0.99292          4234.1073     16.20865    1e-05  55539.89249  1.93107  1.09681  4431217.74627  44.78878   20.1833  55612.63773    51.26964       44.37739   39.44063  58.64575   82.5    0.12285  -21.57998  0.93445 
  -21.50544   0.0011  3.54559      13.8603  1.90798  0.99424   5.74973  0.13297     0.10891  7358.36544   7042.51815  1.06254         3902.77025     18.31657  0.00115  55540.09456  1.85711  0.00633  4238085.87295  44.82287  20.18023      55610.5    51.27304       44.37181   41.36389  60.30184   81.5    0.12503  -21.60027  0.99962 
  -21.24118  0.16782  3.21385     13.63405  1.59288  1.47823   2.97056   0.2607     0.20433  8065.32492   6884.50072  1.37023          3481.5445     18.47403  0.00165  55540.35882  1.15268  0.49852  8240471.75038  44.54103  20.18846  55612.63773    51.25717       44.33682   40.38851  63.46766   85.0    0.11862  -21.59722  0.96832 
  -21.41694  0.10234  3.54642     13.94556  1.84197  0.77464   8.95771  0.07423     0.05788  6599.10267   7345.82133  1.09832         4182.11307     17.61736  0.00023  55540.18306  2.32699  0.91669  2764098.22176  44.99299  20.18574  55612.63773    51.27449       44.37097   40.38851  59.35395   85.0    0.12655   -21.5751  0.94523 
  -20.17231   0.3436  3.05051     13.74867  1.57865  1.21331   4.11309  0.19873     0.15988  7159.47184    7657.8245  1.20976         3944.12155     19.99436  0.05484  55541.42769  1.25764  1.41325  4340243.41472  44.86087  20.19542  55612.63773    51.27053       44.37053   39.44063   58.9895   76.0    0.13067  -21.66903   0.9237 
  -24.00308  0.04475  3.12842     13.72076  1.62944  1.26924   7.37043  0.10854     0.07306   6963.5459   7379.50336  0.96065         4092.03809     17.32014  0.00012  55537.59692  2.13197  0.32986  5357664.15735  44.76126  20.21622  55612.63773    51.27277       44.37474   41.36389  58.64575   80.5     0.1193  -21.58316  0.98089 
  -21.15192  0.37034  3.65693     13.85143  1.89508  1.42284   4.07985  0.19099     0.14519  6894.51867   7390.25521  1.12017          4111.0398     18.11557  0.00072  55540.44808  1.15686  1.51092  4664518.47393  44.75143  20.18467      55610.5    51.26828       44.37295   39.44063  58.64575   80.0    0.12806  -21.59603  0.91184 
  -20.39081  0.48586  3.12841     13.99741  1.54408  0.54598   3.38184  0.23129     0.18524   7187.7378   7401.68537  1.00938          4116.1989     17.31388  0.00011  55541.20919  1.04223  1.64311   1420084.9653  45.31456  20.22195  55612.63773    51.29473       44.39899   40.38851  57.69787   79.5    0.13062  -21.60842  0.90529 
  -22.45668  0.06159  2.88895     13.70111  1.51287  1.25199   5.07069  0.16535     0.12369  7160.56718   7453.15729   0.7679         4261.26962     18.25238  0.00099  55539.14332  1.55092  0.31232  4643788.57013  44.86029  20.20284      55610.5    51.28414       44.37771   40.38851  59.96488   75.5    0.12184  -21.60136  0.98284 
  -20.52207  0.00101  3.26283     14.07044  1.77227   0.5412   5.64605  0.12991     0.11412   6919.4798   7584.51129  0.82909         4292.51349     16.18397    1e-05  55541.07793  1.61257  0.00571  1266628.79371  45.38754  20.20306  55612.63773     51.2712       44.37683   39.44063  56.72249   75.5    0.13028  -21.58773  0.99968 
  -22.61537  0.15842  3.31493     13.83326  1.80187  1.07125   4.23029  0.18332     0.14294  6918.25125   7152.19236  0.93811         4224.52041     19.68204  0.02672  55538.98463  1.20779  0.67018   3962528.9672  44.88565  20.22588      55610.5     51.2805       44.38496   40.38851  57.69787   82.5     0.1214   -21.6282  0.96331 
  -21.77741  0.35156  3.16955     13.72936  1.57399   1.4155   5.91114  0.15441     0.16974  8051.30648   7250.90424  0.71502         4125.88517     16.15339    1e-05  55539.82259  2.28576  2.07813  5106141.23499  44.75576  20.19094      55610.5    51.30606       44.41812   38.46525  55.77461   79.0    0.12266  -21.63353  0.88341 
  -21.09978  0.04044  3.18422     13.72133  1.64409  1.20855   8.81564  0.07549     0.07353  7108.93705   7377.51273  0.95667         4132.68721     19.50553  0.01779  55540.50022   2.6576  0.35647  5585932.90008  44.73167  20.20839      55610.5    51.27866       44.38278   38.46525  57.69787   84.5    0.12906  -21.59631  0.97885 
   -19.1704  0.03113  3.64424     13.85728  1.95991  1.26745   5.18483  0.12424     0.11067  6726.44338   7587.48436  1.09074         4184.33661     17.96603  0.00051   55542.4296  1.39937   0.1614  4663356.59514  44.76917  20.18386      55610.5    51.27209       44.37648   39.44063  58.64575   78.5    0.13152  -21.58865  0.99031 
  -21.58096   0.0191   3.4271     13.96402  1.82685   0.7223   6.69777  0.12465     0.09614  7381.63951   7392.40291  1.11999         3957.30164     16.73096    3e-05  55540.01904  2.17702   0.1279  2351430.08764  45.08936  20.18139  55612.63773    51.27985       44.37841   39.44063  58.64575   76.0    0.12455  -21.62348  0.99243 
  -21.63161  0.20056  3.22881     13.83072   1.6436  1.26693  12.73912  0.06794     0.05137  6595.59432   7519.58809  0.98507         4313.73336     16.11716    1e-05  55539.96839  3.30578  2.55496  3469404.56836   44.9263  20.20611      55610.5    51.28363       44.39497   38.46525  57.69787   77.5    0.11903  -21.58853  0.86487 
  -20.23021   0.3401  3.43327     13.87468  1.73177   1.4094   9.74251  0.08198     0.07356  6702.26413    7444.3223  0.95379         4301.70206     18.45047  0.00157  55541.36979   2.6106  3.31347   3375628.1275  44.90757  20.20224      55610.5    51.28315        44.3927   38.46525  55.77461   79.5    0.12103  -21.58511  0.82548 
  -21.56425  0.06672   3.0626     13.77218  1.57849  1.01358  11.14531   0.0657     0.05214  7025.54556   7204.36313  0.82819         4276.44527     18.30938  0.00113  55540.03575  3.28155  0.74361  3925329.05137  44.90103  20.21372  55612.63773     51.2766       44.37612   39.44063  58.64575   80.0    0.12929  -21.59218  0.95788 
   -19.9219  0.35174  3.27435     13.83378  1.62052  1.48858   9.38363  0.09091     0.06354  6822.88204   7781.81033   1.0243         4231.64133     17.30192  0.00011   55541.6781  2.60576  3.30059  3468693.26615  44.90809  20.17775      55610.5    51.26827       44.37482   39.44063  58.64575   75.5    0.12313  -21.59634  0.82545 
  -21.52301  0.01568   3.3938     13.77527  1.80634  1.21868   4.45284  0.15691     0.13077  7324.77068   7161.56803  0.83961         4223.90773     16.30332    1e-05  55540.07699  1.42512  0.06983  5438164.43064  44.72882  20.18682      55610.5    51.27987       44.39367   38.46525  57.69787   82.0    0.12606  -21.59822  0.99584 
  -21.96176  0.00173  3.27743     13.78657  1.78408  1.37056   4.08259  0.19124     0.19639  6937.54582   7754.94569  0.83559         4462.58979     16.55899    2e-05  55539.63824  1.17213  0.00708  4755078.78836  44.81204  20.19629      55610.5    51.27221       44.37855   38.46525  57.69787   76.0    0.12621  -21.61338   0.9996 
  -22.60855  0.00753  2.94963     13.69045   1.4631  0.95832   5.56066  0.13537      0.1242   7670.4397   7291.87587  1.01898         3791.68594     17.95635   0.0005  55538.99145  1.95162  0.04188   4917249.1639  44.80286  20.19629      55610.5    51.27786        44.3933   38.46525  55.77461   83.0     0.1253  -21.58294   0.9974 
  -19.62448  0.46037  3.56527     13.87922  1.69372  1.53947    9.8683   0.0865     0.07105  7175.50764   7433.04841  0.94933         4154.74646     17.48641  0.00017  55541.97552  3.03092  4.54306  3486582.98831   44.8511  20.20525  55612.63773    51.27413        44.3784   39.44063   58.9895   81.0    0.12023  -21.58699  0.75578 
  -23.66193  0.00208  3.48097     13.83858  1.93255  1.53185   9.58384  0.08671     0.05905  6411.32811   7684.34546  1.07637         4364.53482     18.81917  0.00366  55537.93807  2.34997  0.01993  4572919.50302  44.81138  20.18903  55612.63773    51.26833        44.3651   40.38851  59.35395   74.5    0.11929  -21.60365  0.99888 
  -21.94336  0.13772  3.26315     13.77897  1.72993  1.30458    5.9253   0.1525     0.11993  7807.67224   7364.77163  0.78718         4055.04487     16.95453    5e-05  55539.65664  2.15467  0.81604   4733491.5686  44.80442  20.18367  55612.63773    51.27215       44.37009   40.38851  59.62113   75.0    0.12936  -21.63491  0.95446 
  -20.95384  0.00338  3.51834      13.8303  1.85922  1.09147  10.87407  0.06376     0.03853  6693.22909   7731.76617  1.15175          4252.7875     17.21229    9e-05  55540.64616  2.90597   0.0368   4668967.7897  44.77628  20.21462      55610.5    51.29312       44.40081   38.46525  57.69787   78.5    0.12565  -21.59739  0.99774 
  -20.92238  0.14368  3.52573     14.08618  1.87319  0.59729   6.79444  0.11858     0.09168  7165.42054   7477.46997  0.97161         4094.56138     17.78892  0.00034  55540.67762  2.08096  0.97621  1453922.31019  45.28439   20.2129  55612.63773    51.27553       44.38913   38.46525  57.69787   76.0    0.12704  -21.60206  0.94429 
  -21.33687  0.01363  3.09255     13.70043  1.56746  1.23129   8.89861  0.07643      0.0659  6950.25467    7336.6254  0.98039         4130.57877     18.59726   0.0022  55540.26313  2.56419  0.12126   5530689.5809  44.74063   20.1849      55610.5    51.27261       44.37574   39.44063  58.64575   82.5    0.12397  -21.56725  0.99262 
  -21.76376  0.06296  3.22552     13.68631  1.63138  1.42173   5.06708  0.15337     0.10803  7298.64628    7349.4575  1.30838         3750.15797     17.35773  0.00013  55539.83624  1.61016  0.31901  6682536.81293  44.63926  20.16935  55612.63773    51.24332       44.32099   42.31177  61.54439   82.0    0.11975  -21.59046  0.98026 
  -23.07169  0.01668  3.29592     13.74021   1.7507   1.3928   6.10215  0.12301      0.0751  6881.02806   7361.81085  0.93476         4283.63693     16.77654    3e-05  55538.52831  1.72352  0.10178  5842045.39086  44.70954  20.22308  55612.63773    51.27676        44.3775   39.44063  58.64575   80.0    0.11881  -21.59335  0.99403 
  -21.68654  0.07488  3.14775      13.7292  1.57621  1.12969   4.40079  0.20347     0.16227  7479.11975   7019.64795  1.54581         3564.49915     18.03195   0.0006  55539.91346  1.46845  0.32955  5046857.00174  44.76744  20.19936      55610.5    51.28557       44.40691   38.46525  55.77461   79.5    0.12473  -21.59883  0.97968 
  -21.24218  0.00478  3.16933     13.83818  1.67379  0.88674   5.11835  0.16027     0.12109  7315.59963   7457.44919  1.01626         4060.43717     19.25553  0.01001  55540.35782  1.63402  0.02446  3289181.81787  44.97353  20.17053  55612.63773    51.27209       44.38257   39.44063  56.72249   75.5    0.12533  -21.62586  0.99858 
  -20.23057  0.10831  3.44795     13.94636  1.78408  0.73982   5.52203  0.13093     0.11972  7020.65156   7549.62615  1.04423         4086.90128     17.76601  0.00032  55541.36943  1.62361  0.59806  2521372.74615   45.0435   20.1968  55612.63773    51.27038       44.36937   39.44063   58.9895   79.5    0.12922  -21.58109  0.96392 
  -20.29592  0.15331  3.69356     13.88649  1.97595  1.47275  10.52439  0.06352     0.05678  6429.53239   7492.53324  0.94287         4496.47089     17.65276  0.00025  55541.30408  2.59527  1.61354  4221802.95165  44.80423  20.20538  55612.63773    51.27961       44.36909   39.44063  60.56901   80.5    0.12769  -21.59064  0.91025 
  -20.99204  0.02055  3.30046     13.76345  1.72749  1.31784  12.28433  0.06466     0.05556  7301.33603   7415.59743  1.01923         4038.85625      17.4551  0.00016  55540.60796  3.90646  0.25248  5193831.81448  44.75362  20.16386  55612.63773    51.27356       44.38886   39.44063  56.72249   77.5    0.12501  -21.60754  0.98504 
  -20.42932  0.17579  3.69541     13.95393  1.93527  0.97755   8.42545  0.08417     0.06728  6388.48257   7703.84594   1.1655         4218.92216     16.51063    2e-05  55541.17068  2.05124   1.4811  3034103.52442  44.93823  20.21096  55612.63773    51.27505        44.3784   39.44063  58.64575   78.5    0.12719  -21.57991  0.91445 
  -20.84855   0.3148  3.85205     14.03617  2.02556   1.0742  10.75671  0.08881     0.08792  7196.04419   7535.70602  0.94173         4158.15252     17.33689  0.00012  55540.75145  3.32272  3.38618  2362719.82688  45.03059  20.23799  55612.63773    51.30731       44.40409   40.38851  57.69787   75.0     0.1216  -21.60188  0.82322 
  -19.58794  0.42905  3.11671     13.78358  1.49792  1.46594   8.16637  0.09266     0.07476  6411.06704   7644.08457  1.04483         4459.11709     18.43679  0.00152  55542.01206  2.00224  3.50377  3660511.49064   44.8934  20.20239      55610.5    51.29058       44.37606   40.38851  59.96488   80.0    0.12708  -21.59747  0.81369 
  -20.90113   0.2989  3.84193     13.97116  1.96564  1.13571  11.25887  0.07975     0.07193  7502.58237   7268.23849  0.86868         4119.17041     18.38336  0.00134  55540.69887  3.78045  3.36528  3076782.36172  44.90515  20.20891  55612.63773    51.27139       44.37338   40.38851  59.62113   79.0    0.12666  -21.61148  0.81749 
  -21.74495  0.03606  3.39578     13.78288  1.83902  1.39084    5.1554   0.1399     0.15505  7411.72341   7377.74393  0.73803         4316.48071     17.03641    6e-05  55539.85505  1.68938   0.1859  5352074.47665  44.74303  20.18324  55612.63773    51.26379       44.35192   40.38851  61.32246   80.5    0.13151  -21.61113  0.98933 
  -21.20449  0.24573  3.46456     13.78408  1.71832  1.43495   6.43501  0.13427     0.11236  7330.46285   7422.38057   1.3543         3688.11452     17.29521  0.00011  55540.39551  2.06271  1.58126  5176722.34015   44.7106  20.21185      55610.5    51.27166       44.36293   38.46525  61.54439   79.5    0.12415  -21.58359  0.90464 
  -20.96913  0.06692  3.43347     13.84759  1.89405  1.17694   7.78785  0.09195     0.08177   7011.6357   7392.35101  0.90771         4267.07262     19.65787  0.02527  55540.63087  2.28393  0.52113  4183125.67924  44.85327  20.21858  55612.63773    51.26637       44.35147   42.31177  61.32246   80.5    0.12641  -21.63659  0.97139 
  -22.53005  0.00315  3.74126     14.01361   2.1003  0.80219   6.99115  0.10245     0.08185  6707.79306   7487.45773  0.92911         4421.22594     17.26248   0.0001  55539.06995  1.87644  0.02206  2564024.03297  45.03617  20.19754  55612.63773    51.28397       44.37621   39.44063  60.30184   79.0    0.12356  -21.60439  0.99873 
  -22.26688  0.01367  3.07657     13.74265  1.59031   1.1102  11.12394   0.0706     0.04354  6746.20672    7592.3714  1.19926         4075.57127     18.81027  0.00359  55539.33312  3.01999  0.15202  4572183.02245  44.83407  20.16051  55612.63773    51.26507       44.35648   40.38851  59.62113   76.5    0.12313    -21.606  0.99109 
  -21.38218  0.00804  3.52639     13.82476   1.9292  1.50331   4.58831  0.15823     0.12812  6696.03411   7648.19284  0.97385         4222.50688     16.82955    4e-05  55540.21782   1.2272  0.03691  4992545.41296  44.76124  20.22321  55612.63773    51.28495       44.37918   40.38851  61.27722   78.0    0.12377  -21.58026  0.99786 
  -22.97026  0.01705  3.20131     13.77154  1.73412  1.19079   4.59688  0.17157     0.12985  7331.50572    7372.0249  0.73339         4343.72077     16.94127    5e-05  55538.62974  1.47393  0.07838  4725677.59087   44.8228  20.16862  55612.63773    51.25958       44.37219   39.44063  56.72249   78.0    0.12668  -21.61911  0.99561 
  -20.41822  0.20827  3.82497     13.89176  2.04821  1.45164    8.5767  0.07749     0.08267  6895.22938   7544.20962  0.88082         4374.99057     19.59214  0.02172  55541.18178  2.43246  1.78631  4580613.36743  44.75404  20.19857  55612.63773    51.27236       44.37534   41.36389   58.9895   82.5    0.12743  -21.60637  0.89981 
  -20.31397  0.00416  3.26545     13.76249  1.71508  1.24536   8.17645  0.08619     0.08134  6901.81864   7603.74944  1.05234           4279.835      17.3188  0.00012  55541.28603  2.32337  0.03398  5070079.61598  44.77023  20.20887      55610.5    51.31439       44.41824   40.38851  57.69787   78.5    0.12933  -21.61769  0.99798 
  -19.55414  0.10463  3.19449     13.76203  1.63362  1.17665    4.9976  0.14826     0.12657  7123.66248   7327.49322  1.11473         4036.10689     16.75022    3e-05  55542.04586  1.51285  0.52291  4631333.64514  44.80749  20.20285  55612.63773    51.27885       44.38132   41.36389  56.72249   78.0    0.13377  -21.60982  0.96902 
   -21.3021  0.34024  2.97281     13.86861  1.46795  0.73408   5.53537  0.16024      0.1303  7491.79873   7363.02433  0.90112         4047.44279     17.02323    6e-05   55540.2979   1.8533  1.88334  2206145.28124  45.14559  20.21944  55612.63773    51.27464       44.37657   40.38851  57.69787   77.0    0.12829  -21.61784  0.89573 
  -20.98043  0.01189  3.49564     14.05162  1.87724  0.56132   5.16898  0.14335     0.10048  7248.48777   7430.80307  1.00837         4154.96232     18.97518  0.00525  55540.61957  1.62005  0.06147  1679388.71251  45.23016  20.23903      55610.5    51.28223       44.39499   38.46525  57.69787   79.5    0.12439  -21.62095  0.99634 
  -20.67892  0.36147  3.56164      14.0619   1.7959  0.67708   7.37667  0.12022     0.10039   7313.9123   7518.70952  1.01938         4098.87797     16.95546    5e-05  55540.92108  2.35389  2.66644  1590725.63547  45.21823  20.17905  55612.63773    51.29477       44.40506   38.46525  55.77461   77.5    0.12206  -21.61454  0.85159 
  -20.48438  0.00466  3.43306     13.78947  1.81146  1.15339   4.97942  0.17012     0.15389  8380.10703   6895.01417  1.07326         3618.57428     18.09187  0.00069  55541.11562  2.08595  0.02319  5227133.90827  44.73725  20.16756  55612.63773    51.24975       44.34264   42.31177  59.62113   79.0    0.13083  -21.63938  0.99859 
  -21.64836  0.05132  2.77467     13.63364  1.40171  1.32092   3.84253  0.19065      0.1572  6910.27315   7295.65479  0.88327         4342.21937      18.4385  0.00152  55539.95164  1.09455  0.19721  5415107.12916  44.79547  20.21739  55612.63773    51.29063       44.40005   38.46525  55.77461   78.5    0.12684  -21.59912  0.98869 
  -19.68237   0.0732  2.42256     13.72683  1.19233  0.65265  10.28994  0.06333     0.04632  6503.96279   7682.52969  1.14145         4198.12885     20.05521  0.06309  55541.91763  2.59655  0.75325   2286153.2899  45.21759  20.21488  55612.63773    51.27974       44.36647   41.36389  62.27034   80.5    0.12622  -21.65144  0.95929 
  -19.78405  0.35039  3.24716     13.78418  1.52333   1.4852    11.006  0.07134     0.06392  7043.15976   7283.47866  0.90762          4290.0716     17.60934  0.00023  55541.81595  3.25681  3.85639  4029555.79794  44.82337  20.21338  55612.63773    51.27295       44.37127   39.44063  58.64575   81.5    0.12867  -21.58832  0.78895 
  -22.35314  0.01192  2.41742      13.5761  1.18867    1.001   5.15328  0.15625     0.12744  7452.64739   7409.55836   0.7546         4133.83225     17.71073  0.00029  55539.24686  1.70739  0.06141  4543390.70468  44.91982  20.22247      55610.5    51.26421       44.36306   39.44063  60.30184   78.0    0.12428   -21.6085  0.99655 
  -20.37751  0.12698  3.44342     13.81894  1.79279  1.42453  11.21747  0.07304      0.0525  7159.22041   7560.06475  0.97917            4114.41     18.23392  0.00095  55541.22249  3.42968  1.42445  4544130.86624  44.79094  20.18538  55612.63773    51.27187       44.36227   39.44063  62.27034   77.0    0.12899  -21.60706  0.91941 
  -22.26836  0.00204  3.34658     13.79474  1.79595  1.15626   4.69949  0.16182      0.1133  6982.09596   7363.21839  1.04357         4153.62509     18.30966  0.00113  55539.33164  1.36662  0.00959  4806526.19352  44.79211  20.22788      55610.5     51.2577       44.32861   40.38851  67.31418   80.5    0.12401  -21.61505  0.99944 
  -20.82173  0.12509  3.81735     13.97515  2.00081  0.86061   7.56264  0.12134     0.11248  7864.58743   7217.61183  1.47548         3515.94712     16.24962    1e-05  55540.77827  2.79031  0.94597  3035549.90716  44.92429  20.19742      55610.5    51.27227       44.37021   38.46525  59.96488   77.0    0.12322  -21.61672  0.94239 
  -21.17525  0.00107  3.34221     13.77653   1.7858   1.2389   2.82272  0.27228     0.21386  7158.36968   7523.01678  1.02039         4129.98747     18.94485  0.00489  55540.42475  0.86283  0.00301  5183909.92058  44.75795  20.16112  55612.63773    51.29351       44.39867   39.44063  58.64575   79.5    0.12751  -21.61882  0.99982 
   -21.2554   0.0424  3.40184     13.86348  1.78419  0.95993  13.79952  0.05613       0.046  7136.04478   7391.95466  0.98394         4043.62158     17.67498  0.00026   55540.3446  4.19186  0.58503  3595264.91005  44.90113  20.20887      55610.5    51.27211       44.36539   41.36389  60.30184   79.5    0.12325  -21.58771  0.96563 
  -22.82995  0.07841  3.29441     13.89869  1.76073   0.8348   4.48493  0.18629     0.13384   7167.9305   7509.23753  0.85477         4302.85575     16.95877    5e-05  55538.77005  1.37458  0.35166  2829395.14145  45.02729  20.18601      55610.5    51.26473       44.36367   39.44063   58.9895   76.0     0.1207   -21.6109  0.97998 
  -20.67586  0.00187  2.74746     13.59739  1.35111  1.21644   4.63702  0.15141      0.1214   7168.5692   7454.77223  1.02489         4077.40553     18.29813   0.0011  55540.92414  1.42145  0.00865  6047620.06591  44.74009  20.18029  55612.63773    51.27173        44.3754   39.44063  58.64575   80.0      0.125  -21.59739  0.99948 
  -22.99309  0.03221  3.21509      13.8782  1.76036  0.84804   4.23098  0.21967     0.20432  8354.73036    7101.7485  0.43818          4133.8213     16.81725    4e-05  55538.60691  1.76171  0.13626  2960755.87345  45.02866  20.20884  55612.63773     51.2822       44.39234   40.38851  57.69787   76.5    0.13133  -21.62898  0.99251 
  -23.56875  0.04444  3.14512     13.77906  1.64985  1.00527   9.65207  0.08108     0.06271   7101.2169    7168.9013  0.89416         4289.63617     17.55668   0.0002  55538.03125  2.90344  0.42889  4192007.86415  44.86859    20.199  55612.63773    51.28192       44.40306   38.46525  55.77461   80.5    0.12314    -21.618  0.97548 
  -20.82866  0.13557  3.57932     13.86821  1.86551   1.3388  12.97078  0.06289      0.0512  7057.65419   7487.25981  0.94395         4200.80297     18.40239   0.0014  55540.77134  3.85402  1.75844  4071895.41454  44.82225  20.20077  55612.63773    51.29634       44.39665   40.38851  59.62113   77.5    0.12868  -21.59557  0.90096 
  -23.07547  0.20738  2.74801      13.6376  1.34944  1.34516   7.47045  0.10085     0.06426   6398.5906    7715.4352  0.94954         4436.82571     17.89585  0.00044  55538.52453   1.8245  1.54921  5021267.26008  44.82015  20.20728  55612.63773    51.28909       44.37684   39.44063  60.30184   78.5    0.12147  -21.58661  0.91497 
  -20.36961  0.41265  3.53651      13.8486  1.86595  1.31885   5.18218  0.13799     0.13127  7184.96102   7499.82425   0.8787         4297.38827     19.75337  0.03148  55541.23039  1.59584  2.13845  4351714.36989  44.80394  20.20852      55610.5    51.28706       44.38497   38.46525  59.62113   82.5    0.12723  -21.64429  0.88432 
  -21.35304  0.17356   3.5705     13.85878  1.79706  1.20587  14.15232  0.05349     0.04449  7120.08436   7262.48222  0.88548         4214.36639     17.56036   0.0002  55540.24696  4.27981  2.45623  4076371.91028  44.80768  20.17281      55610.5    51.26953         44.386   36.54198  55.77461   82.0    0.12612   -21.5872   0.8606 
   -21.3715  0.01248  2.98705     13.69769  1.53106  1.19737   3.91375  0.18122     0.14304  6697.97249    7567.6147  1.07246         4195.72035     16.99235    5e-05   55540.2285  1.04739  0.04883  5104006.83413  44.79544  20.16535      55610.5    51.26345        44.3619   40.38851  59.35395   78.5    0.12471  -21.59445  0.99712 
  -20.43936  0.00725  2.92867     13.71977  1.51561  1.10792   5.38567  0.12626     0.10298  6757.88739   7451.40208  0.89771         4409.58903     16.26632    1e-05  55541.16064   1.4672  0.03906  4387337.77423  44.87389  20.20336      55610.5    51.29699       44.40487   38.46525  57.69787   78.5    0.13136  -21.59965  0.99776 
   -22.0899  0.00968  3.32129     13.77205   1.7908  1.56485    4.4153  0.18246     0.16826  7179.47819   7422.13468  0.98098         3920.13972     18.30726  0.00113   55539.5101   1.3576  0.04275  5240429.00191  44.75991   20.1948  55612.63773    51.26129       44.35785   39.44063   58.9895   78.0    0.12857   -21.5915  0.99754 
  -22.76477  0.43558  3.66857     13.91008  1.83749  0.97092   5.59343  0.17235       0.129  8020.98459   6946.73106   1.0567         3703.38714     18.50128  0.00176  55538.83523  2.14665  2.43641  3474363.39778   44.8632  20.16249  55612.63773    51.27354       44.38439   39.44063  56.72249   79.5    0.12269  -21.61813  0.85861 
  -20.93149  0.10547  3.26527     13.85078  1.72653  0.94449   5.52297  0.12715     0.10763   6854.4717    7805.7779  0.84165         4385.77936     17.63218  0.00024  55540.66851  1.54792  0.58249  3398394.75689  44.94691  20.20519  55612.63773    51.26779       44.35948   42.31177  61.32246   78.0    0.12523  -21.59153  0.96691 
  -21.04592  0.01145  3.31002     13.78416  1.76406  1.06304   4.24902  0.15204     0.12648  6913.21289   7294.50941  0.98831         4171.67046     19.52878  0.01877  55540.55408  1.21137  0.04867  4849131.03332  44.79003  20.22617      55610.5    51.28303       44.38201   40.38851  59.62113   84.5    0.12303  -21.60034  0.99714 
  -21.71369  0.00377  2.81305     13.74565  1.40071  0.74932   4.04789  0.17612     0.12771  7382.59573   7326.77882  0.95546         3940.33039     19.01852   0.0058  55539.88631  1.31605  0.01526  3320688.17007  44.99561   20.2033      55610.5    51.27358       44.37806   38.46525  57.69787   80.0      0.129  -21.58766  0.99908 
   -22.6759  0.16033  3.52638     13.78395   1.8696  1.40462     3.361  0.23307     0.17415  7398.43663   7117.66757   0.9582         3930.22351     17.58796  0.00022   55538.9241  1.09743  0.53886  5838866.34763  44.67961  20.22441      55610.5    51.27451       44.38546   38.46525  55.77461   82.0    0.12212  -21.59071  0.96802 
  -20.48584  0.05337  2.79829     13.68361  1.45002  1.39008  11.00836  0.06782      0.0568   6678.6277   7692.58474  0.83033         4476.04831     16.94786    5e-05  55541.11416  2.92903  0.58753  4526369.50417  44.88068  20.18255      55610.5    51.27205       44.37448   39.44063   58.9895   75.5    0.12631  -21.59828  0.96833 
   -21.9613  0.35024   3.1594     13.75626  1.55558  1.43542    7.1163  0.12077     0.08363  7020.95373   7419.85581  0.95472          4181.8286     18.27764  0.00105   55539.6387  2.09254  2.49239  4429912.29738  44.81513  20.20527  55612.63773    51.26431       44.36326   41.36389  60.56901   77.5     0.1224  -21.59559  0.86267 
  -22.41966  0.00166  2.90805     13.93953  1.48167  0.50552   3.46223  0.20954     0.14432  7016.78166   7351.69819  0.98226         4180.49858     18.07975  0.00067  55539.18034  1.01686  0.00573  1537116.07908  45.32569  20.21155  55612.63773    51.27985       44.37936   41.36389  58.64575   80.5    0.12256  -21.60366  0.99966 
  -22.60661  0.00107   3.0677     13.61091  1.51954  1.53157   4.23497  0.20218     0.15298   7839.6198   7127.78458  1.77323         3445.74477     16.89347    4e-05  55538.99339  1.55263  0.00453  7967558.54148  44.57561   20.2207      55610.5    51.28678       44.38557   40.38851  57.69787   82.5    0.12373  -21.61291  0.99971 
  -20.91293  0.00381  3.54698     13.82734  1.93917  1.30251   6.44017  0.11938     0.09273  7331.50155   7415.09805  0.94077         4068.95193     17.70633  0.00028  55540.68707  2.06495  0.02453  5017317.19724  44.75627  20.21337  55612.63773    51.28309       44.37829   40.38851  59.62113   77.5    0.12995   -21.6126  0.99857 
  -19.55083  0.41546  3.27909      14.0344   1.6475  0.90384  15.25619  0.05521     0.03542  6650.45773   7435.28168  0.95468         4346.86496     19.92974  0.04726  55542.04917   4.0251  6.33829  1403951.88328  45.30681  20.20479      55610.5    51.27713       44.37603   38.46525  59.62113   83.5    0.11678  -21.62254  0.71754 
  -20.87908   0.1201  3.22732     13.75197  1.65171  1.40219   7.71067  0.10048     0.08912  7157.68631   7457.74437  0.96872         4121.42688     18.03655   0.0006  55540.72092  2.35649  0.92609  5006112.57873  44.76959  20.20905      55610.5    51.28546       44.39563   38.46525  57.69787   78.0    0.12985  -21.59891  0.94631 
  -20.79959   0.3501  3.69407     13.97646  1.88732  1.06129  10.15282  0.08534     0.06713  7176.98341   7448.21233  0.92388         4207.66309     18.23639  0.00096  55540.80041  3.11959  3.55445  2665361.58491  44.98392  20.16865  55612.63773    51.27483       44.38953   39.44063  56.72249   77.5    0.12388   -21.6137  0.81227 
  -21.37996  0.01219   3.1605     13.74223   1.6597  1.32491    8.8353  0.08005     0.06595   6949.0667   7439.25477  0.89465         4248.97337     17.03083    6e-05  55540.22004  2.54508  0.10773  5045336.39257  44.78647  20.17552      55610.5    51.26207       44.34989   40.38851  61.32246   79.0    0.12544  -21.58768  0.99375 
  -22.92253  0.06126  3.50432     13.88487  1.87513  0.94622   4.74252  0.16836     0.12499  7343.63263   7525.02933  0.90762         4094.56718     17.34115  0.00012  55538.67747  1.52566  0.29051  3633440.97023  44.89235  20.22393  55612.63773    51.27423       44.37719   40.38851  59.62113   78.5    0.12422  -21.59746  0.98285 
  -22.09671  0.01931  3.06421     13.75563  1.56901  0.92184   5.73115  0.15504     0.15406  8056.08283   7305.77238  1.17351         3592.81654     19.31718  0.01153  55539.50329  2.21879  0.11069  4215239.69668  44.86701  20.21353      55610.5    51.27997       44.38937   38.46525  57.69787   79.5    0.12328  -21.63255  0.99338 
  -23.62182  0.04252  3.68862     13.89792   2.0489  1.13762   6.10716    0.127     0.08404  6827.11611   7579.16873  0.90752         4142.57477     17.69861  0.00028  55537.97818  1.69801   0.2597   4142201.0707  44.82941  20.19877  55612.63773    51.27165       44.37306   39.44063  58.64575   78.5    0.12342  -21.57102  0.98513 
  -20.83997  0.15118  3.04834     13.82457   1.5955  1.05468   9.15082  0.08319     0.08483  6290.87847    7680.7722  0.96222         4529.35974      18.6467  0.00246  55540.76003  2.16028  1.38339  3088184.38086  45.01391  20.19147  55612.63773    51.27942       44.38032   39.44063  58.64575   76.0    0.12348  -21.60091  0.92681 
  -21.42789  0.01144  2.93906     13.66812  1.48061  1.16681   7.92473  0.10488     0.08552  7395.58626   7235.53446  1.22171         3761.76957     17.07479    7e-05  55540.17211  2.58557  0.09064  5475659.68931  44.76443  20.17448  55612.63773    51.26614       44.35287   40.38851  61.54439   79.5    0.12784  -21.60678  0.99456 
