 texplosion  fnickel    Pspin  log(Bfield)      Mns  thetaPB   mejecta    kappa  kappagamma      vejecta  temperature    alpha  cutoff_wavelength  log(nhhost)      A_V         MJD0   kenergy  mnickel            TSD   log(L0)  Peak_mag     Peak_MJD  log(E_rad)  log(Peak_lum)  Rise_Time    E_fold  tau_1  delta_m15     r_peak     frac 
  -19.51884  0.14495  2.11634     14.35591  1.73089  0.56442  10.11211  0.17164      0.0104   9334.19148    8139.5135   1.7402         3378.85107     19.95691  0.05031  57287.64973    5.2556  1.46571   139777.90849  46.71051  20.21615  57343.36939    51.15473       44.43958    30.5911  40.16815   38.0    0.19981  -21.64623  0.96656 
   -16.0983  0.00696  1.82772     14.38673  1.44065  0.43675  13.72089   0.0443     0.01491   3971.55328   4654.35766  1.74479         5811.83422      19.8538  0.03968  57291.07027   1.29101  0.09551    75287.55339  47.02686  20.16162  57343.36939    51.31881       44.67387   21.41377  37.49259   47.0    0.16933  -21.82683   0.9978 
  -20.17161  0.00294  1.73113     14.29113  1.37722  0.51059  12.41079  0.09186     0.02407   8563.96641   9085.42903  0.73614         4819.18426      18.7228  0.00293  57286.99696   5.42971  0.03653   100278.81025  46.92998  20.33159  57345.76314    51.15716       44.43605    24.0317  43.26873   37.5    0.20468  -21.54995  0.99919 
  -19.86327  0.02921  1.02241     14.11903   1.5891  1.34744  17.34834  0.10625     0.04373  11263.07239   8513.07696  0.14729         3990.09288     20.40329  0.14061   57287.3053  13.12801  0.50678    89159.06308  47.50058  20.54862  57343.36939    51.24889       44.57899   21.41377  36.21168   36.5    0.20131  -21.55657  0.99715 
   -10.6289  0.11863  1.81492     14.36944  1.69594   0.8984  13.26503  0.10335     0.07046   9879.13643   6596.60397  2.07254         3858.93085     16.70539    3e-05  57296.53967   7.72278  1.57368    94637.53056  47.00447  20.34637  57343.36939    51.21033       44.54893   16.82511  41.05895   43.0    0.20549  -21.72539  0.97362 
  -20.19611  0.00714  0.83446     14.18278   1.8113  1.42623   9.95596  0.10211     0.03361   8072.89504   6753.49367  0.46467         2309.77538     17.28704  0.00011  57286.97246   3.87052  0.07113    50471.70372  47.98098  20.08182  57338.58188    51.32663       44.63042   19.88422  37.34722   42.0    0.19919   -21.3223  0.99981 
  -12.82807  0.00834  0.97466     14.05092  1.52817  1.27746  20.96383  0.02585     0.05819   4654.58599   5516.73332  1.41475         3226.35859     19.75469  0.03158   57294.3405   2.70932  0.17493   106622.08808  47.44747  20.04354  57340.97564    51.46526       44.86444   15.29555  32.24198   48.0    0.17203  -21.50745  0.99902 
  -16.02056  0.02208  1.42192     14.27561  1.72927  0.83994  31.17383  0.02796     0.05211   7807.56463   9230.29504  0.85367         3376.06572     19.02763  0.00592  57291.14801   11.3357  0.68828    91245.86466  47.24075  20.15677  57343.36939    51.26541       44.55298   18.35466   44.3571   38.5    0.20996  -21.60464  0.99295 
  -14.37781  0.03445  2.21755     13.96381   1.4657  1.39316   8.35774  0.16581     0.14818     9566.572   5578.46421  1.47715         4446.77922     20.66932  0.25944  57292.79076   4.56277  0.28794    790650.9022  45.84516   20.3081  57339.12646    51.20344       44.48245   19.88422  47.41605   45.0    0.19215  -21.90532  0.99047 
  -21.95413  0.01511  1.01716     13.99876  1.38835  1.44892   7.40576   0.3137     0.01636    11059.456   7313.78178  0.07108         2381.16609     16.70921    3e-05  57285.21444   5.40336  0.11193   134143.87942    47.269  20.15485  57343.36939    51.34522       44.64688   22.77115  40.85904   33.5     0.2522  -21.37257   0.9992 
  -14.88659  0.01119  0.98778     14.28384  1.59269  0.96109  16.52772   0.1309      0.3268  11767.88035   8605.86593  1.19024         2822.49643     17.48136  0.00017  57292.28198  13.65327  0.18489    39046.87994  47.89007  20.45337  57343.36939    51.55907       44.85364    21.2416  42.10806   36.0    0.18318  -21.66112  0.99914 
  -18.76829  0.03409  1.00274     14.24516   1.4304  0.83656  16.29327  0.13789     0.10564  10785.52835    9194.9426  0.48774         4061.69965     18.29009  0.00108  57288.40028  11.30624  0.55548    43184.27971   47.7866  20.11698  57343.36939    51.43383       44.82623   18.35466  33.65021   37.0    0.17363  -21.35647  0.99666 
  -12.73043  0.07371   0.9493      14.6343  1.77614    0.354  11.25627  0.28238     0.02065  12923.00423   7462.64383  1.20565         5537.81217     20.98462  0.53622  57294.43814  11.21369  0.82971     8007.51347  48.66002  20.18592  57343.36939    51.04289       44.33176    30.5911  39.76843   39.0    0.16372  -22.34568  0.99681 
  -15.50904  0.00225  1.80094     14.54003  1.84362  0.34219   21.2321  0.03367     0.08684   6279.70174   8065.80247  1.86212         2702.86133     20.27176  0.10387  57291.65953   4.99457  0.04773    46176.10486   47.3591  20.17458  57338.58188    51.13615       44.43664   19.88422  44.75682   51.5    0.17701  -21.64567  0.99926 
  -10.20905   0.0013  1.38995     14.13254  1.45098  1.37725   7.71844   0.3232     0.06661  11623.42499    8788.9606  4.24395          2826.8006     17.36508  0.00013  57296.95952    6.2205  0.01002   141379.50327  46.99412   20.2224  57343.36939    51.21811       44.45034   24.47288  44.75682   40.0     0.1651    -21.609  0.99987 
  -13.17168  0.05233  1.26653     14.22319  1.64825   1.3915   22.4449  0.07299     0.02523     9726.351   6663.90167  1.66969         3138.77065     18.08697  0.00068  57293.99689  12.66615  1.17456    87840.65845  47.33694  20.38547  57336.18813    51.03428        44.2891   21.41377  48.94576   44.5     0.1716  -21.62632   0.9905 
  -21.52161  0.00226   2.5523     14.03745  1.90614  1.43784   5.79405  0.26001     0.01586   9337.42469   9766.67737  4.92162         2017.34965     16.70269    3e-05  57285.64696   3.01345  0.01311   970348.27885  45.74821  20.19404  57343.36939    51.21336       44.52259   19.88422  42.82754   32.5    0.20056  -21.57924  0.99961 
  -15.76361  0.46029  1.23098     14.40311   1.8214  0.74975   7.70262  0.14589     0.10336  10894.84195   6238.76746  0.12145          4726.1555      19.8994  0.04407  57291.40496   5.45391  3.54544    40040.57685  47.74624  20.34161  57345.76314    51.27353       44.52735   36.70932  41.29799   44.0    0.24866  -21.76452  0.97699 
    -9.5969  0.00869  1.95473     14.60411  1.66556  0.45304  12.23448  0.13675      0.0159   7185.78487    7944.6608  2.43807         5447.32518     16.58864    2e-05  57297.57167   3.76844  0.10631    36587.43534   47.3449  20.14136  57340.97564    51.39044       44.72958   18.35466  39.26176   46.5    0.16422  -21.75862  0.99779 
  -16.70065  0.00717  2.32989     14.12378   1.8263  1.33094  13.48576  0.06111     0.05362   7259.37273   7819.67605  1.29155         3327.86083     18.36453  0.00129  57290.46792   4.23937  0.09665   520600.82518  46.07924  20.78653  57336.18813    50.95756       44.22432   24.47288  47.41621   46.0    0.19244  -21.54963  0.99745 
  -16.58939  0.00126  1.14996     14.14213   1.4011  1.03279   7.25429  0.25644     0.01559   7804.57867   4460.88248  1.25893          5629.1119     19.78536  0.03389  57290.57918   2.63585  0.00911    89411.77733  47.34256  20.25779  57340.97564    51.22852       44.54669   18.35466  41.29799   41.0    0.16223  -21.70725  0.99992 
  -19.12082  0.00512   0.8459       14.221  1.51151  1.03508  26.10192  0.07991     0.02299  11006.55317   7145.54357  0.52333         3071.90376     18.03653   0.0006  57288.04775  18.86263  0.13363    36297.24414  48.03374  20.17388  57345.76314    51.36026       44.69684   18.35466  39.02214   39.5    0.19873  -21.31529  0.99955 
  -15.65375  0.00212  0.84314     14.48318  1.72065  0.61837  22.06442  0.10144     0.08922  13616.97396   8582.30313  0.18743         2076.95941     18.99578   0.0055  57291.51482  24.40511  0.04682    12272.87309  48.56379  20.74586  57340.97564    51.01549       44.26076    30.5911  41.29799   31.5      0.224   -21.7926  0.99988 
  -11.41488  0.04668  0.71494     14.29067  1.63039  1.45831  34.60847  0.07268     0.22705   13228.7805   9521.47507  0.66624         4333.65709     19.85316  0.03962  57295.75369  36.12844  1.61537    20290.75518   48.4653  20.25486  57343.36939     51.3612       44.71576   16.82511  37.49259   36.0    0.17269  -21.97802  0.99789 
  -24.44876  0.05842  2.26135     14.14287   1.9018   1.2332    8.4021   0.1428     0.02426   9852.94198   8445.83898   0.2737         3250.71852     17.57844  0.00021  57282.71981   4.86572  0.49084   467701.95748  46.16931  20.31114  57343.36939    51.04918       44.34491   32.46863  38.29063   35.5    0.21963  -21.51396  0.98863 
  -14.05786  0.12198   1.5208      14.4513  1.83468  0.84106  16.73885  0.07562     0.01825   7478.35108   8108.18843  1.20561         5133.94843     17.11015    7e-05  57293.11071   5.58425  2.04177      49307.765  47.47534  20.17762  57340.97564    51.20321       44.50606   18.35466  43.07749   46.0    0.16307  -21.64847  0.97982 
  -26.75003  0.03994  2.13415     14.07681  1.73762    1.016   10.0308  0.11406     0.01331   8724.82192   7157.24584  0.88217         2244.10636     17.15932    8e-05  57280.41854   4.55487  0.40061   515935.49161  46.13776  20.39394  57345.76314    51.29687       44.55858   24.42277   44.4072   40.5    0.19707  -21.46464  0.99049 
   -9.38849  0.04689  1.15697     14.16912  1.46199  1.25417   11.3805  0.15011     0.02335  11377.72281   7704.34191  3.26557         2428.74207      18.8747  0.00416  57297.78008   8.78818  0.53363     83400.3633  47.38597  20.33506  57343.36939    51.28553        44.5826   18.35466  40.40633   36.5      0.207  -21.64515   0.9957 
   -5.62876  0.00102  0.89319     14.81305   1.8828  0.30235   8.36218  0.10158     0.11365   7815.74426   6251.02687   3.9071         2053.27133      16.3537    1e-05  57301.53981   3.04711  0.00849     3299.23729  49.12334  20.33807  57343.36939    51.22603       44.48797   22.94333  47.41621   41.5    0.19889  -21.59849  0.99998 
  -19.74044  0.00699  2.22872     14.20213  1.60549  0.83366    9.8168  0.15611     0.15205   8655.13173   5098.51574  1.02004          5871.7207     18.83187  0.00377  57287.42813   4.38677  0.06865    291927.4611  46.31307  20.30162  57343.36939     51.4859       44.87105   16.82511  34.91677   45.0    0.18216  -21.68745  0.99799 
  -13.25621   0.0116  0.79216     14.29404  1.67364  1.06712  71.42644  0.01905     0.01716   8368.59625   9790.98362   1.8869         2888.08637     18.15715   0.0008  57293.91236  29.83949  0.82862    25177.63117  48.29386  20.29516  57338.58188    51.11885       44.42347   24.47288  39.76843   37.5    0.18335  -21.61094  0.99823 
   -8.97377  0.00247  1.02224     14.46025  1.17682  0.37839   5.53336  0.14075     0.10034   5230.53234   4442.47125  1.61272         5516.60144     19.05249  0.00627   57298.1948   0.90304  0.01367    13712.77076  48.18333  20.18433  57345.76314    51.38224       44.71905   18.35466  37.49259   41.0    0.19061  -21.75258  0.99988 
  -14.87176  0.26699   1.3492      14.1277  1.22679  0.80773   11.9803  0.08333     0.26796   9704.51167   7512.30677  0.59816          3759.6972     19.04854  0.00621  57292.29681   6.73042   3.1986   115167.68011  47.03613  20.13573  57343.36939    51.22102       44.57626   21.41377  36.70932   44.5     0.2139  -21.64731   0.9523 
  -20.72178  0.05049  0.90721     14.52073  1.82155  0.52839  19.27975  0.06111      0.2535   7754.09992   9587.49339    0.408         4321.42963     16.02196    1e-05  57286.44679   6.91499  0.97341    12653.52205  48.51166  20.32971  57339.12646    51.07961       44.38284   19.88422  39.76843   38.0    0.18039  -21.27646    0.997 
  -16.05745  0.09609  1.07019     14.44568  1.87428  0.90804  14.60149  0.18033     0.03109  13895.32331   8505.99446  0.49231         5109.10979     19.48676  0.01704  57291.11112   16.8175   1.4031    25598.86347  48.07453  20.00672  57340.97564    51.23685       44.55952   15.29555  41.29799   35.0    0.22188  -21.75177  0.99466 
    -8.5186   0.0307  0.70397     14.46658  1.90662  1.13713    22.522  0.17929      0.1308  15784.98813   5195.05266  0.97439         4906.86938     19.90261   0.0444  57298.64997  33.47516  0.69151    10233.56133  48.84397  20.14748  57339.12646    51.36717       44.66441   18.18249   36.8815   39.5    0.17141  -21.92603  0.99951 
  -15.94402  0.00134  0.78939     14.25905   1.6288  0.98074  35.02292  0.03349     0.01328   7182.32073   3857.53048  1.32205          3110.5504     17.91205  0.00045  57291.22455  10.77728  0.04701    28587.47733  48.22995  20.07848  57343.36939     51.3675       44.72252   18.35466  36.20265   44.5    0.16489  -21.49645  0.99988 
   -8.80709   0.0181  0.73961     14.28852  1.62126  1.34897  19.29702  0.17377     0.01512  14903.46975   6385.75589  1.61778         3161.26665      16.0659    1e-05  57298.36148  25.56773  0.34926    21809.08211  48.40206  20.26319  57338.58188    51.09076       44.37611   19.88422   44.3571   34.5    0.17142  -21.70476  0.99947 
  -20.37404  0.22651  0.81008     14.30385  1.54565  0.99728  17.47018  0.10069     0.27245  11672.15586   8822.11394  0.21746         3051.44512     17.45109  0.00016  57286.79453  14.19799  3.95709    23242.46144  48.27462  20.24452  57343.36939     51.5847       44.94448   19.88422  34.53341   42.5    0.18031  -21.33995  0.99031 
  -19.77371  0.00251  1.09848      14.4818  1.74681  0.40552  34.54749  0.02088     0.01352   8313.60706   5004.64212  0.01872          4547.0275     17.73541   0.0003  57287.39486   14.2437  0.08682    21283.85016  48.10146   20.0323  57340.97564    51.47349       44.87759   16.82511  32.12066   45.5    0.22933  -21.50025  0.99948 
   -14.5573  0.01303  1.37248     14.23556  1.14884  0.48511    16.947  0.07917     0.01996   7869.83649   6811.52074  1.47514         5851.59872     20.43122  0.14995  57292.61127   6.26111  0.22079    67916.51583  47.22212  20.20064  57343.36939    51.28541       44.55874   24.42277  42.12368   43.0    0.17081   -22.0095  0.99601 
   -9.03288  0.01614  1.32485     14.29944  1.64087  1.05661  12.18267  0.18863     0.02544   12257.2781   6534.53498  3.23854         3174.95191     18.76928  0.00327  57298.13569  10.91837  0.19666    67349.86134  47.41125  20.39289  57336.18813    51.06531        44.3459   15.29555  41.29799   39.5    0.19906  -21.74309  0.99824 
   -5.26341  0.08909  0.98431     14.44577  1.95078  1.17119  20.22658  0.10825     0.22879  12041.10315   4020.59959  4.32978         3183.47774      20.4696  0.16381  57301.90516  17.49372   1.8019    22529.36588  48.22004  20.31718  57343.36939    51.22931       44.49283   19.88422  45.88665   44.5    0.15006   -21.8299  0.99566 
  -10.01749  0.00128  0.72002     14.29805  1.70364  1.45189  18.43751  0.14125     0.01723  12109.61325   7348.04376  0.89622         5603.05468      20.2307   0.0945  57297.15108  16.12835  0.02364     20786.1588  48.46776  20.58067  57343.36939    51.05965       44.31441   27.87996  39.42046   39.0    0.16652  -22.00111  0.99997 
  -16.48263  0.00926  1.89501     14.55724  1.64191  0.35768   21.0261  0.03316     0.06646   6273.39338   6628.66877  1.15424         4580.04619     18.19669  0.00087  57290.68594   4.93618  0.19476      42063.965  47.30506  20.13226  57340.97564    51.27401        44.5716   24.47288   38.3878   43.5    0.20909  -21.62706  0.99605 
  -18.37518  0.00748  3.93202     14.12572  1.92857  1.14403   5.09484  0.15128      0.0765   7562.74241   6733.22227  1.56259         4585.93463     18.94407  0.00488  57288.79339   1.73827  0.03812  1551790.92459  45.17402  20.18353  57343.36939    51.23536       44.56604   19.88422  41.05895   49.0    0.20258  -21.59759  0.99733 
   -7.74937  0.01853  0.80607     14.33707  1.64903  1.48754  23.26831  0.09138     0.02764   13221.6319   6785.84198  1.49332         4102.51837     18.48582   0.0017   57299.4192  24.26399  0.43117    21068.82444  48.34969  20.71048  57340.97564     50.9966       44.26949   24.47288  41.29799   36.5    0.26129  -21.78776  0.99928 
    -14.053  0.07696   1.0405     14.20931   1.6109  1.37877  15.12901  0.08884     0.15327   9830.99612    9818.9388  1.07637         3244.13738     16.51875    2e-05  57293.11557   8.72233   1.1643    61766.44081  47.65068  20.39703  57343.36939    51.24071       44.55173   18.35466   41.6898   34.0    0.21178  -21.70046  0.99395 
  -10.24503  0.06585  0.85545     14.49443  1.68603  0.77432  25.75181  0.11002     0.09423  11715.83546   6709.26646  1.34709         4264.73774     16.85553    4e-05  57296.92354  21.08538  1.69585    11754.66614  48.56111  19.97721  57340.97564    51.36632       44.72768   18.30455  32.17076   48.0    0.17119  -21.60592  0.99658 
  -17.27459    0.046  1.06021     14.46588  1.66649  0.53468  18.12108  0.06214     0.04636   8579.14115   9771.59381  0.51869         3851.54193     16.75062    3e-05  57289.89398   7.95607  0.83363    20353.73181  48.13122  20.24837  57345.76314    51.36938       44.70943   19.88422  38.23888   34.5    0.20756  -21.49987  0.99546 
   -9.40449   0.0624  1.12634     14.24015  1.49284   1.4466  11.10896  0.22389     0.10725  11079.12014   5833.89844  2.09427         4421.29988     19.04039   0.0061  57297.76408   8.13413  0.69322    58193.13833  47.57464  20.13225  57340.97564    51.39239       44.73493   16.82511   34.6731   44.0    0.16969  -21.73104  0.99545 
  -13.70765   0.4571  1.14172     14.53343  2.01217  0.82619   5.66979  0.32048     0.06075  12252.86988   6600.91856     0.34         5827.23582     18.22802  0.00094  57293.46092   5.07773  2.59168    20880.04056  48.13766  20.29671  57338.58188    51.16321       44.46065   26.00244  37.48491   37.5    0.22468  -21.79087  0.99008 
   -8.42616   0.0205  0.82848     14.48418  1.60401  0.67024  25.32101  0.10744     0.22384  13641.64643   9207.81168   3.5772         2795.54768     16.44884    2e-05  57298.74241  28.10876  0.51911    10995.91483  48.59626  20.77459  57336.18813    50.95279       44.17911   21.76174   51.6569   36.0     0.1505  -21.84182  0.99883 
  -16.31127  0.00477  1.11209     14.35114  1.67187  0.67467  18.00803  0.09427     0.10055   10630.3872   9837.35892  1.01897         2236.60187     17.22404    9e-05   57290.8573  12.13924  0.08592     38108.9872  47.81874  20.23392  57343.36939    51.35178       44.67453   19.88422  39.02214   32.0    0.19689  -21.67414  0.99946 
  -11.29126  0.00303  2.23917     14.16874  1.59085  0.95582   7.42794  0.14187     0.19803  10007.41116   3521.62965  2.16645         2969.36978     18.81921  0.00366  57295.87731   4.43751  0.02248    340512.3261  46.23817  20.24076  57340.97564    51.27138       44.55751   24.47288  37.34722   41.0    0.23566  -21.69209  0.99933 
  -12.88285   0.2905  1.88139     14.65821  1.87396  0.44772  10.78134  0.12432     0.06383   9884.84109   7654.22505  2.05413          3044.9954     16.08285    1e-05  57294.28572   6.28404  3.13193    29723.83155  47.51954  20.31436  57345.76314    51.37804       44.63679   22.94333   44.3571   46.5    0.17647  -21.65555  0.95224 
    -6.5247   0.0883  1.04233     14.32586  1.42826  0.96851  13.89811  0.18851     0.10941   13395.9676   7683.60344  2.64971          4017.5675     17.31687  0.00012  57300.64387  14.87753  1.22717    32130.74972  47.88072  20.07581  57339.12646    51.37597       44.73069   21.41377  32.10602   44.0    0.18931  -21.79005  0.99334 
  -18.34634  0.01474   1.6036     14.64771   1.8644  0.39887  19.77063  0.06934     0.11246    8086.3488   8721.65087  0.90689          4363.4868      17.1911    9e-05  57288.82223   7.71175  0.29139    22548.48692  47.77607  20.25502  57343.36939     51.2544       44.57546   19.88422  40.54402   41.0    0.18193  -21.46547  0.99661 
   -18.9666  0.02367  1.76612     14.82341  1.90381  0.20972  11.76757  0.07161     0.02387   7641.45061   9491.58969  0.42807         5207.19737     18.95919  0.00506  57288.20197   4.09888  0.27856    12435.52493  47.95976  20.08049  57338.58188    51.13218       44.36233    30.5911  41.21395   38.0    0.21182  -21.60493  0.99608 
  -14.55306  0.01144  1.41685     14.16575  1.73391  1.53728  19.93365   0.0568     0.21852   9034.92433   9405.87617  0.85181         3350.38671     17.44197  0.00015  57292.61551   9.70651  0.22794   150659.20803  47.02723  20.73482  57336.18813     51.0309       44.25398   22.94333  53.53443   35.5    0.20288  -21.68639  0.99769 
  -14.50539  0.18874  0.70074     14.43261  1.88062  1.19304  25.69379  0.13374     0.01159  15375.57744   7576.44794  0.81148         2578.14404     16.78803    3e-05  57292.66318  36.23416  4.84937    11695.13072  48.78403  20.20232  57345.76314    51.41021       44.74506   19.88422  39.02214   36.0    0.18894  -21.88148  0.99631 
  -11.21087  0.02015  0.88461     14.12883    1.416  1.56744    8.3156  0.17938     0.30297  10206.79129   8260.85289  1.93054         2653.92059     17.42725  0.00015   57295.9577   5.16773  0.16755    56850.63798  47.77166  20.55014  57345.76314    51.58456       44.88044   22.94333  42.97647   36.5    0.19092  -21.65059  0.99928 
  -13.14578  0.00237    0.869     14.35595  1.93424  1.50632  21.88465  0.08476     0.05292  10034.62365    9510.9447  1.01198         3534.52305     18.47419  0.00166  57294.02279  13.14525  0.05192    26330.93505  48.25685  20.42994  57340.97564    51.01585       44.18943   35.17977  48.94576   35.0    0.18725  -21.65604   0.9999 
   -16.9857  0.01069  1.29066     14.57979  1.72321  0.38091   6.25048  0.22913     0.01063   7957.47549   5478.59236  0.57199         5296.70344     16.80063    4e-05  57290.18287   2.36097  0.06679    18458.19344  48.01737  20.32591  57343.36939    51.10555         44.386   24.47288   44.3571   36.5    0.22339  -21.59072  0.99944 
   -8.00739   0.0214  1.29605     14.31115  1.76921  1.46552  16.50541  0.17042     0.01753  11096.38284   9332.98425  3.35483         3728.94794      18.5421  0.00194  57299.16118  12.12318  0.35325     65846.0175  47.47285  20.13658  57343.36939    51.31815       44.64172   19.88422  38.63069   42.5    0.15311  -21.69509  0.99746 
   -9.76846  0.07154  1.08422     14.54707  1.72543  0.58178  14.53623  0.19805     0.08197  13143.95167   6932.55199  1.24977         4343.39989     19.95369  0.04994  57297.40011  14.98066  1.03999    15163.58949  48.25471  20.02405  57343.36939    51.43281       44.82259   18.30455  31.90776   43.0    0.18952   -21.8088  0.99508 
  -11.54804  0.22065  0.93035     14.37981  1.70015  1.00184   16.4476  0.05877     0.10872   8783.19023   9051.97984  0.90102         4077.23253      16.1572    1e-05  57295.62053   7.56892  3.62908    23767.05134  48.18607  20.21761  57338.58188    51.03998        44.3528   22.94333  41.04668   40.0    0.22194  -21.70644  0.98946 
  -22.10986  0.26046  2.12094     14.12291  1.50387  0.56282   7.14054  0.13657     0.01665   9674.23456   9724.55899  0.24176         5560.87939     20.38049  0.13342  57285.05871    3.9865  1.85985   356665.13402  46.24074  20.50143   57348.1274    51.51579        44.7626   24.47288  44.75682   33.0    0.23173  -21.81692  0.94794 
  -15.85596  0.17747  1.16813     14.29513  1.75357  1.36547  16.66842  0.11828      0.4657  11138.10867      9369.04  0.99185         3161.44486     16.91713    5e-05  57291.31261  12.33515  2.95814    57076.70131  47.62133  20.10565  57340.97564    51.38737       44.73632    21.2416  36.37482   39.0    0.17051  -21.62746  0.98329 
   -6.74209  0.10987  0.70326     14.35832  1.58486  0.88195  16.58517  0.05847     0.08024   8890.44357   9849.53957  2.04467         2680.30882     16.18374    1e-05  57300.42648   7.81977  1.82215    13976.38738  48.62921  20.67228  57343.36939    51.51577       44.79518   24.47288  44.60705   35.0    0.22308  -21.64469  0.99738 
  -14.72386  0.05502  0.86739     14.23798   1.8537  1.46685  13.25227  0.12945     0.42369  12601.71282   8383.71957   0.7815         3035.21675     20.62982  0.23689  57292.44471  12.55384  0.72913    43284.42666  48.02412  20.33728  57343.36939    51.31736       44.59959   19.88422  43.60313   34.0    0.24706  -22.02207  0.99809 
  -21.11367    0.013  2.13206     14.15669  1.74603  1.23484  10.02408  0.16768       0.033   9139.31104   5392.41497  0.94315         3897.26027     18.90238  0.00444   57286.0549   4.99458   0.1303   358173.38961  46.29921  20.49331  57343.36939    51.11126        44.3838   24.47288  41.04668   44.5    0.16314  -21.43411  0.99694 
  -10.61161  0.08209  2.74624     14.26581  1.84562  1.32865  11.76301  0.06024     0.40905   6050.86743   6654.10311  1.78426         5269.25521     18.31796  0.00116  57296.55696    2.5691  0.96566   380024.04806   46.0777  20.29817  57340.97564     51.1567       44.43906   19.88422  45.63535   42.5    0.21511  -21.75082  0.96639 
  -11.62651  0.10834  0.83528     14.39275  1.62904  0.88086  13.11891   0.1709     0.07996  12274.19573   7470.26324  1.23648         3740.08785     20.12314  0.07377  57295.54206  11.78992  1.42126     17294.4826   48.3992  20.17371  57340.97564    51.11023       44.39822   20.97259  43.26873   39.5    0.19324  -21.77971  0.99676 
  -17.57574  0.00128  1.28928     14.17354  1.74657   1.2843  16.92722  0.06481     0.03889   9149.51615   7326.73355   0.5346         3444.79047      17.2481   0.0001  57289.59283   8.45296  0.02174   121234.35888  47.20671  20.08633  57343.36939    51.34344       44.70529   18.35466  36.70932   39.5    0.21558   -21.5931  0.99982 
   -7.15865  0.06086  1.04944     14.25687  1.41497  0.99002  16.65087  0.11627     0.05746  11479.88974   3827.17398  1.76577          3871.1867     19.04405  0.00615  57300.00992     13.09  1.01333    44333.37819  47.73095  20.29387  57339.12646    51.16293       44.44032   18.35466  45.63535   41.0    0.18469  -21.76292  0.99365 
  -19.75909  0.15859  2.19193     14.14083   1.7468  1.28844  10.88543  0.08829     0.18412   8563.24256   9830.38056  0.65288         4682.31311      17.8523   0.0004  57287.40948   4.76156  1.72635   407422.64334  46.21939  20.57626  57343.36939    51.10054         44.365   26.00244  45.88665   39.0    0.21028  -21.60402  0.95872 
   -9.30194  0.01179  1.69913     14.79306  1.81194  0.35634   8.86878  0.19859     0.02197    8213.6007   7138.13868  2.41999          5468.4045     16.36219    1e-05  57297.86663    3.5691  0.10453    12597.79759  47.96624  20.31789  57343.36939    51.21332       44.50985   19.88422  45.13268   43.0    0.17351  -21.86932  0.99863 
  -17.34252  0.00885   1.1667     14.61096  1.98047  0.55704  34.71443  0.03781     0.03261   8378.83537   7026.97704  0.80508         4296.60032     18.17056  0.00082  57289.82605    14.538  0.30723    15016.80988  48.25512  20.21989  57343.36939    51.25382       44.57847   18.35466  41.05895   41.5    0.20649  -21.43084  0.99856 
  -19.77122  0.00238  1.01934     14.15344  1.69767  1.55922  19.62767  0.07002     0.13424   9755.81116   7187.39729  0.15926         3492.73922     17.07845    7e-05  57287.39735  11.14353   0.0467    80804.62291  47.57462   20.3402  57343.36939    51.19194       44.44916   18.35466  46.28637   39.0    0.21615  -21.44087  0.99977 
  -12.62076  0.02067  4.31592     14.20262  2.08176  1.28574   6.83594  0.14499     0.11516   9329.89455   4659.56618  2.09725         5856.28621     16.57445    2e-05  57294.54781   3.54959  0.14128  1416302.30812  45.16597  20.22969  57340.97564    51.26017       44.58707   25.95233  37.67787   40.0    0.24351  -22.03234  0.98946 
  -15.27371  0.00525  0.95769     14.75486  1.68026  0.26097  15.59967  0.03622     0.16739   4347.03066   5475.13136  1.09933         4723.47531     17.47113  0.00016  57291.89486   1.75844  0.08182     4425.05722  48.88585  20.50084  57343.36939    51.13138       44.39054   21.41377  44.75682   44.5    0.18201  -21.51759  0.99965 
  -19.50269  0.06579   3.8904     14.00906  1.92255  1.39993   5.01766  0.17703     0.02365    9271.4325   7834.41608  1.76753         4317.81174     19.45266  0.01575  57287.66588    2.5729  0.33012  2591521.52444  44.95918  20.23033  57343.36939    51.28538         44.599   27.53199  38.87677   39.0    0.24253  -21.77911  0.97752 
  -10.16997  0.01058  1.00106     14.59477  2.00508  0.64597   29.3613  0.04744     0.09726   8036.45563    8560.2967   2.1841         3062.71211     17.70848  0.00028   57296.9986   11.3118  0.31053    12059.19797  48.48874  20.22718  57340.97564    51.14821       44.48656   19.88422  39.76843   41.0    0.18594    -21.573  0.99914 
  -21.81957  0.13931   1.3642     14.34468    1.732  0.68625   8.18403  0.23938     0.14063  11055.08269   9413.65904  0.11552         5290.60601      20.2647  0.10219    57285.349   5.96648  1.14011    61201.67243  47.45088  20.03495  57340.97564    51.35337       44.76041   15.29555  33.65021   36.0    0.19317  -21.51429  0.98937 
  -14.52172   0.1935  1.05904     14.37726  1.75262  0.90922  12.96603  0.09438     0.15093   8918.45672   8538.97115  0.66213         4972.83264     20.03189  0.05979  57292.64685   6.15196  2.50891    32123.08357  47.95589  20.53985  57343.36939    51.12739       44.35664   29.06155  45.88665   40.5    0.18721  -21.74433  0.98885 
  -22.21202  0.00187  1.23289     14.32191  1.96796  1.11497  20.30936  0.12801      0.0401  12123.10437   9191.81248  0.06521         3847.86945     16.55925    2e-05  57284.95655  17.80537  0.03792    63075.11682  47.58116  20.12277  57340.97564    51.27476       44.58507   18.30455  41.34809   36.5    0.19697  -21.31949  0.99978 
  -14.24124  0.00315  0.81849     13.99523  1.40219  1.33492  18.37918   0.0356     0.17673   6012.06749   6564.10393  0.77676         5546.07857     20.55828  0.20091  57292.92733   3.96279  0.05799    89160.66934  47.63946  20.48719  57343.36939    51.11894       44.44501   18.35466  39.76843   41.5    0.21785  -21.87649  0.99975 
  -17.24439   0.0714  1.91881     14.30794  1.60469   0.7631   9.22587  0.16151     0.03983  10399.54944   7662.48351   1.0337         4406.59184     16.33273    1e-05  57289.92418   5.95201  0.65875   132861.12362  46.78477  20.18581  57343.36939    51.29474       44.59942   19.88422  36.70932   39.0    0.20546  -21.66819  0.98604 
  -18.73148  0.02301  1.19447     14.67703  1.72235  0.29605  28.23873  0.04069     0.18769   9126.82353   8899.28764  0.15789         4596.49611     18.13333  0.00076  57288.43709  14.03174  0.64973    10097.60914   48.3464  20.21678  57345.76314    51.37578       44.68874   18.35466  40.26826   36.0    0.20621  -21.51705   0.9954 
  -13.60644  0.01064  2.01097     14.21849  1.88944  1.19903   5.51124  0.23344     0.04435  10779.03286   7160.16235  1.26675         2708.44298     18.95444    0.005  57293.56213   3.81976  0.05863   259402.81563  46.52439  20.37121  57339.12646    51.14748       44.43455   19.83411  45.93661   36.5     0.2168  -21.73328  0.99891 
   -7.98093  0.07796   1.9158     14.40818  2.00199  1.45095  12.59097  0.08166      0.2905   7701.52189   8785.21329  1.86174         4477.84014     16.46771    2e-05  57299.18764   4.45492  0.98159   104140.86119  46.98798  20.17355  57343.36939    51.24966       44.55723   24.47288  38.23888   40.0    0.21396  -21.67158  0.98595 
  -21.45179  0.00361  0.81692     14.51652  1.68244  0.45149  17.27038  0.07502     0.09574   8802.73873    8316.0046  0.96469         2453.67266     19.68404  0.02684  57285.71678   7.98297  0.06239     9661.98955  48.68536  20.60063  57339.12646    51.07532       44.30357   19.88422  52.80465   38.5    0.19613  -21.29658  0.99983 
  -37.35236  0.00399  2.62475     13.95207   1.6948  0.79332    6.3367  0.16467      0.0171   8003.20161   9870.65584  0.10767         5282.72486     19.21996  0.00922  57269.81621   2.42113   0.0253  1351979.18617  45.52882  20.91128  57340.97564    50.93973       44.17315   27.53199  50.47532   36.0    0.19133  -21.49921  0.99903 
  -13.29776  0.00613  1.20421     14.19064  1.66262  1.47351  16.07842  0.09428       0.033   9213.24085   6421.04759  1.43463         3278.31906     19.74128  0.03062  57293.87081   8.14133  0.09863    93051.99007   47.3595  20.23702  57345.76314    51.18686       44.49357   32.12066  38.23872   42.5    0.18192  -21.66181  0.99928 
  -15.87741  0.01163  0.82374     14.34083  1.96361  1.40233  42.90684  0.04528     0.05271  10250.68844   9067.57118  1.06111         3197.75305     18.35532  0.00126  57291.29116  26.89427  0.49911    25750.63085  48.31953  20.53709  57343.36939    51.17393        44.4462   25.56125  41.73917   37.0    0.17117  -21.64972  0.99916 
  -22.07915  0.08664   1.6575     14.18157  1.94549  1.43358   4.49032  0.24756     0.02716   8626.16396   6841.34875  0.35825         3722.64523     16.61116    2e-05  57285.08942   1.99315  0.38904   215081.43523  46.78636  20.31331  57340.97564     51.1885       44.50352   24.47288  38.63069   38.0    0.22507  -21.45021  0.99537 
  -12.72818  0.00229  1.47208      14.2864  1.51995  0.72865  12.57495  0.14073      0.0707  10072.26598   7601.23354   2.5611         2530.09397     17.94418  0.00049  57294.44039   7.61006  0.02874    81791.76454   47.2021  20.33999  57345.76314    51.32694       44.63249   21.41377  41.29799   41.5    0.16381  -21.57264  0.99961 
  -11.05018  0.02594  2.08502     14.24183  1.90986  1.13016   8.95507  0.06105     0.05533   4829.16052   8761.58724  1.65595         5587.15871      20.6393  0.24212  57296.11839   1.24577  0.23231   253152.40009  46.50825   20.1345  57338.58188    51.10902       44.39361   21.41377  41.29783   42.0    0.21277  -22.00562  0.99546 
  -13.02613  0.00111  0.72823     14.72023  2.00998  0.50328   5.10454   0.2791     0.06609   8516.76653   6194.63211  0.76429         5904.37616     16.64297    2e-05  57294.14244   2.20868  0.00569     3589.94816  49.29241  20.14397  57343.36939    51.45618        44.8327   16.82511  36.06296   39.5    0.16291   -21.8518      1.0 
   -12.3502  0.12727  1.88438      14.7054  2.04452  0.39793  23.50744  0.02911     0.15054   6417.26416   8431.70286  3.00527         2619.20159     19.32842  0.01183  57294.81837   5.77474  2.99181    26178.50887  47.61115  20.06627  57343.36939    51.45835        44.8218   18.30455  35.22987   53.0    0.18683  -21.54513  0.95921 
  -16.80868  0.11747  0.83507     14.27436  1.56601   0.7988  22.28152  0.04251     0.05585  10343.72647   8686.11517  0.25719         2057.00194     17.54368  0.00019  57290.35989  14.22087  2.61747    28663.66724  48.16287  20.10343  57343.36939    51.34648        44.6972   18.35466  35.96303   36.5    0.24749  -21.64047  0.99134 
  -18.80293  0.00429  0.95908     14.34592  1.73929   0.8843  20.40302  0.13157     0.02877  12719.50646    7746.4296  0.95214         2924.73726     19.95445  0.05002  57288.36564  19.69075  0.08747    30203.65308  48.06545  20.54043  57345.76314     51.1881       44.43288   29.40952   43.3916   38.5    0.18134  -21.45044  0.99968 
   -8.40289  0.05094  1.14036     14.52991  1.83178  0.75848  11.04767   0.2768     0.06732  13616.58791   6500.41749  1.95183         4176.77801     19.28705  0.01076  57298.76568  12.21896  0.56273    19273.36171  48.13268  20.29254  57345.76314    51.22722       44.54267   24.42277  39.81854   43.0     0.1863  -21.83664   0.9975 
  -24.57705  0.03882  1.33185     14.34637  1.54769  0.50442  19.55893  0.06923     0.02434   9173.08674   9928.14621  0.29391         4250.78803     17.22232    9e-05  57282.59152   9.81755  0.75924    51720.77612  47.49595  20.27488  57340.97564    51.19455       44.48052   19.88422  44.60705   35.5    0.19073  -21.45095  0.99184 
  -22.86574   0.0028  0.97374     14.19951  1.97566  0.98513  15.75003  0.12016     0.24086   11286.3176   9449.24076  0.69435         2716.60845     20.99457  0.54865  57284.30283  11.96777  0.04414    69404.94935  47.74628  20.39757  57343.36939    51.17691       44.42764   21.41377  47.81593   36.5    0.16948  -21.84722  0.99983 
  -19.19927  0.40347  1.14634     14.50196  1.60023   0.3863      5.03  0.15273     0.03129   7830.83676   5884.32537  0.30757         4263.66894     17.79143  0.00034   57287.9693   1.83997  2.02946    19351.29982  48.06769  20.80455  57340.97564     51.2683       44.53985    24.0317  46.32784   45.0    0.21484    -21.488  0.98522 
  -16.46014  0.00144  3.57743     14.10948  1.76486  0.86877   5.27749  0.16779     0.02445   8517.66011   9572.59353  2.47088         3790.15429     16.21131    1e-05  57290.70843     2.284  0.00762  1266796.86024  45.30571  20.13391  57343.36939    51.41576       44.73311   22.94333  36.70932   38.0    0.21632  -21.70344  0.99949 
  -10.15386  0.00165  0.77453     14.06936  1.23589  1.34593  11.64789  0.17764      0.0301  10654.31267   6631.27975   4.1156         2755.92716     19.07695  0.00663  57297.01471   7.88724   0.0192     50021.7233  47.88359  20.36399  57340.97564    51.06066       44.31896   24.47288  47.41621   42.5    0.15333  -21.69095  0.99993 
  -18.00362  0.18649  2.06749     14.18729  1.78513  1.45166  10.56877  0.13032     0.28278   8972.16865   7789.77329  1.29716         3540.19782     16.97187    5e-05  57289.16495   5.07512  1.97101   299077.93831  46.41384  20.23591  57340.97564    51.17956       44.46253   21.41377  42.82754   47.0      0.171  -21.56574  0.95964 
   -3.37471  0.03262  0.71325      14.5355  2.09919  1.00072  36.02916  0.02565     0.16588   6107.61843   9948.67294  3.19122         3061.21793      16.0614    1e-05  57303.79386   8.01724  1.17535     8420.80932  48.95906  20.16497  57343.36939    51.38752       44.73675   16.82511  35.56287   43.0    0.16046  -21.47235  0.99926 
  -16.91613  0.23096  1.21717     14.29833   1.7862  1.31885  21.56146  0.05208     0.35813  10729.83332   8208.82752   0.6423         2833.47591     19.27828  0.01054  57290.25244  14.80783  4.97984    62198.57936  47.55629   20.1969  57338.58188     51.0862       44.37596   19.88422   44.3571   46.0    0.21472  -21.61291  0.96967 
  -16.59628  0.13196  1.14325     14.29213  1.70195  0.84378   8.96057  0.09818     0.08088   7569.92253   9802.06302  0.74964         3713.46361     16.28425    1e-05  57290.57229   3.06299  1.18243    53800.42346  47.65272  20.15424  57343.36939     51.3071        44.6325   18.35466  40.40633   37.5    0.20518  -21.56012  0.99245 
   -7.00024  0.05058  1.09897     14.47435  1.89707  1.00387  14.31394   0.1798     0.23406  14405.81205   6343.85689  3.13963         2907.60576     16.81714    4e-05  57300.16833  17.71993  0.72399    23942.96121  48.08578  20.29957  57340.97564    51.29939       44.55141   18.35466  43.46544   39.5    0.16303  -21.77408  0.99741 
  -12.59699  0.00361  0.96229      14.3457  1.52308  0.66642   5.08057  0.32292     0.26379  10359.63521   3466.46569  3.80653         2025.70469     19.87576  0.04173  57294.57158   3.25258  0.01835    26653.18615  48.05921  20.18647  57345.76314    51.36067       44.71277   21.41377  36.70932   41.5    0.16332  -21.66418  0.99991 
  -16.72928  0.07406  3.58583     14.04815  1.68258  0.94974   6.03723  0.12513     0.23028   9105.55597   9567.05779  4.95644         3190.02362     17.31148  0.00011  57290.43929   2.98592  0.44714  1609455.35517  45.17896   20.1008  57343.36939    51.30093       44.63787   19.88422  37.62776   43.5    0.22975  -21.75317  0.96879 
   -4.88838  0.03981  0.77367      14.7179  1.61801  0.39634  17.88421  0.23288      0.0476   15190.8584   5609.50845  1.69318         5794.95406     18.80133  0.00352  57302.28019  24.61849  0.71196     3296.87964  49.18261  20.36905  57343.36939    51.15591       44.40542   21.41377  48.86172   43.0    0.16378  -21.91294  0.99884 
  -22.44045   0.0401  1.19325     14.17022  1.79874   1.1686  12.40904  0.08823     0.02675   8006.23098    6697.3611  0.36281          2556.1662     16.91564    5e-05  57284.72812   4.74484  0.49764   108596.28324  47.33453  20.16701  57340.97564    51.22329       44.55931   16.82511  39.76843   46.0    0.17247  -21.33738  0.99667 
  -23.23898  0.06774  0.85125     14.38536  1.67908  0.39117   9.32772  0.31841     0.05598  15879.55859   8466.68953  0.02728         5832.71777     21.12612  0.74276  57283.92959  14.03071  0.63189    19155.14745  48.35152  20.22938  57343.36939    51.19684        44.5014   18.30455   44.4072   33.5    0.20706  -22.19573  0.99761 
  -20.69323  0.02939  3.78925     14.08636  1.81955  1.48694  10.22771  0.11798     0.07881   7682.06788   3293.11707  4.13798         4114.18046     18.98325  0.00535  57286.47534   3.60049  0.30064   1629887.6744  45.15955  20.31597   57348.1274    51.22073         44.555   22.94333  38.63069   50.0    0.17146  -21.63006  0.97906 
  -15.63161  0.00308  1.38492     14.29289  1.72579  0.93631  15.40382  0.17087     0.01213  11449.99261   5529.16592  1.06941          3533.5765     17.71076  0.00029  57291.53696  12.04664  0.04737    79774.84392  47.32112   20.2785  57338.58188    51.00915        44.2538   24.47288  49.51085   37.5    0.19178  -21.67718  0.99955 
  -13.23207   0.0047  1.17897     14.42795  1.74972  0.60183   31.7961  0.03869     0.11003   8545.36008   7381.44669   2.1038            2348.67     17.11834    7e-05   57293.9365  13.85038  0.14933     31469.3513  47.87092  20.39972  57340.97564    51.12167       44.36183   22.50214  49.38695   42.5    0.17905  -21.62027  0.99902 
  -13.66131  0.00163    1.425     14.40733  1.61005  0.43327   8.00108   0.0812     0.20312   7304.78403   9201.94356  1.19771         2679.72815     19.45749  0.01593  57293.50726   2.54677  0.01307    46519.54344  47.50042  20.11252  57340.97564    51.30401       44.62734   15.29555  36.70932   41.0    0.20689  -21.63769  0.99985 
  -10.47537   0.0312  2.20401     14.59914  1.73457  0.44225    9.3101  0.14493     0.02875   9410.62075   7176.69506  2.20865         4209.53853     16.28662    1e-05   57296.6932   4.91834  0.29049    49562.59623  47.12646  20.26759  57345.76314     51.3248       44.66253   27.53199  35.81766   40.0    0.22556  -21.76953  0.99272 
  -17.71226  0.08537   1.0179     13.99913  1.61771  1.42013  22.31283  0.09284     0.15914  11355.27675   8818.65439   1.1444         2855.13727     21.01015   0.5687  57289.45631  17.16237  1.90492   156265.60938  47.26847  20.30282  57343.36939    51.23316       44.45478   21.41377  46.28637   42.5     0.1541  -22.08068  0.98904 
  -23.18424  0.09296  1.52246     14.69744  1.77907  0.25551  13.41639  0.06708     0.01114   7645.51722   8239.55835  0.52078         3737.22854     19.47057  0.01642  57283.98433   4.67818  1.24723    15424.81979  47.96572   20.0149  57340.97564    51.31424       44.69221     13.766  35.17977   42.0    0.18214  -21.45328  0.98579 
  -23.47357  0.02959  1.20648     14.36086  1.74091  0.42469   9.75386  0.28333     0.06992  15418.80849   8636.38018  0.22499         5361.57279     21.13695   0.7615    57283.695  13.83264  0.28862    44659.82851  47.69667  20.17456  57340.97564    51.39799       44.74185   16.82511   38.7387   36.0    0.19268  -22.23521  0.99784 
   -17.8937   0.0405  0.93025     14.25907  1.86869  1.53096  20.13799  0.12377     0.45371  13877.21436   8897.19153  0.46675         2296.71482     20.46926  0.16368  57289.27487  23.13384  0.81558    45543.12183  47.94476  20.36608  57343.36939    51.13587       44.38946   27.53199  45.80261   33.5     0.2077  -21.67904  0.99753 
  -13.19944  0.02022  2.27731     14.25513  1.76608  1.07921  14.84259  0.05707     0.44664     5843.641   6744.04991  1.66975         5042.69329     19.54459  0.01947  57293.96913   3.02346  0.30017   262666.52064  46.38161  20.50084  57340.97564    51.08744       44.36905   22.94333  39.76828   44.5    0.18806    -21.679  0.99215 
  -19.77529  0.44586  2.58471     14.12135  1.88902  1.16656   5.88697  0.11623     0.14117  10591.64887   9239.69145  0.45318         2352.17939     17.35825  0.00013  57287.39328   3.93955  2.62476   670140.51835  45.89409   20.3074  57343.36939    51.20574       44.48082   22.94333  42.82754   42.5    0.23407  -21.70517  0.92466 
  -13.57378  0.13403  1.17797     14.42893  1.81892  0.87491  10.59262  0.22199      0.0601  13177.30898   6445.83334  1.26774         2918.97664     19.02993  0.00595  57293.59479  10.97196  1.41973    32510.95233  47.87436  20.30778  57340.97564    51.07632       44.37834   19.88422  43.22726   40.5    0.18137  -21.73358  0.99236 
  -23.38763  0.06189  1.05055     14.10964  1.59728  1.10438   7.98183  0.23482     0.47031    9871.5019   9909.02372  0.42201         3601.19314     20.48667  0.17037  57283.78094   4.63977  0.49397    98797.29789  47.43465  20.30585  57336.18813    51.02381       44.27205   19.88422  48.09496   36.0    0.17911  -21.48454  0.99697 
  -23.63317  0.02161  1.40647     14.14707  1.80668  1.48671   8.49005  0.14989     0.10918    9268.6491   8148.89634  0.15765         2623.11881     18.25907  0.00101   57283.5354   4.35081  0.18345   168586.16518  47.00264  20.12474  57340.97564    51.16852       44.49857   22.50214  35.76988   39.0    0.19745  -21.36961  0.99826 
  -21.25428  0.02026   1.1227     14.31668  1.86827  0.62652  40.81946  0.02299     0.17616   8649.20866   9469.76947   0.2332         5264.13779     20.67613  0.26354  57285.91429  18.21576  0.82714    50864.54785  47.73334  20.08457  57343.36939    51.54161       44.96623   16.82511   30.5911   39.0    0.20452  -21.74751  0.99531 
  -14.63512  0.09576  1.09827     14.21182  1.64546  0.87675   15.0379  0.05107     0.05341    8629.5332    8944.9181  1.19389         2032.75772     19.26875  0.01032  57292.53345   6.68019  1.44007    69481.91034  47.56185  20.61101  57340.97564    51.14694        44.4216   25.56125  43.26873   38.5    0.22696  -21.67226  0.99085 
  -22.10848  0.01298  1.55906     14.39769   1.6976  0.53971  17.25416  0.07285     0.14758      7767.12   9514.27705  0.78692         3934.31353     18.75301  0.00315  57285.06009   6.20928  0.22401    61375.24682  47.32496  20.19656  57338.58188    51.06469        44.3673   20.97259  43.26873   40.0    0.16885  -21.39373   0.9971 
    -3.0385  0.03319  0.76775     14.51244  1.69298   1.1677  74.09058  0.01464     0.10453   8292.97202   7189.47729  2.54574         4573.52296     19.89716  0.04384  57304.13007  30.39559  2.45898     8750.55806  48.78502  20.22603  57336.18813    51.16648       44.42002   19.44303  46.32784   40.5    0.24608  -21.89518  0.99802 
  -18.64127   0.0488  0.80987       14.101  1.37745  1.46581  16.08922  0.13644     0.37389  11284.93259   8676.29769  0.37556         3625.76084     16.04998    1e-05   57288.5273   12.2225  0.78523     52689.8105  47.86937  20.50436  57340.97564    51.13227       44.43014   19.88422  45.88665   37.5    0.18562  -21.37868  0.99715 
  -13.36653  0.00879  3.61482     14.14625  1.85292  1.37574  10.73517  0.05457     0.40379   5578.60417   8418.10309  1.87774         5153.20062     17.84123  0.00039  57293.80204   1.99291   0.0944  1146409.50569  45.36119  20.21277  57340.97564    51.24426       44.57501   22.94333   35.4338   44.5    0.21778  -21.67268  0.99411 
   -17.3656  0.00487  2.49918     14.16456  2.02827  1.46029  11.00316  0.07708     0.13552      7381.92   4078.27777  1.98586         2812.46949     16.61343    2e-05  57289.80297   3.57671  0.05358   551331.39268  46.03896  20.49572  57343.36939    51.06269       44.30864    30.5911  41.29799   50.0    0.18637  -21.56583  0.99861 
  -16.93894  0.01362  0.91765     14.08487  1.37342  1.30283   17.6466   0.1019     0.01925  11286.22089   7197.19896  0.49002          3544.2332     16.02318    1e-05  57290.22963  13.40866  0.24029    72650.84779  47.62006  20.17313  57336.18813    51.08635       44.42149   16.82511  41.29799   36.0    0.21617  -21.60806  0.99872 
  -10.39467   0.0017  2.41523      14.5038  1.66774  0.53965  12.47371  0.04306     0.42596   3537.75047   8993.16246  2.54865         5263.31593     18.79787  0.00349   57296.7739   0.93127  0.02124    88770.89459  46.77679  20.12722  57340.97564    51.26391        44.5878   16.82511  39.76584   44.0    0.17562  -21.66886  0.99932 
  -16.31056  0.00617  0.96091     14.13174  1.38584   1.0872  20.84459  0.05596     0.23432   7375.60655   6761.42653  0.89551         5182.16059     20.04363  0.06143  57290.85801   6.76419  0.12855    64775.06331  47.63379  20.49769  57340.97564    51.08748       44.28504   21.41377  54.09951   42.0    0.18526  -21.63043  0.99925 
  -12.56528    0.144  1.46082     14.14554  1.60627  1.28104  16.46814  0.04247     0.33946   7953.66127   9790.85415  0.90132         4022.31775     16.27539    1e-05  57294.60329    6.2145  2.37136   162837.38714  46.93372  20.16217  57343.36939    51.32766       44.66902   18.35466  38.23888   38.0    0.24353  -21.73855   0.9719 
  -18.85804  0.02728  1.16839      14.6918  1.83976  0.32041  15.55001  0.06674     0.02912   7670.60968   9749.08136  0.38589          5266.7263     19.57596  0.02093  57288.31053    5.4578  0.42424     9641.54956  48.41429  20.51665  57336.18813    51.01787       44.25182   22.94333  50.47532   36.5    0.18877  -21.48044  0.99745 
  -12.90925  0.07944  1.00997     14.36582   1.8004    0.922  41.71632  0.01996     0.14262   7943.76872   8988.56678  1.29306         2633.12612     19.08171  0.00671  57294.25932  15.70313  3.31377    31634.28447  48.01544  20.31307  57343.36939    51.19928       44.51446   18.30455  41.34809   43.0    0.19733   -21.5969  0.98726 
  -18.83365   0.0107  2.75375     14.27708   1.7919  0.73705   8.70585  0.10912     0.07337   8598.39005   6177.36334   1.2687         4733.29763     19.90447  0.04459  57288.33492   3.83948  0.09319   352220.92507   46.0955  20.24996  57338.58188    51.11798       44.38913   18.35466  47.33217   43.0    0.22135  -21.77395  0.99646 
   -3.26081  0.02593  1.07548     14.53135  1.52664   0.6232  17.93309  0.14129     0.16008  10672.70701   4295.39616  2.73052         4862.90612     18.31435  0.00115  57303.90776  12.18517  0.46495    14192.43788  48.23732  20.16974  57345.76314      51.309       44.61748   19.83411  41.34809   44.0    0.14694   -21.7214  0.99766 
    -8.5036  0.01383  1.37688     14.60549   2.0929  0.71949  10.90669   0.2027     0.12511  11937.47772   4913.43918  2.61673         3315.43121     16.59418    2e-05  57298.66497    9.2714  0.15083    22666.01276  47.95643  20.18023  57340.97564    51.20266       44.46782   22.94333  41.29799   41.5    0.20907  -21.73591  0.99909 
  -13.14702  0.00812  3.74566     14.28614  1.81309  0.76403   6.03423  0.11796     0.05807   6536.69684    3776.9258  3.24952          4206.6076     18.72248  0.00293  57294.02155   1.53803  0.04903   632440.70188  45.57919  20.30109  57340.97564    51.00397       44.26778   29.06155  39.76843   44.0     0.2175  -21.69131   0.9966 
