 texplosion  fnickel    Pspin  log(Bfield)      Mns  thetaPB   mejecta    kappa  kappagamma     vejecta  temperature    alpha  cutoff_wavelength  log(nhhost)      A_V         MJD0  kenergy  mnickel             TSD   log(L0)  Peak_mag     Peak_MJD  log(E_rad)  log(Peak_lum)  Rise_Time     E_fold  tau_1  delta_m15     r_peak     frac 
  -35.95168  0.01311  2.48944     13.72664  1.81356  1.08157  19.04571  0.08687     0.21672  3581.98018   3600.22834  3.13616         3021.20696      16.7604    3e-05  55705.64832  1.45771  0.24967   3675087.88964   45.1699  21.57896  55841.18431    51.45177       44.34478   68.97023   93.39719  119.5    0.04317   -21.5026  0.99216 
   -30.7147  0.00922   1.6174     13.65988  1.51438  1.05862  23.22637  0.10285     0.01373  4078.00909   7873.97369   2.4945         3004.75922     20.44611  0.15518   55710.8853  2.30412  0.21417   1761671.63272  45.78552  21.60344      55836.5    51.41278       44.35109   64.65959   86.21279   98.5    0.04147   -21.7289  0.99634 
  -35.76871  0.06407  1.82748     13.61354  1.47317  1.24038  11.49637  0.29524     0.01535  5163.38172   7753.27677  2.18828         2921.46623     16.42087    1e-05  55705.83129  1.82834  0.73663   2708328.53119  45.48069  21.63104  55844.05376     51.4596       44.42197   74.97181    81.6481   78.0    0.04731  -21.66458   0.9834 
  -32.10429  0.00543  2.01498      13.8034  1.82815  1.10689   22.8815  0.10583     0.01528  3561.69466   6955.03734  2.90375         3100.25062     19.79271  0.03447  55709.49571  1.73151  0.12435   1704409.98528  45.69074  21.58928  55841.18431    51.47101       44.35206   73.28087   96.27095  109.0    0.03651  -21.54927  0.99751 
  -32.10339  0.00416  2.06969     13.83016  2.05053   1.2269  13.58365  0.29499     0.01026  4769.62278   7100.34744  2.90537         2879.96793     18.53997  0.00193  55709.49661  1.84337  0.05654    1783113.1647  45.69772  21.60511  55841.18431    51.43881       44.35719   71.84399   93.39719   84.0    0.03983  -21.67067  0.99899 
  -40.39116  0.00216  2.31397     13.60205  1.70704  1.54953  11.31459  0.20095     0.06625  4774.86935   5572.92825  2.12182         2971.88506     16.34228    1e-05  55701.20884  1.53882  0.02444   5304881.29206   45.0477  21.63611  55844.05376    51.40396       44.35115   74.10105   85.39261  111.5    0.04521  -21.62936  0.99927 
  -37.92652  0.00146  2.23314     13.65335  1.74882  1.39071  32.69826  0.07093     0.04197  4195.08003   3659.93152  2.62559         2953.70587     19.04247  0.00613  55703.67348  3.43267   0.0477   3996631.82236  45.21207  21.60488  55838.31486    51.43549       44.36997    62.1637   84.39805  112.5    0.04013  -21.59242  0.99872 
  -35.65569  0.01193  1.84318     13.56611  1.48669  1.31238   11.1333  0.28472     0.02626  4726.72811    5973.2123  4.53463         2711.65707     19.71671  0.02894  55705.94431  1.48379  0.13287    3459028.5845  45.37098  21.64615  55841.18431    51.42302       44.33164   77.96101   94.46457   99.0    0.03893  -21.69587  0.99694 
  -31.90971  0.00182   2.0005     13.71996  1.77128  1.27081  14.67429  0.21141     0.01526  4501.94765   6589.92873  2.41395         3055.39301     19.21198  0.00905  55709.69029  1.77413  0.02667   2390364.17003  45.53639  21.58545  55838.31486    51.46601        44.4162    63.7661   85.66941   94.5    0.03881  -21.66515  0.99944 
  -43.66269  0.00469  2.00753      13.7714  1.65331  0.70961   12.3853  0.27246     0.02064  4916.65672   6941.73035  2.36225         2915.63434     17.16961    8e-05  55697.93731  1.78597  0.05806   1772959.26074  45.63318  21.64858      55839.4     51.4436       44.36439   64.65959   89.08655   93.5    0.03843  -21.69153  0.99864 
  -47.44854  0.41167  2.22802      13.6634  1.54251  0.66862   9.18202  0.26203     0.01984  5275.25591   6974.43003  2.16613         2838.10987     19.19238  0.00865  55694.15146  1.52424  3.77993   3350213.29831  45.23616  21.54957  55841.18431    51.44272       44.36216   71.84399   91.96031   89.0    0.05065  -21.73207  0.88862 
   -30.3368  0.00189  1.21137     14.03055   1.5287  0.30437  43.80879  0.04072     0.08472  3933.79593   6284.11522  1.61812          3192.9407     20.93734  0.48091   55711.2632  4.04401  0.08289    180961.98421  47.02903   21.6012  55838.31486    51.51317        44.4155   67.53335   89.08655  113.0     0.0453  -22.09236  0.99922 
    -40.419  0.41567   2.3545     13.84559  2.02471  0.89035  12.14772  0.33474     0.01134  5268.99157   6994.65796  3.52513         2710.96657     19.35229   0.0125    55701.181  2.01176  5.04947   2122279.25351  45.50461  21.64666  55841.18431    51.50249       44.42685    63.7508   88.55846   85.0    0.04675  -21.74337  0.89272 
  -39.48537  0.00235   2.2655     13.55473  1.68341   1.3686  12.57424  0.18785     0.01019  4762.26307   7575.38815  3.21305         2837.95247     18.94781  0.00493  55702.11463  1.70112  0.02958   6235377.37238  44.98985  21.59266      55839.4    51.41723       44.35212   64.65959   87.64967   82.5    0.05333   -21.6767  0.99912 
  -27.90805  0.06533   2.1783     13.89819  2.10343  1.22719  40.71681  0.05757     0.43328  3739.00273   6539.06923    2.253         3298.89284     20.02465   0.0588  55713.69195  3.39557  2.66014   1481130.62325  45.74495   21.6058  55844.05376    51.40455       44.36591   74.53643   82.08348  108.5    0.03889  -21.63013  0.95204 
  -32.36513  0.02313  1.96913     13.65167  1.50799   1.2643  39.88679   0.0442     0.24338  3401.75252   3021.17547  2.38692          3251.2761      18.9466  0.00491  55709.23487  2.75335  0.92239   2700329.94005  45.42728    21.656      55834.3    51.42643        44.3586   63.22271   84.77591  110.5    0.04415  -21.49325  0.97685 
  -36.34105  0.00322  1.89628     13.58536  1.54233   1.2644    32.879  0.04573     0.02175  3376.36314   4449.55551  2.30717          3150.7396     20.43647  0.15177  55705.25895  2.23586  0.10592   3476022.38997  45.36014  21.61602      55839.4    51.41709       44.35393   62.32922   88.54317  119.0    0.04571  -21.61376  0.99755 
   -40.2789  0.01148  2.33608      13.5382  1.60174  1.23236  15.09607  0.12131     0.03028  4283.43739   3965.40318  4.59047         2705.40176     18.08936  0.00068   55701.3211  1.65225  0.17334   6807547.84345  44.90347  21.59964      55839.4    51.43623       44.35094   66.09647   89.08655  124.5    0.04335  -21.57731   0.9941 
  -24.98446  0.01032  1.91495     13.79801  1.76028   1.3853  29.48654  0.07742     0.15497  3340.74072   5769.35102  3.20606         3100.18235     17.59208  0.00022  55716.61554  1.96307  0.30435   1519471.22277  45.76842  21.62892  55841.18431    51.43917       44.34625   67.53335   93.39719  107.0    0.03947  -21.45971  0.99423 
  -31.97716  0.08053   2.3067     13.77195  1.82976  1.30316  15.30053  0.16512     0.05206  4412.26481   6181.96342  3.87498         2786.93397     18.97328  0.00522  55709.62284  1.77687  1.23208   2584037.63691  45.39296  21.58657  55838.31486    51.38984       44.34706   58.91207   84.77591  104.5    0.04212  -21.56866  0.96851 
   -44.9613  0.11231  2.73316      13.7611  2.15833  1.35491  12.28516  0.20994     0.01079  4585.32104   8047.51765  2.78845         2831.78448     17.57225  0.00021   55696.6387   1.5408  1.37976   4498536.91546  45.07656  21.62234  55844.05376    51.40956        44.3684   75.97331   82.08348   83.0    0.04843  -21.59567  0.96092 
  -31.63111  0.14685  2.11045     13.70116  1.60096   1.3105  19.79874  0.11316     0.25801  4056.39129   5020.60317  2.70741         3026.41973     17.06232    6e-05  55709.96889  1.94332   2.9074   2621981.29211  45.40584  21.62425  55841.18431    51.39537       44.36664   74.97181   78.77434  110.0    0.04272  -21.54604  0.92731 
  -42.26652  0.20541  2.26068     13.57574  1.52811  1.46369  17.73454  0.10344      0.0965  3790.69493   6624.49352  2.78231         2984.78485     18.03217   0.0006  55699.33348  1.52014  3.64284   5116454.01127  45.03555  21.61138  55844.05376    51.45786       44.36501   70.40711   96.27095  124.5    0.04091   -21.5127  0.89054 
  -48.86273  0.01273  2.33205     13.44095   1.6394  1.29736  13.90381  0.11278     0.01045  4164.50998    4554.7085  2.73747         2883.05441     18.06202  0.00064  55692.73727  1.43843  0.17696  10866304.80524  44.71197  21.58884  55841.18431    51.43275       44.35241   64.65959   93.39719  108.5    0.04418  -21.58258  0.99403 
  -32.92251   0.0135  2.13644     13.93638  1.72877  0.64706  13.04597  0.22461     0.17619  5231.78581    7407.3506  2.77247         2857.20714     17.91495  0.00046  55708.67749  2.13012  0.17607    982134.79745  45.85503  21.60433      55839.4    51.40654        44.3522   63.22271   90.52343   92.5    0.04783  -21.65843  0.99568 
  -35.86548  0.00769  2.46948     13.71833  1.85939  1.42034  39.89307  0.04624     0.09363  3664.11668   4251.72245  3.11668         3025.89929     18.68401  0.00268  55705.73452  3.19494   0.3069   3852379.13227  45.16727  21.59971      55839.4    51.38785       44.35574   67.78741   83.08498  115.0    0.04462  -21.50816  0.99094 
  -34.66603   0.0372  2.43399     13.75142  1.80314   1.1129  21.40539  0.08233     0.16441  3649.54549   3991.49354  2.84504          3099.4638     17.38962  0.00014  55706.93397   1.7007  0.79623   3116275.17553   45.2586  21.63337      55839.4    51.42511       44.35151   70.40711   91.96031  115.0    0.04542    -21.511  0.97644 
  -33.52599  0.00918   2.1353     13.73143  1.72435  1.05057  46.01294   0.0291     0.03667  3012.96413   4146.32494  2.33356         3281.78931     20.36221  0.12792  55708.07401   2.4917   0.4224   2514738.20426  45.44606  21.60359  55841.18431    51.44087       44.34492   66.09647   96.27095  118.5    0.04542  -21.52882  0.98963 
  -39.56574  0.00823   2.3273     13.95354  1.91762  0.61137  17.49678  0.15955     0.06337  4078.60378   5717.17149  4.95042         2720.60092     17.07622    7e-05  55702.03426  1.73623  0.14403   1194546.12329   45.7407  21.63793      55836.5    51.46739       44.34977   69.51362   94.29068  116.0    0.03551  -21.57184  0.99638 
  -40.86214  0.02823  2.20231     13.70354  1.46795  0.60141   17.3901  0.09722     0.07668  4259.91432     4178.111   3.0995         2872.08136     16.21552    1e-05  55700.73786  1.88248  0.49088   2589435.03218  45.33659  21.62164  55841.18431    51.40744       44.35932   67.53335   87.64967  130.0    0.04527  -21.57659  0.98325 
   -37.9081  0.06586  2.17365     13.58028  1.62134  1.31975  10.23893  0.26771     0.01247  4816.74897   7409.01374   4.3477         2710.24496     16.67633    3e-05   55703.6919  1.41706  0.67437   4914902.44663  45.11283   21.6331  55841.18431    51.45366       44.35724   67.53335   90.52343   83.5    0.04928  -21.65863  0.98109 
  -37.71102  0.01562  2.27499     13.69475  1.73675  1.08757  16.28065  0.13627     0.08786   3926.4904    4154.0148  3.18672           2926.181      17.7818  0.00034  55703.88898   1.4973  0.25435    3404127.7889  45.26262   21.5837  55841.18431    51.42477       44.35324   73.28087   90.52343  118.5    0.03866  -21.55224  0.99291 
  -29.14735  0.03309  2.14889     14.18546  1.98532  0.49104  33.14157  0.06509     0.01025   3365.3105   4152.20372   2.2906         3330.34969      16.5781    2e-05  55712.45265  2.23898  1.09677    362368.79997   46.3431  21.59993  55841.18431    51.45519       44.34669   71.66267   96.45227  107.0    0.03997  -21.48023  0.97845 
  -29.56607  0.00278  1.75132     13.68534  1.62826  1.52654  22.66792  0.14747     0.27657   4196.5357   7248.82216  3.06379          2984.1384     17.06442    6e-05  55712.03393  2.38134  0.06306   1975132.64208  45.69824  21.59689  55849.79265    51.42184       44.37607   78.97782   81.95273  104.0    0.03119  -21.60614  0.99887 
  -35.17103   0.0044  2.36612     13.67602  1.78466   1.4049  34.35998  0.05295     0.01543  3860.82937   4443.94112  2.71435         3041.42245     19.54253  0.01938  55706.42897  3.05521  0.15114   4124819.14022  45.15692  21.65023      55839.4    51.42689       44.34218   63.22271   94.83407  114.5    0.04392  -21.55467  0.99561 
  -36.41996  0.35044  2.19296     13.62185  1.62403  1.32734  10.07829  0.28689      0.0774  5117.65078   5075.99578  3.97727         2710.85124     19.57194  0.02073  55705.18004  1.57455  3.53179   4137747.80762  45.18061   21.6253  55846.92321    51.45351       44.35235   81.90215   96.27095  109.5    0.04005  -21.72816  0.90755 
  -47.61968  0.01031  2.03094     13.63613  1.65335  0.88698  11.24772  0.29064     0.01126  4858.26495   6919.43349  2.22667         2853.58369     16.56319    2e-05  55693.98032  1.58363  0.11601   3383156.70619  45.34249  21.57817  55838.31486    51.48991       44.42502   61.78583   86.21279   85.0     0.0497  -21.67188  0.99719 
  -30.95069  0.01244  1.85745     13.78063  1.60323  0.88012  24.12911  0.10637     0.05516  3904.03697   5022.42938  2.74913         3007.63896     19.65612  0.02517  55710.64931   2.1938  0.30009   1410533.83801  45.78662  21.64826      55839.4    51.44185       44.34919   66.09647   94.83407  109.0    0.03993  -21.56254   0.9938 
  -39.35862  0.02367  2.40168     13.65948  1.78932  1.10055  11.16572  0.20918     0.01103  4733.25656   7675.79801  3.04259         2814.72678     19.06445  0.00644  55702.24138  1.49222  0.26433   4598155.13791  45.09792  21.59294  55844.05376     51.4388       44.37003   68.97023   90.52343   81.5    0.05266  -21.63528  0.99206 
  -31.50423  0.00224  1.91525      13.9065  1.72129  0.75221  33.02076  0.07523     0.03245  3710.13471   5636.34191  2.44823         3205.12195     16.54385    2e-05  55710.09577   2.7114  0.07403     901830.7823  45.98512  21.58311  55838.31486     51.4825       44.35702   71.84399   96.27095  106.0    0.03907   -21.5307  0.99854 
  -21.59872  0.03274  1.72242     13.93775  1.90916  1.37585  66.39634  0.03317     0.02542  3049.68984    3102.3599  2.71318         3231.44083     16.72367    3e-05  55720.00128  3.68369  2.17367      700552.657  46.23197  21.59469      55839.4    51.41887       44.33424   66.09647   91.96031  108.0    0.03524  -21.38479  0.97137 
  -30.10327  0.00114  2.32586     13.76324  1.82684  1.40749  44.12549  0.03011     0.12395  2722.71837   4524.72317  2.71063         3299.56304     18.83074  0.00376  55711.49673  1.95129   0.0504   2730275.81489  45.36117  21.62674  55841.18431    51.44248       44.35229   64.65959   93.39719  113.0    0.04409  -21.39722  0.99865 
  -28.79249  0.12179  2.11615      13.9066  1.88481  0.80989  11.70882  0.27092     0.17685  4721.45353   6464.67811  3.92058          2746.5402     19.86623  0.04083  55712.80751  1.55701  1.42607   1204964.74577  45.81205   21.5824      55839.4    51.42934       44.34037   66.09647   91.96031  106.0    0.03996  -21.67408   0.9707 
  -46.53743  0.31046  2.20662     13.52043  1.57267  0.92298   8.81472  0.27994     0.01099   4940.6074   7297.08745  4.45655         2701.68765     18.86111  0.00403  55695.06257   1.2835  2.73665   6472289.33025  44.96697  21.60136      55839.4    51.52132       44.44074    63.7661   88.54317   84.0    0.05749  -21.68692  0.91961 
   -42.8675   0.2088   2.4431     13.66679  1.76301  1.19884  18.38537  0.13088      0.0165  4385.47073   5284.99359  3.14809         2826.48952     18.01849  0.00058   55698.7325  2.10927  3.83893   4532828.13834  45.08285  21.62087  55841.18431    51.44242       44.35012   70.40711   94.83407  111.0    0.03781  -21.61286   0.8909 
  -32.50748  0.32867  2.47573     13.82561  1.67558    0.908  18.69516   0.0979     0.13223  3861.21671   4201.15302  2.82697         3091.45402      17.0256    6e-05  55709.09252  1.66266  6.14447   2128984.70939  45.37743  21.63118  55844.05376    51.47424       44.41245   68.97023   90.52343  119.5    0.04359  -21.54037   0.8237 
  -39.02676  0.04997  2.14326     13.36378   1.4463  1.41942  14.86052  0.08931     0.01306  4281.74326   6839.86794  3.02851         2931.72711      19.9067  0.04482  55702.57324  1.62518  0.74265  11552262.12871  44.70429  21.60458  55841.18431     51.4439       44.36249   64.65959   89.08655  116.5    0.04557  -21.66348  0.97505 
  -42.04521  0.01868  2.53681     13.78886  1.88442  0.67778  10.41924   0.2317     0.01956   5559.9836   7704.56634  2.94036         2757.06461      18.2333  0.00095  55699.55479  1.92137  0.19463   2977484.35634   45.2616  21.61668  55841.18431    51.44023       44.35706   68.97023   94.83407   83.5    0.05118  -21.74405  0.99386 
  -36.91971  0.00274  2.42072     13.95149  1.85961  0.61566  32.50198  0.06357     0.01828  4021.86638   5946.90759  2.83696         2990.22322     18.29227  0.00109  55704.68029  3.13612  0.08908   1265150.66091  45.66824  21.59959      55839.4    51.46244        44.3749   66.09647   91.96031  110.5    0.04439  -21.54249  0.99746 
  -26.05844    0.008  1.74804     14.10106  1.70224   0.4144  14.53603  0.28658     0.01013   4875.0729   7077.53474  3.65205         2809.60134     18.84361  0.00388  55715.54156   2.0608  0.11625      303267.873  46.53293  21.57801      55836.5    51.41425       44.33079   64.65959   90.52343   84.0    0.04192  -21.67826  0.99806 
  -38.64556  0.03335  2.42743      13.5608  1.63131  1.33877   14.6939  0.09912     0.01372  4114.70499   7388.36493  2.55995          3019.1984     16.01976    1e-05  55702.95444  1.48403  0.49002   6746106.93853  44.88203  21.59129      55839.4     51.4346       44.32867   73.28087   97.70783  105.0    0.04814  -21.54796  0.98274 
  -21.84328  0.00159  1.63982     14.10316  1.83755   0.5834   15.7801  0.18106     0.01549  4059.14914   8051.51838  2.46637         3118.55267     20.11572  0.07252  55719.75672  1.55098  0.02512    285314.99031  46.64817  21.61557  55841.18431     51.4384       44.35702   64.65959   89.08655   91.0    0.04151  -21.59035  0.99967 
  -39.67887  0.19539  2.99918      13.7087  1.88502  1.28689  28.61931  0.04946     0.01781  4173.67411   3897.15605  2.43834         3053.59235     17.86875  0.00041  55701.92113  2.97388  5.59199    6021973.0182  44.81042  21.64469  55844.05376    51.44737       44.39748   74.10105   85.39261  128.5    0.04782  -21.54956  0.80253 
  -43.25216  0.01432  2.42313     13.76724  1.78025  0.73246   17.4332  0.12296     0.01567  4273.34552   5451.29606  3.28978         2832.93694      18.4835  0.00169  55698.34784  1.89907  0.24962   2835098.25965    45.298  21.59325  55841.18431    51.46167       44.33547   73.09955   97.88915  112.0    0.04008  -21.58859  0.99227 
  -36.79361  0.00504  2.59379     13.83255  2.03796  1.06422  21.42366  0.10436     0.15686  4274.89651   6921.60179  2.65591         2991.78842     16.71343    3e-05  55704.80639  2.33546    0.108   2752851.76317  45.31039  21.58695  55838.31486    51.50623       44.44272    62.1637   82.96117  107.5    0.04412  -21.56145  0.99692 
  -34.00315  0.33825  2.52593     13.68255   1.6553     1.14  17.27177  0.09918      0.1107  4264.19625   3357.70792  2.38623         3074.77468     18.03261   0.0006  55707.59685  1.87343  5.84213   4230869.46754  45.05645  21.60301  55838.31486    51.45968       44.35877   68.97023   91.96031  122.0    0.04369  -21.61479  0.82066 
  -33.83461   0.0366  2.08853     13.99428  1.96559   0.6627  20.63241  0.13491     0.23428  4109.63351   3559.04175  2.02266         3231.07041     19.51432  0.01816  55707.76539  2.07866  0.75522    817377.05641  46.01023  21.62641  55841.18431    51.43015       44.35931   73.28087   90.52343  108.5    0.03814  -21.64852   0.9856 
  -40.10265  0.01887  2.70324     13.84936  1.93488  0.71894  23.39109  0.07061     0.02868  4022.30494   3056.92233  2.67415         3039.26987     17.59171  0.00022  55701.49735   2.2575  0.44144   2627408.22428   45.2722  21.63073      55839.4    51.39446       44.37638   74.71775   76.15463  125.0    0.04513  -21.54667   0.9851 
  -23.70116  0.00473  1.68665     13.86265  1.91202  1.16303  32.72472  0.07443     0.37546  3505.82375   7524.44568  2.58388         3217.28258      20.4142  0.14419  55717.89884  2.39929  0.15466    950711.84827  46.11824  21.59573  55846.92321    51.46031       44.36224   78.41169   96.88765  102.5    0.03829  -21.64529  0.99799 
  -31.21401  0.01171  2.05084     13.71408  1.60147  1.03884  28.33579  0.07954     0.05272  3883.74295   5619.32339  2.72894         3056.36213     16.77854    3e-05  55710.38599  2.54955   0.3318   2333640.31589  45.48147  21.63915  55841.18431    51.40266       44.34308   74.97181   87.39562  108.5    0.04142  -21.53333  0.99161 
  -35.88533  0.02751  2.38028     14.19976  2.10179  0.41735  16.73637  0.18693     0.01454  4790.37535   6939.85473  2.29244         3017.29489     16.61469    2e-05  55705.71467  2.29101  0.46046    440705.67959  46.19403  21.62912      55836.5    51.37815       44.35269   63.22271   83.33903   92.0    0.04209  -21.66767  0.98959 
  -36.89605  0.00152  2.40777     13.88222  1.73748  0.56841  16.41647  0.10223     0.12648   3881.7027   3351.63159  2.65293         3071.20372     19.08386  0.00674  55704.70395  1.47554    0.025   1608886.79662  45.53901  21.59444  55844.05376    51.45871        44.3551   68.97023   93.39719  121.0    0.04422  -21.55724  0.99921 
  -32.99795  0.02724  2.26781     13.71192  1.63756  1.08956  38.48628  0.03928     0.49029  3238.61168   4673.31173  2.70949          3183.0053     18.02577  0.00059  55708.60205  2.40797  1.04843   2947029.79799  45.30244  21.66137  55841.18431    51.44735       44.34906   66.09647   94.83407  116.0    0.04403  -21.45359  0.96919 
  -35.13338   0.1774  2.43284       13.737  1.82712  1.29993  11.85736  0.19575     0.01335  4703.95738   7044.78329  2.48549         2957.01486     17.96331  0.00051  55706.46662   1.5651   2.1035   3371473.20608  45.23056  21.60641  55844.05376    51.44001       44.35751   76.15463   93.39719   86.0    0.04794  -21.62155  0.94134 
  -32.17825  0.03833  2.08156     13.74364  1.69844  1.16654  19.77498   0.1112     0.01677  3680.12731   4496.10685  2.81707         3054.14221     18.59231  0.00217  55709.42175   1.5976  0.75795   2225197.47964  45.51475  21.62698  55844.05376    51.40877       44.36398   74.71775   83.33903  108.5     0.0412  -21.51412  0.98215 
  -23.42555  0.02749  1.57336     13.65171  1.41862  1.53626  50.19103  0.06456     0.08283  4608.48731   4120.21528  2.85729         2977.81309     18.67001   0.0026  55718.17445  6.35873  1.37974   1621528.03801  45.81713   21.6315  55841.18431    51.42543       44.34756   71.24259   95.43547  100.0     0.0433  -21.61633  0.97605 
  -27.74659  0.01837    2.001      14.0149   1.7396  0.55468   35.8137  0.08833     0.01141  5010.79262   6779.25895  2.24233         3011.22986     16.84573    4e-05  55713.85341  5.36401  0.65777    603880.56606  46.12585   21.6294      55839.4    51.44668        44.3539   66.09647   91.96031   92.5    0.04314  -21.66021  0.98618 
   -37.3927   0.0016  1.87343       13.713  1.57348  0.89243  12.72168  0.29452      0.0635  4950.10903   5803.75233  3.66482         2779.73444     16.82306    4e-05   55704.2073  1.85952   0.0203   1922836.33862  45.63649   21.5538  55841.18431     51.4647       44.34391   71.66267   96.45227  107.0    0.03752  -21.68118  0.99956 
  -32.04939  0.00615  2.32433      13.7887  1.89355  1.39741  27.85589  0.05845     0.24999  2976.46259    6084.2716  2.99868         3157.64416     19.18214  0.00845  55709.55061  1.47213  0.17141   2513556.43944  45.41324  21.60691      55839.4    51.50496       44.40399   68.97023   94.83407  113.5    0.04142  -21.42455  0.99566 
  -28.37249  0.05479  1.92516     13.78194  1.53677  0.92094  34.28613   0.0645     0.09342  3796.63433   6422.28102  2.59632         3109.01743     17.82641  0.00037  55713.22751  2.94811   1.8784    1443734.9712  45.72703  21.60772  55841.18431    51.47338       44.38116   66.09647   91.96031  106.5    0.04168  -21.50618  0.95729 
  -37.95343  0.00185  2.69719      13.7534   2.1337  1.45061  10.66905  0.24408     0.01579   5099.9111   7436.34837  2.75065         2880.72819     17.18038    8e-05  55703.64657   1.6553  0.01979   4487222.30411  45.08418  21.62188  55844.05376    51.48031       44.37611   67.53335   97.70783   82.0    0.05175  -21.68152  0.99942 
  -38.79718  0.00523  2.56252      13.8357  1.85148  0.56596  15.35738  0.10293     0.01523  4495.96041   3371.97414  2.91842         2859.86766     19.80985  0.03586  55702.80282  1.85178  0.08029   2405900.23287  45.33775  21.61134  55841.18431    51.39604       44.35092   75.97331   82.08348  113.5    0.04543  -21.64828  0.99732 
  -33.81346  0.00168  2.00444     13.88037  1.46994  0.52006  24.77013   0.0767     0.26533   3682.4809   5348.81711   2.8919         3042.68961     17.51245  0.00018  55707.78654  2.00372  0.04172    951393.17313   45.8538  21.62179  55841.18431    51.42476       44.34441   63.22271   91.96031  112.0    0.04407  -21.50935  0.99884 
  -38.91312  0.10447  2.39169     13.70349  1.77738    1.121   12.1074  0.17699     0.01242   4408.4814    7276.8131  2.47863         3038.47099      17.6486  0.00025  55702.68688  1.40364  1.26483   3698481.40759  45.19319  21.62639  55844.05376    51.43784       44.35243   70.40711   94.83407   89.5    0.04734  -21.61672  0.96338 
  -26.81318  0.01472  2.22538     14.14491  1.89544  0.46469  45.72549  0.04053     0.23511  3329.54818   7625.77381  2.66938          3138.2354     19.51623  0.01824  55714.78682  3.02382  0.67325    447202.15716  46.20124  21.59353  55844.05376    51.44686       44.37089   64.65959   87.64967  105.5    0.04306   -21.4772  0.98462 
  -33.65879  0.00714  1.84147     13.64124  1.50189  1.15482  16.31988  0.16407     0.01901  4084.57676    3281.1099  2.55832         3101.41303     17.54622   0.0002  55707.94121  1.62419  0.11653    2467755.2643  45.52285   21.6053  55838.31486    51.40593       44.36402   70.40711   84.77591  104.0    0.03803  -21.59163  0.99737 
  -31.05986  0.00146  1.99589     13.90654  1.53242  0.48562  30.87903  0.04011     0.34136  3026.44569   3358.94347  2.66684         3222.14737     20.27142  0.10379  55710.54014  1.68716  0.04504     871723.1174  45.91357  21.66122  55841.18431    51.39729       44.34584   76.15463   84.77591  119.0    0.04906  -21.56324  0.99883 
  -21.32285  0.01956  2.01217     14.10632  1.72912  0.52875  34.38111  0.04668     0.01029  2910.59153   7261.13023  3.05036         3172.94067     17.67668  0.00026  55720.27715  1.73744  0.67249    398417.04642    46.299  21.61053      55839.4    51.44737        44.3496   66.09647   93.39719  103.5    0.04333  -21.37392  0.98566 
  -42.99649  0.00106  2.12426     13.61672  1.61098  0.92339  12.00445  0.21239     0.01001  4672.98601   8470.64864  3.16854         2766.90035     19.40576  0.01414  55698.60351  1.56372  0.01278   3943554.30999  45.22563  21.61114      55839.4    51.47263       44.34753   71.84399   99.14471   79.0     0.0508  -21.65398  0.99965 
  -43.14441  0.00282  2.16945     13.93259  1.61999  0.37971  12.14055  0.21738      0.0102  5137.88196   7158.23501  3.44322         2731.01923     18.99166  0.00545  55698.45559  1.91176  0.03422    965731.09087   45.8208  21.62185  55841.18431    51.44235       44.35476   76.15463   94.83407   82.0     0.0579  -21.69955  0.99901 
  -32.83216  0.01964  1.79279     13.58888  1.39139  1.08801  28.48836  0.09721     0.01902  4565.29968    6683.0934  2.44961         2923.39509     16.23857    1e-05  55708.76784  3.54188  0.55946   2757834.97099  45.46467  21.62559  55832.57596      51.439        44.3565   66.09647   90.52343  104.0    0.03996  -21.62891   0.9867 
  -28.42211  0.00255  2.13075      14.0117  1.88666  0.65215  29.20361  0.07255     0.01596  3339.16296   4841.33005  2.94621          3179.7972     16.28849    1e-05  55713.17789   1.9424  0.07442    753649.52043   46.0103  21.59796      55839.4    51.44423       44.34058   68.97023   91.96031  109.5    0.03974  -21.50345  0.99841 
  -26.39501  0.00333   1.7444       13.685  1.53156   1.4472  17.12471  0.15184     0.01293  3946.20719   6769.20791  2.69993         3090.21702     17.57968  0.00021  55715.20499  1.59078  0.05709   1846010.72009  45.70445  21.60413      55839.4    51.44368       44.34706   67.53335   90.52343   96.5    0.04088  -21.53657  0.99889 
  -27.52777  0.00289  2.10928     13.76714  1.69034  0.95287   9.29095  0.32316     0.02141  5215.87646   8032.12441  3.74753         2792.45552     19.02013  0.00582  55714.07223  1.50779  0.02689   2040695.73429  45.53877  21.70217  55838.31486    51.50277       44.43635   62.64915   85.34948   77.5    0.04637  -21.69077  0.99933 
  -41.05054  0.01003  2.14517      13.7924  1.47936  0.54727   20.2996  0.08474      0.0102  3844.98804    6249.2334  2.48294         3046.30156     18.78762  0.00341  55700.54946  1.79021  0.20357   1644454.37902  45.55998  21.61237  55844.05376    51.46728       44.32846   76.15463  103.45535  110.0    0.04525  -21.51415  0.99351 
  -25.82039  0.00944   1.7118     13.98977  1.56194  0.51931  19.34029  0.16218     0.04683  4248.06024   6727.22448  3.02471          3011.5094     18.68079  0.00266  55715.77961  2.08196   0.1825    445497.11643  46.34676  21.59972      55839.4    51.48144       44.35087   70.40711   99.14471  102.0    0.03343  -21.58918  0.99668 
  -42.39169   0.0016  2.78081     13.71659  2.00642  1.21833  15.60351  0.09495     0.27978  3752.87227   4300.60335  2.43887         3098.82597     16.65095    2e-05  55699.20831  1.31092  0.02493   5313833.66969  44.95751  21.62382  55844.05376    51.38399       44.34576   74.10105   81.08197  129.5    0.04521  -21.49298  0.99914 
  -32.04877  0.01472  2.03226     14.00306  1.73541  0.53267  13.88973  0.20207     0.01189  4377.62831   7424.77805  2.41916         3077.97073     16.73402    3e-05  55709.55123  1.58781  0.20444    656239.34209  46.07523  21.60113  55844.05376    51.46578        44.3419   72.09805   97.45378   86.0    0.04328   -21.6144   0.9955 
  -34.90642  0.00879  2.14395     13.59565  1.54788  1.37991  19.10611   0.0879     0.13592   3530.8179   6444.15333  2.56802         3188.51246     19.21688  0.00915  55706.69358  1.42086  0.16786   4252930.80691  45.16747  21.68389  55841.18431    51.42808       44.35585   63.22271   91.96031  117.0    0.04589  -21.51344  0.99505 
  -40.89064  0.00155   2.2024       13.739  1.54739  0.60257  14.83982  0.12847     0.01153  4205.49902   5973.08151  3.25164         2885.97088     18.06466  0.00064  55700.70936  1.56564  0.02303   2318490.93903  45.40745  21.59762  55844.05376    51.46645       44.34595   70.40711  102.01847  102.0     0.0442  -21.60041  0.99927 
  -34.22491  0.04988   2.0663     13.76195  1.53153  0.71109  15.54668  0.16536      0.0551  4593.31086     6005.226  3.69444         2806.85058     17.19994    9e-05  55707.37509  1.95667  0.77542    1817326.4965  45.56415  21.59587      55839.4    51.45252        44.3679   67.53335   90.52343  109.0    0.04204  -21.63427  0.97882 
  -42.35519  0.30779  2.25908     13.62853  1.71563  0.95778    9.8361  0.28595     0.01186  4911.03534   7153.88813  2.91223          2826.8643     18.75585  0.00317  55699.24481  1.41513  3.02744   4498274.20911  45.14236  21.61325      55836.5    51.42695       44.33778   67.53335   91.96031   85.0    0.05261  -21.72052  0.91999 
  -30.94305  0.00127  2.01657     13.74374  1.75197  1.37725  15.51818  0.16768     0.05261  3930.40252   6535.39894  2.59309         3032.77781      17.7338   0.0003  55710.65695  1.43002  0.01968   2153200.94549  45.57006  21.63466  55841.18431    51.48209       44.36411   74.10105  101.19829  105.0    0.04038  -21.52443  0.99958 
  -31.30507  0.00153  2.17253     13.95925   1.6972  0.57442   18.2155  0.10532     0.14813  3581.72078   3324.19882  2.86012         3117.29081     18.85781    0.004  55710.29493  1.39396   0.0279    897401.94556  45.87166   21.5902  55841.18431    51.42132       44.33678   63.22271   93.39719  109.0    0.04375  -21.50617  0.99927 
  -28.93169  0.00176  2.09986     13.75751  1.75466   1.4644  22.94386  0.08091     0.01678   3262.3329   5728.91801  2.67446         3207.26725     16.93374    5e-05  55712.66831  1.45663  0.04045   2194615.37523   45.5273  21.63797  55838.31486    51.53641       44.46862   63.58528   85.85023  106.5    0.04294   -21.4551  0.99907 
  -44.66186  0.00267  2.25722     13.65103  1.62958  0.86467  20.05419  0.11815     0.01063  4458.69675    5317.3526  4.94804         2670.35086     16.46684    2e-05  55696.93814   2.3782  0.05346   3845740.57293  45.18879   21.5949      55839.4    51.52901         44.474    63.7661   88.54317  103.0    0.04179  -21.60388  0.99835 
  -32.85499  0.00195  2.35746     13.79157  1.70026  0.87202  21.98918   0.0651     0.01533  3271.73605   4301.86928  2.86795         3200.36743     16.67864    3e-05  55708.74501  1.40408  0.04297   2291296.35499  45.39439  21.67796      55839.4    51.39517       44.35328   70.40711   84.77591  113.0    0.04817   -21.4675  0.99867 
  -43.73633  0.14852  1.92073      13.5525  1.42008  0.71527   9.12263  0.26778     0.01577  5313.54092   7731.01449  2.15441         2874.62574     20.05187   0.0626  55697.86367  1.53644  1.35487   3820008.65222  45.27216  21.61402  55841.18431    51.45168       44.36454   67.53335   94.83407   82.0    0.05502  -21.80409  0.96363 
  -38.66082  0.00542  2.01399     13.95267  1.36386   0.3056  19.61665  0.10001     0.04399  4368.04831   4621.03651  3.69665         2775.13119     16.63153    2e-05  55702.93918  2.23268  0.10634    638793.29115  45.99014  21.62215  55846.92321     51.4111       44.35455   72.67947   86.81419  121.5    0.04393  -21.60127   0.9966 
  -40.08605  0.00223  2.48661     13.81901  1.81309  0.67435  17.52857  0.10708     0.01451  4247.86403   6268.00526  2.66682         2974.01236     16.10308    1e-05  55701.51395  1.88675  0.03903    2395708.6887  45.35662  21.65173      55839.4    51.46433       44.36158   70.40711   94.83407  110.5    0.04458  -21.59153  0.99875 
  -37.98981  0.03731  1.92903     13.53448   1.4513  1.25541  10.13641  0.29228     0.01591  4877.39075   8084.14224  2.91782         2879.02158     16.40679    1e-05  55703.61019  1.43842   0.3782   4278594.08381  45.22862  21.60416  55844.05376    51.47743       44.36295   70.40711   96.27095   80.5    0.04507  -21.67466   0.9901 
  -31.49233  0.00632  2.34162     13.71079  1.73022  1.34206  42.83447  0.02619     0.06024  2615.26706   8795.51673  2.93116         3236.64832     19.67361   0.0262  55710.10767  1.74764  0.27052   3337111.89091  45.24454    21.617  55841.18431     51.4507       44.36127   74.55173   96.43698  108.0     0.0475  -21.39374  0.99202 
  -31.13211  0.00216  1.96803     13.60866  1.54951  1.42873  22.35515  0.08149     0.01341  3843.97203   4719.75254  2.67072         3064.57343      20.1607  0.08043  55710.46789  1.97045  0.04819    3378780.0854  45.34222  21.61574  55844.05376    51.44085       44.36936   70.22579   92.14163  106.5    0.04749  -21.61411  0.99881 
   -33.0198  0.00165  2.32305      13.7634  1.76703  1.16094  11.17022  0.18545     0.38551  4432.61852   7415.36518  2.08603         3117.95802     17.07239    7e-05   55708.5802  1.30921  0.01842   2632504.57745   45.3636  21.64394  55844.05376    51.45571       44.36373   76.97481   95.45077   95.5    0.04895  -21.55027  0.99948 
  -29.03135  0.02461  2.27224     13.82721  1.88524  1.10978  19.48266   0.1186     0.10049  4215.52363   7346.07388  2.22303         3209.21266     18.92107  0.00463  55712.56865  2.06528  0.47949   2002974.19242  45.52963   21.6517  55841.18431    51.44414       44.38052   77.84557   87.39562   99.5    0.04669  -21.58513  0.98842 
   -38.1733  0.00533  2.36183     13.60845  1.72842  1.54101  19.96291  0.07952     0.01001  3463.46241   3916.81116  3.07934         3009.02804     19.05716  0.00634   55703.4267  1.42847  0.10647    5433244.9824  45.02494  21.62327  55841.18431    51.80783       44.78463   56.03831   77.59151  117.5    0.04384  -21.51569  0.99674 
  -36.51793  0.00514  2.43599      13.8605  1.86101  0.64671  19.75254  0.08119     0.07425  4035.64724   7142.37929  2.43275          3130.4199      20.0996  0.06988  55705.08207  1.91901  0.10158   1949485.97833  45.47532  21.66058  55846.92321     51.4239       44.36461   79.02839   86.21279  119.0    0.04631  -21.65799  0.99703 
  -32.54355  0.02978  1.80332     13.70309  1.54526   1.0475  41.22865  0.03796     0.05453  2848.93077   6290.06369   2.4912         3275.37675     20.23156  0.09469  55709.05645  1.99614  1.22782   1831389.96441  45.68292  21.59694  55844.05376    51.40132       44.36363   74.71775   81.90215  115.5    0.04119  -21.51539  0.97522 
  -31.39617  0.00449  2.36442     13.85585  1.76882  0.78181  26.97083  0.05684     0.01062   3242.7915   3443.40243  2.90868          3182.1858     17.25755   0.0001  55710.20383  1.69184  0.12111   1783398.96656  45.51783  21.65242  55844.05376    51.49929       44.40794   64.65959   93.39719  113.5    0.04693  -21.47299  0.99646 
  -39.03108  0.47443  2.32074      13.7836  1.59224  0.66719  11.21299  0.20339      0.0103  4577.15285    7132.8012  2.57868         2935.09561     18.35134  0.00125  55702.56892  1.40133  5.31981   2157104.26877  45.40573  21.62628      55839.4    51.44789       44.36928   63.22271   89.08655   85.5    0.05125  -21.64764  0.84847 
  -26.70562  0.00576  1.65031     13.73433  1.57366  1.39898  15.38509  0.18228     0.39541  3854.31042   7061.14823  2.47909         3091.52582     17.47283  0.00017  55714.89438  1.36339  0.08867   1352698.84803  45.89943  21.61322      55839.4    51.45272       44.33753   73.28087   99.14471  101.0     0.0384  -21.48574  0.99852 
  -47.21056  0.00109  2.42479     13.56434  1.84235  1.25702  17.66853  0.13697     0.01179  4697.17134   6311.30258  3.65588         2780.07152     16.18997    1e-05  55694.38944  2.32541  0.01924   7479041.86864  44.89102  21.65479  55838.31486    51.38808       44.35873   67.53335   81.90215  103.0    0.04037  -21.68941  0.99942 
  -28.09203  0.02977  1.95982     13.82157  1.68216   0.8597  28.98487  0.06227     0.06754   3484.4665   3808.78065  3.12016         2962.45742     20.31341  0.11432  55713.50797  2.09928    0.863   1364492.09985  45.77531  21.64075  55846.92321    51.42967       44.37311   80.29925   84.94194  109.5    0.04479  -21.56839  0.98177 
  -26.85639   0.0121   1.9027     13.77461  1.77172  1.56068  26.72033  0.11995     0.08904  4556.50126   7332.38735  2.45807          3119.0578     16.32567    1e-05  55714.74361  3.30927   0.3233   1681640.65117  45.73276  21.63254  55841.18431    51.38621       44.35586   73.28087   80.46527   96.5    0.03994  -21.61653    0.994 
  -44.02187  0.12586  2.36343     13.53882  1.73751  1.53698  10.52676  0.21895      0.0105  5063.41687   8445.89838  2.19741         2946.05898     19.06568  0.00646  55697.57813  1.60994   1.3249   7536942.71103  44.88449  21.66057  55841.18431    51.51502       44.44408   59.45546   91.41693   76.0    0.06104  -21.68544  0.96049 
  -46.45678  0.12085  2.43118     13.62276  1.77835   1.0188   15.9467  0.12835     0.01138  4175.38745    6081.2451  2.80751         2911.55655     17.97374  0.00052  55695.14322  1.65841  1.92724    5545613.4595  45.00328  21.61847  55844.05376    51.44381       44.34554   67.53335   93.39719  107.0    0.04073  -21.62339  0.94229 
  -41.71176  0.00104  2.71616     13.87198  2.05539  0.71729  15.73551  0.14328      0.0109   4679.6208    7359.7239  3.48142         2784.75564     17.37496  0.00013  55699.88824  2.05556  0.01643   2539027.21909  45.30916  21.63897  55841.18431    51.42976       44.36046   71.84399   91.96031   90.5    0.04744   -21.6256  0.99948 
  -29.38001  0.00108  2.18884     13.78746  1.86671  1.47793  12.20019  0.21867     0.01301  4529.80572   7982.29546  2.53558         3096.34255     17.80785  0.00036  55712.21999  1.49332  0.01312   2210041.05343  45.51509  21.59927  55841.18431    51.47235       44.36139   68.97023   93.39719   81.0    0.04725  -21.60362   0.9997 
  -33.45351  0.00113  2.55835     13.78224   2.0294  1.25679  52.38669  0.03691     0.02398  3716.36444   5865.23412  2.75354         3067.33407     18.54495  0.00195  55708.14649  4.31603  0.05933   3362225.16689  45.23367  21.61287      55839.4    51.43775        44.3521   66.09647   89.08655  115.0    0.04202   -21.5352  0.99834 
  -31.74287  0.01444  1.72946     13.68384  1.49914  1.18475  26.63551  0.09885     0.37933  3816.44836   6321.80769  2.31089         3173.86085     16.74062    3e-05  55709.85713  2.31423  0.38465   1785667.87675  45.71707  21.61552      55836.5    51.39128       44.36135   67.53335   81.90215  105.5    0.03809  -21.52338  0.99242 
  -40.25354  0.01502  2.62727     14.08508  2.10928  0.43558  15.08661    0.176     0.01484  4775.87156   6729.63352  3.52981          2784.4783     16.79281    3e-05  55701.34646  2.05269  0.22662    913697.85257  45.79317  21.59342  55841.18431    51.42995       44.35192   66.09647   93.39719   97.5    0.04099  -21.68876  0.99363 
  -42.92432  0.01327  2.39557     13.71202  1.77141  0.78511  11.85387  0.17811     0.01066  4554.90227   7796.97263  2.40367         2942.95055     18.55686    0.002  55698.67568  1.46705  0.15731   3555564.56762  45.20744  21.59561      55839.4    51.44684       44.35467   63.22271   94.83407   85.5    0.04935  -21.63188  0.99516 
   -27.7025  0.09763   2.0172     13.77955  1.82041  1.19245  13.32705  0.30156     0.02211  5365.43172   6774.97367  4.29988         2718.93354     18.69195  0.00273   55713.8975   2.2886  1.30115   1898369.55524  45.64114  21.63194  55841.18431    51.42907        44.3636   66.09647   91.96031   90.0    0.04131  -21.72575  0.97434 
  -33.24599  0.05315  2.49303     13.81515  1.96148  1.39135  46.01739  0.04421     0.16555  3876.51033   3764.88125  2.43687         3121.06018     16.42376    1e-05  55708.35401  4.12507  2.44581   2651917.76237  45.34441  21.65501  55841.18431    51.46541       44.33834   74.71775  104.54104  110.5    0.04233  -21.52504  0.93636 
  -34.69336  0.00151  2.33521      13.7245  1.77012  1.01044  33.35784  0.06496     0.15001  4042.62295    4704.5931  4.58845         2771.42247     17.74456  0.00031  55706.90664  3.25201  0.05048   3187629.28302  45.27673  21.59869      55839.4    51.43066       44.34927   64.65959   89.08655  117.0    0.04081  -21.57893  0.99855 
  -37.50275  0.00314   2.3578     13.70459  1.84778  1.03417  27.08451  0.06766     0.02259  3965.27345   7162.97124  3.60618         2835.35726     20.26643   0.1026  55704.09725  2.54036  0.08516   3717893.96774  45.22018  21.62277  55841.18431    51.43486       44.34931   64.65959   90.52343  119.0    0.04313  -21.64265  0.99765 
  -32.30093  0.00565  2.46059     14.02547  2.11918  0.66975    35.225  0.05874     0.07143  3733.94128   5949.63861  2.71104          3076.5259     19.90645  0.04479  55709.29907  2.92963  0.19891   1059564.20503  45.78781  21.63536      55839.4    51.39343       44.35623   71.84399   81.90215  111.5    0.04195  -21.56986  0.99522 
  -30.07585  0.01383  1.84191     13.76994  1.76938  1.20795  19.25462  0.15418     0.07342   4031.1328   5772.95079  2.64067         3032.97208     19.86589   0.0408  55711.52415  1.86645  0.26629   1608051.77147  45.77983  21.60035      55839.4    51.45875       44.38273   70.40711   93.39719  108.5    0.03645  -21.60579  0.99535 
  -41.98443  0.00223   2.2656     13.60261   1.6007  0.84542  11.87909  0.17496     0.01079  4692.38154   7608.22027  3.89646         2750.66237     16.54992    2e-05  55699.61557  1.56026  0.02654   4756327.45889  45.08552  21.58635      55839.4    51.44414       44.35059   67.53335   90.52343   86.5    0.05285  -21.64868  0.99914 
  -40.16991  0.13802  2.49058     13.83683  2.01069  0.95652  12.42162  0.20583     0.01506  4369.89994     7400.703  2.68654         2947.60872     19.35204   0.0125  55701.43009  1.41497  1.71448     2455260.915  45.38949  21.62278  55838.31486     51.4567       44.34772   70.40711   94.83407   93.0    0.04205  -21.61807  0.95585 
  -27.33394  0.04564  1.89907     13.78623  1.58007  1.00209  26.04577  0.07001     0.04658  3003.14947   7392.07605  2.98762         3239.44878     18.68224  0.00267  55714.26606  1.40126  1.18863   1416186.49922  45.75932   21.6071  55844.05376    51.46419        44.3663   67.53335   94.83407  109.5    0.03986  -21.44421  0.97438 
   -35.3409  0.06615  2.19142     13.64673   1.6431  1.38696  12.97291  0.17371     0.18362  4374.97115   4723.05915  2.65024         2989.98783     18.45214  0.00157   55706.2591   1.4812  0.85816   3727953.98549  45.23159  21.62414  55844.05376    51.50094       44.39329   68.97023   96.27095  108.5     0.0433  -21.60024  0.97638 
  -37.10852  0.00427  2.04642     13.53292  1.46353  1.33883   13.4853  0.16532     0.16218  4127.75579   4471.89315  4.60554          2750.2573     18.55098  0.00198  55704.49148  1.37062  0.05757   4890616.55039   45.1229  21.63872  55838.31486    51.44756       44.34334   68.97023   93.39719  117.5    0.04078  -21.57248  0.99831 
  -33.19068  0.00435  2.14427     13.66944  1.69584  1.34878  24.21306  0.08677     0.01022  3860.29241   7265.91719  2.40197         3116.20838     17.78951  0.00034  55708.40932  2.15237  0.10524   3318070.08747  45.31479  21.63643      55839.4    51.44404       44.35562   64.65959   93.39719  102.0    0.04294  -21.56262   0.9973 
  -39.96823  0.03894  2.18922     13.74979  1.51222  0.61617  19.52043  0.09812     0.45486  4313.24209   3054.78059   3.0606         2906.13336     18.15451  0.00079  55701.63177  2.16633  0.76006     2130249.835  45.43945  21.65207  55838.31486    51.41632       44.34055   57.85306   94.45621  121.0     0.0443  -21.60127  0.97595 
  -31.79748  0.00183  2.10245     13.87125   1.6998  0.77733  32.52377  0.05935     0.01738  3231.60714   5841.10486  3.18795         3065.86108     17.30852  0.00011  55709.80252  2.02612  0.05949   1262303.30001  45.75263  21.63073      55839.4    51.42751       44.36041   63.22271   86.21279  111.0    0.03956  -21.43648  0.99855 
  -29.60094  0.21228  2.18172     13.88541   1.6132  0.74993  19.92247  0.09039     0.14744  3496.46813   3687.34512  2.55871         3178.71965     17.42503  0.00015  55711.99906  1.45288  4.22923   1208622.26385  45.71665  21.62066  55841.18431    51.47896       44.36847   68.78891   97.88915  114.5    0.04245  -21.48122  0.89263 
  -30.67467   0.0012  2.11883     13.74423  1.73502  1.31037  29.30549  0.07043     0.16247  3466.18728   5984.70512  3.17207          3039.1268     17.09704    7e-05  55710.92533  2.10029  0.03519   2348794.24885  45.48511  21.62398  55844.05376    51.39002       44.35506   77.96101   80.09577  109.5    0.04098  -21.47367  0.99915 
  -31.88042  0.06089   1.9334     13.64973  1.56812  1.13668  22.06062  0.08142     0.22835  3680.02914   5535.31204  2.71935         3087.14669     20.35574  0.12603  55709.71958  1.78216  1.34329   2731376.51898   45.4552  21.63032  55844.05376    51.45699       44.34723   76.52414  101.64897  114.5    0.04327  -21.65405  0.96949 
   -37.0401  0.01209  2.22076     13.74301   1.7806  1.09923  24.11606  0.09251     0.01443  3763.67114   4783.12316  2.62975         3062.94908     18.63241  0.00238   55704.5599  2.03778  0.29162   2663001.82776  45.40104  21.61324      55839.4    51.45203       44.34527   67.53335   96.27095  111.0    0.04073  -21.53063  0.99259 
  -33.80991  0.43682  2.09584     13.64194  1.53823  1.12471  12.38417  0.18464     0.01831   4645.0511   7126.37849  2.16688         3000.46305      20.0803  0.06684  55707.79009  1.59395  5.40969   3263433.36684  45.29948  21.56622      55839.4    51.47425       44.39229   70.40711   96.27095   96.0    0.04184  -21.71197  0.86653 
  -28.82803  0.00595  1.97495     13.74473  1.55604  0.92848   35.1509  0.05306     0.13033  3405.14501   7057.72572  2.70223         3209.11648     19.05818  0.00635  55712.77197  2.43128  0.20899   1825928.70229  45.60827   21.6481      55839.4    51.41804       44.36659   74.97181   84.52186  107.0    0.04248  -21.50926  0.99487 
   -35.2446  0.39853  2.33636     13.68895  1.56537  1.02399  12.82588  0.16776      0.0274  4617.92222   5605.84086  2.64812         2946.48957      18.3952  0.00138   55706.3554  1.63158   5.1115   3323560.83722  45.20478  21.60631  55838.31486    51.43796       44.34827   68.97023   91.96031  107.0    0.04454  -21.62922  0.84966 
  -29.95226  0.00205   1.8587     14.19306  1.57601  0.29678  33.29586  0.07761     0.27975  4229.91455   6460.88168   2.8826          2927.2243     19.80584  0.03553  55711.64774   3.5537  0.06825    207816.94177  46.61031   21.6044  55844.05376    51.40559       44.35077   70.40711   87.64967  102.5     0.0425  -21.59427  0.99855 
  -31.77422  0.00645  2.29974     13.79258  1.83886  1.27124  29.00913  0.06511     0.06831  3369.93019   5220.08657  3.48676         2969.97204     17.15737    8e-05  55709.82578  1.96519  0.18721    2347306.4842  45.43947  21.59775      55836.2    51.41793        44.3605   68.07674   88.54317  110.5    0.04159  -21.43086  0.99516 
  -38.53466  0.01111   2.6936     13.64825  1.88207  1.25828  14.31489  0.11191     0.02417   3933.6479   3601.70046  4.69634         2758.71992     17.23541   0.0001  55703.06534  1.32131   0.1591   6406568.53034  44.87619  21.64077      55836.5    51.44033       44.39901   58.00328   89.99534  126.0    0.04556   -21.5281  0.99435 
   -31.1077  0.01275  2.03097     13.69917  1.61765  1.28242  27.38473  0.06489     0.05232  3196.14956   5130.17888  2.76731         3189.00527        19.32  0.01161   55710.4923  1.66874  0.34906   2476073.86688  45.46856  21.62511      55834.3    51.45438       44.35533   67.53335   97.70783  111.5    0.04176  -21.46485   0.9915 
   -35.5686  0.05323  2.13566     13.97931  1.88804  0.54113  12.18175  0.27921     0.01409  5139.11517   7397.69152  3.22536         2773.19116     20.08791  0.06802   55706.0314  1.91917  0.64845     879556.3101  45.94153  21.62868  55844.05376    51.44491       44.34262   75.97331   97.88915   82.5    0.04352  -21.77748  0.98613 
  -33.98483  0.32379  2.76407     13.89071  1.96707  0.87056  12.95649    0.168     0.01281  4901.86303   7922.35874  2.26261         3055.55579     18.99654  0.00551  55707.61517  1.85711  4.19523    2308429.0026  45.31625  21.57859  55841.18431    51.48625       44.37673   67.53335   96.27095   81.5    0.05021  -21.64673  0.87401 
   -26.4423  0.28388  2.06433     14.04962  1.76269  0.55849  21.50436  0.10858      0.0379  4385.23266    6181.0887  2.41134         3038.69038     20.17705  0.08352   55715.1577  2.46683  6.10476    555007.74058  46.14117  21.58736  55841.18431    51.50967       44.42915   61.78583   93.39719  110.0    0.04304  -21.69389  0.88065 
