 log(Bfield)      Mns    Pspin  cutoff_power  cutoff_wavelength  fnickel    kappa  kappagamma  mejecta  log(nhhost)  temperature  texplosion  thetaPB      vejecta      A_V        MJD_0   log(KE)     M_Ni  Peak_mag     Peak_MJD 
    14.27593  1.74309  3.07806       0.99301         3091.67442  0.01714  0.24003     0.01888  1.01714     16.68936   7587.67111    -2.70648  0.14178  10487.13378    3e-05  58701.57352  52.34387  0.57662  17.15982     58731.87 
      14.336  1.86319  3.17054       0.73705          3145.5798  0.00498  0.29724      0.0224  0.90853     16.41273   8533.45343    -2.86496  0.13248  10999.93143    1e-05  58701.41504  52.36373  0.15948   17.1727     58731.87 
    13.81626    1.656    3.057       1.20245         2836.01144  0.06442  0.20419     0.01461  1.23519      19.3269   8538.55826     -2.8093  0.43055  10087.75156  0.01179   58701.4707  52.34497  2.34859  17.15165     58732.14 
    14.25741  1.98941  3.51628       0.97879         3165.24008  0.00195  0.19681     0.01628  1.18884     17.79195   3606.84729    -2.72585  0.19494  10328.12321  0.00034  58701.55415  52.35878  0.06995  17.15633     58731.87 
    13.59009  1.52258  2.80741       0.88743         3100.88331  0.00502  0.16475     0.01267  1.54797     18.00878   7280.79769    -2.70618  0.61851  10635.13578  0.00057  58701.57382  52.42811  0.19952  17.15398     58732.14 
    13.70247  1.76107  3.10146       0.76847         2933.82818  0.00258  0.12591     0.01076  2.07384     18.48964   4987.68877    -2.71551  0.57665  11340.94918  0.00172  58701.56449  52.52787  0.11352  17.15101     58731.88 
      13.703  1.97133  3.28903       0.94531         3078.28909  0.01211  0.19729      0.0153  1.27969     16.56412   7597.18481    -2.66789  0.65219  10869.68451    2e-05  58701.61211  52.41587  0.44752  17.15909     58731.88 
    13.59927  1.69062  2.92564        0.9601         3050.45473  0.00104  0.20275     0.01439  1.15426     16.03661   7054.32699    -2.58257  0.68265  10320.70308    1e-05  58701.69743  52.35297  0.03681  17.15495     58731.87 
    13.95194  2.02596   3.5685       0.84066         3077.65522  0.03487  0.16085     0.01268  1.59948     16.72287   8464.72736    -2.77053  0.41932  10614.95148    3e-05  58701.50947  52.43161  1.40145  17.14807     58731.88 
    14.32221  1.89547  3.21739       0.99781         2917.14964  0.05171  0.25565      0.0201    0.983     16.54305    4898.0986    -2.69942   0.1401  10869.14131    2e-05  58701.58058  52.36853  1.71445  17.14704     58731.87 
    14.05736  1.72886  3.22089       1.57036         2582.35929  0.00284  0.15026     0.01151  1.69713      17.5859   4669.88994    -2.71785  0.26881  10399.25715  0.00021  58701.56215  52.42294  0.11673  17.15871     58732.14 
    14.12338  1.65394  3.01917       1.40552         2792.25668  0.02291  0.21929     0.01566   1.2096     18.40624   5360.63434    -2.84694  0.19771  10341.31964  0.00142  58701.43306  52.36291  0.82809  17.14766     58731.88 
    13.60054  1.78517  3.03088       1.02334         2854.58397  0.03594  0.19831     0.01447  1.34751      17.0861   9452.38683    -2.66866  0.72601  10899.08723    7e-05  58701.61134   52.4269  1.35527  17.14809     58732.15 
    13.77131  1.59923  2.90333       0.81197         3126.62698  0.00738  0.19488      0.0154  1.29161     16.71581   4326.53683    -2.71522  0.41921  10799.03872    3e-05  58701.56478  52.41178  0.27394  17.17023     58731.87 
    14.03922  1.38532  2.65913       0.87362         3012.93137  0.04637  0.20777     0.01843  1.14522     17.05186   8617.23732    -2.63122  0.18336  10853.41398    6e-05  58701.64878  52.39528  1.63978  17.16451      58732.2 
    14.18725  1.65795  3.06156       0.88012         3247.64553  0.00123  0.23261     0.01767  1.02618     17.82112   6475.74041     -2.7324  0.17519  10169.30147  0.00037   58701.5476  52.31879  0.04148  17.15769     58732.14 
    14.00952   1.7045  2.92907       1.10838         3099.79057  0.00177  0.25446     0.01819  0.98143     18.53979   8977.92308    -2.65167  0.24007  10374.81362  0.00193  58701.62833   52.3278  0.05871  17.16917     58731.88 
    13.92368  1.92622  3.46361       1.08526         2757.25692  0.00104  0.25604     0.02394  0.96175     18.70975   3682.95453    -2.70852  0.41653  11093.25758  0.00285  58701.57148   52.3821   0.0343  17.16212     58731.87 
    13.60781   1.5606  2.75445       0.86964         2972.39736  0.00148   0.2632     0.02011  1.03226     18.92941   8139.79541    -2.83569  0.56394  11096.20758  0.00472  58701.44431  52.39565  0.05015  17.18201     58731.88 
    13.58277  1.65354  2.83633       0.74042           2894.618  0.01294  0.16635     0.01238  1.61287     17.45604   6885.23358    -2.62542  0.65833  11140.19073  0.00016  58701.65458  52.47486  0.52163  17.16419     58731.87 
     14.1638  1.70736  3.20321       0.54993         3185.18141  0.04983   0.1371     0.01454  1.80373     16.30659   8959.41474     -2.5081  0.19697   11880.8947    1e-05   58701.7719  52.54786  2.08956  17.15004  58732.05612 
    14.09235  2.14988  3.60894       0.67044         3027.91062  0.00109  0.11918     0.01072  2.22239     16.29115    5513.1835    -2.81728  0.30079   11553.9135    1e-05  58701.46272  52.55381  0.04901  17.14818  58732.33579 
    14.16852  1.79532  3.32607       0.95089          2948.6467  0.04737  0.29898      0.0251  0.87118     16.89339   9870.75971    -2.73002  0.21685  10846.15072    4e-05  58701.54998  52.34319  1.48782  17.13495  58732.05612 
    14.01159  1.75209  3.01961       0.60575         3063.80294  0.01405  0.25123     0.02197  1.01539     17.13358   6099.47449    -2.72876  0.25524  11577.19535    8e-05  58701.55124  52.42944  0.47246  17.16091  58732.05612 
    13.80897  1.80471  2.96818       1.23632         2836.41493  0.00153  0.19979     0.01247  1.34627      17.2258   4072.65261    -2.87269  0.40758  10403.28898    9e-05  58701.40731  52.38631   0.0575  17.15624     58731.88 
    14.09277  1.55848  2.73202       0.96488         3009.02378  0.01815  0.19764     0.01249  1.40143     16.74331   7280.61703    -2.72619  0.17622  10441.24774    3e-05  58701.55381  52.39611  0.69482   17.1535     58731.87 
    13.65094  1.84903  3.13538       0.71632         3238.11834  0.00503  0.13828     0.01063  1.97582     17.28254   7471.05357    -2.86815  0.66792  11054.84484  0.00011  58701.41185   52.4987  0.21755  17.15124  58732.05612 
    13.86173  1.79491  3.17011       0.89429          2938.9403  0.00222  0.19428     0.01686  1.25168     17.89165   9817.72595    -2.69751  0.40025  10950.36098  0.00043  58701.58249  52.41852  0.08135  17.15789     58732.18 
    13.27989  1.29095  2.38989       0.52016         3430.36599  0.05044   0.1721     0.01392    1.463     16.19623   9430.79802    -2.71254  1.03877  11156.84043    1e-05  58701.56746  52.46069  1.96216  17.15738     58731.87 
    13.81825  1.49139  3.00081        1.3135          2793.8817  0.23438  0.23398     0.02132  1.03642     17.84244   3364.64996    -2.73578  0.38679  10489.87532  0.00039  58701.54422  52.34759  7.94972  17.14535     58731.87 
    13.44279  1.74677  3.05591       0.90841         3113.03725  0.00563  0.27548     0.02114  0.92053     16.15084   8481.42186    -2.77131   1.3019  10726.39466    1e-05  58701.50869  52.34442  0.18138  17.15321     58731.87 
    13.41464  1.69972  2.95066       1.11752         2694.83078  0.00271  0.32704     0.02269  0.85724     16.50148   9324.87167    -2.83785  1.36871  10837.51459    2e-05  58701.44215  52.33926  0.08444   17.1557     58731.18 
    13.97536  1.80179  3.11215       0.85409         2892.62867  0.00227  0.16398     0.01344  1.57469     16.95279   7866.36292    -2.85142  0.29439  11045.82749    5e-05  58701.42858  52.46372  0.09088  17.14817     58732.25 
    13.90834   1.7308  3.07643       0.98769         2948.79552  0.00132  0.23482     0.01792  1.18777     18.81538    3962.9301    -2.81354  0.34135  10957.93303  0.00363  58701.46646  52.41004   0.0474  17.17003     58731.88 
    14.00865  1.77749  3.33141       1.14606         2991.33424  0.00312  0.19518      0.0168  1.21187     17.24314   4133.03308    -2.78102  0.30897  10323.65247   0.0001  58701.49898  52.36175    0.113  17.16282     58731.87 
    13.93429  2.00705  3.18002       0.87368         3129.81252  0.01071  0.28579     0.01754  0.95416      16.7141    8034.5565    -2.83792  0.35295   10443.5729    3e-05  58701.44208  52.32816  0.35034   17.1622  58732.05612 
    13.60002  1.78558  3.07903       0.89089         2909.95551  0.00419  0.18396     0.01554  1.41388     17.64184    4423.7559    -2.67217  0.73271  11300.03562  0.00024  58701.60783  52.46622  0.16107  17.16908      58732.2 
    13.53874  1.58289  3.00516       1.04124         2828.17207   0.0394  0.24194     0.02142  1.02461     17.23235   7666.76834    -2.72258  0.83373  10870.19886    9e-05  58701.55742   52.3764  1.32995  17.15895  58732.33579 
    13.98277  1.99597  3.41467       0.86925         3009.13959  0.01535  0.19989     0.01607  1.22302       17.934   6419.49687    -2.55664  0.35389   10724.0849  0.00048  58701.72336  52.39639  0.55737  17.16674     58731.87 
    13.74604  1.66979  2.99184       1.01759         3034.51986  0.00106  0.20281     0.01493  1.27397     18.91557   4197.59938    -2.80026   0.4755   10441.4663  0.00457  58701.47974   52.3802  0.03906  17.15024     58731.87 
    14.25294  1.89022  3.33542       0.97877          3078.6149  0.08113  0.20222     0.01627  1.24378     17.48934    8662.9457    -2.58687   0.1749  10776.36824  0.00017  58701.69313  52.40352  2.96584  17.16444     58731.88 
    14.00994  1.71346  2.95369       1.60339         2879.12947  0.00423  0.18359     0.01209  1.43474     16.38364   5462.66696    -2.64174  0.24358  10259.58182    1e-05  58701.63826   52.3847  0.16325  17.16291     58731.87 
    13.75629   1.7006  3.19157       0.84231          2916.7958  0.04367  0.15948      0.0139  1.63422      17.8558   6139.21769    -2.87722  0.52929  10979.28076   0.0004  58701.40278  52.46426  1.76871  17.15968  58732.33579 
    13.67606  1.80002  3.04396       1.04008         2811.47534  0.12082  0.30432     0.02398   0.8631     17.17135    4067.2704    -2.63562   0.5747   11175.7574    8e-05  58701.64438  52.36732   3.7781  17.14917     58731.88 
    13.92054  1.76446  3.31238       0.80523         3102.72128  0.00301  0.25772     0.02262  0.94301     16.00723   5717.87288     -2.7587  0.38684  10676.72753    1e-05   58701.5213  52.34507  0.09787  17.15042     58732.18 
    14.15551  2.14541  3.64562       1.11364         3011.88409  0.00298  0.25029      0.0185  1.02307     16.04044    4519.4658    -2.62035   0.2676  10386.75445    1e-05  58701.65965   52.3366  0.10038  17.16697     58731.88 
    14.04172  1.56534  2.93445       0.68306          3041.7456   0.0482  0.14456     0.01236    1.718     17.36123   5304.56734    -2.73762  0.22725  10887.79465  0.00013  58701.54238  52.46468  1.98715  17.16375     58731.88 
    13.79311  1.62662  2.86118       0.94272         3006.73663   0.0074  0.15782     0.01211  1.57086     16.79038   6169.69374    -2.67099  0.38194  10707.96083    3e-05  58701.60901  52.43635  0.29533  17.13275     58732.32 
    13.67409  1.66853  3.04389       0.53534         3229.61277  0.00875   0.2511     0.02048  1.04943     18.68994   4428.47362    -2.63743  0.61531  11115.11408  0.00272  58701.64257  52.40018  0.29848   17.1452  58732.05612 
    13.38111  1.48122  2.70705       1.23243         2739.92313  0.04419  0.23687     0.01751  1.11559     16.14013   9583.55022    -2.77589  1.05815  10667.71838    1e-05  58701.50411  52.37561  1.54599  17.16077     58731.88 
    13.77147  1.76948  3.15555       1.08362          2904.7781  0.00825  0.23414     0.01677  1.12615      16.3427   6548.27588    -2.89719  0.51446  10409.57006    1e-05  58701.38281  52.35602  0.28983  17.17401     58731.87 
    13.72269  1.60298  2.88496       0.96752         2946.12798  0.00525  0.25359     0.01989  0.96965      18.2616   5476.12719    -2.66729  0.46684  10669.47017  0.00101  58701.61271  52.34982  0.17292  17.16954     58732.14 
    13.97709  1.95291   3.6501       1.07335          3031.2355  0.00508  0.18826     0.01678   1.3307     17.55255   6974.87013    -2.82107  0.40339  10587.04629   0.0002  58701.45893  52.39958  0.19084  17.14353     58732.14 
    13.96421  1.72844  2.91307       0.91102         3178.56781  0.00664  0.18706     0.01115  1.38779     17.49229   9478.69063    -2.75737  0.27408   10061.5146  0.00017  58701.52263  52.36233  0.25333  17.16809     58731.88 
    13.36627  1.39277  2.71761       0.78333         3005.36206  0.00163  0.29222     0.02774  0.87814     16.05277   6155.42052    -2.90428  1.07465  11350.15789    1e-05  58701.37572  52.38423  0.05153  17.14174  58732.05612 
    13.70297  1.68829  3.18656       0.44688         3313.77363  0.17031  0.20971     0.02072  1.18561     16.84044   5893.30767    -2.61446  0.60642   11481.0291    4e-05  58701.66554  52.45023  6.10753  17.16173     58731.88 
    14.12272  1.62402  2.97147       1.12556         3075.55402   0.0046  0.20867     0.01668  1.17967     17.69157   5983.04085    -2.70899  0.18511   10518.7629  0.00027  58701.57101  52.37331  0.16463  17.14205  58732.05612 
    13.80487  1.45488  2.79658       0.67151         3256.80977  0.00654  0.15768     0.01502  1.54503     17.64183   8062.77723    -2.61718   0.3467  11119.69663  0.00024  58701.66282  52.46651  0.25964  17.16797     58731.88 
    13.75634  1.44843  2.56809       0.74704         2877.37644  0.03884  0.19523     0.01561  1.30063     18.17414   3597.88242    -2.69777  0.33314   11154.5851  0.00083  58701.58223  52.44109  1.44491  17.15242     58732.15 
    14.11787  1.57168  2.86547       0.91352         2879.33029  0.00268  0.13235     0.01081  1.78202     16.74734   9495.58727    -2.75618  0.18149  10680.85323    3e-05  58701.52382  52.45355   0.1117    17.165  58732.05612 
     14.0175  1.86836  3.16859       0.75138          3061.2503  0.02008  0.13739     0.01166  1.83265     16.20024     6877.802    -2.52137  0.27672   11383.2407    1e-05  58701.75863  52.51307  0.84646  17.16884  58732.23828 
    14.22133  1.80349  3.02134       1.10819          2939.7141  0.00156  0.20985     0.01325  1.27238     16.88239   8439.10676    -2.93239  0.16054  10219.24906    4e-05  58701.34761   52.3613  0.05757  17.16049     58732.18 
    13.74565  1.75099  3.42852       1.07635         2958.28355  0.05272   0.1593     0.01491  1.57884     17.97479   3243.15461    -2.72657  0.63596  10735.01694  0.00052  58701.55343  52.43934  2.10899    17.172     58731.87 
    14.14254  2.00325  3.49338       0.95585         3031.69014  0.00284  0.23944     0.01858  1.05846     18.36113   6588.67111    -2.81722  0.25357   10515.0179  0.00128  58701.46278  52.35355  0.09724  17.15753  58732.05612 
    13.63654  1.67178  2.99583       0.96016         2876.04707  0.00988  0.28945     0.02284  0.92642     16.83443   7600.87362    -2.66641  0.63542  11158.73097    4e-05  58701.61359  52.37999  0.31907  17.14318     58731.88 
    13.86532  1.60225  2.97469       1.11093         2910.58839  0.00639  0.16866      0.0122  1.53008     17.93731   3159.12745    -2.80845  0.36078  10276.73176  0.00048  58701.47155  52.39649  0.25275  17.16363  58732.05612 
    14.12277   1.5651  2.72888       0.96308         3082.85012  0.22984  0.28079     0.01761  0.99302     18.36093   6491.62813    -2.80214  0.16216  10418.63209  0.00128  58701.47786  52.33368  7.65327  17.15183     58731.88 
    14.02303  1.81329  3.25664       0.65533         2929.45052  0.01488  0.21157     0.01864  1.22366     18.52255   5589.67153     -2.5962    0.298  11493.06946  0.00185   58701.6838  52.45663  0.54058  17.15341     58732.23 
    13.77669  1.78808  3.08299       0.72583         3268.20229  0.03669   0.2013     0.01444  1.29861      16.7565   4136.26348    -2.86682  0.47541  10585.24557    3e-05  58701.41318  52.39532  1.36422  17.15922     58731.87 
    13.58344  1.62318  2.99311       1.02377         3087.20827  0.03303   0.2205     0.01576  1.16003     17.50033   9918.94528    -2.87494  0.73236  10135.62475  0.00018  58701.40506  52.33813  1.17419   17.1519     58731.87 
    13.73654  1.96765  3.37606       1.23787         3000.98565  0.00419  0.15269     0.01003  1.66025     19.47658   6723.89205     -2.7187  0.66145   9943.69391  0.01665   58701.5613  52.38066  0.17085  17.15179      58732.2 
    13.47274  1.60096  2.83093       0.82241         3174.21769  0.08815  0.14537     0.01115  1.87555     16.98601   6211.63795    -2.82043  0.86361   11070.8258    5e-05  58701.45957  52.49233  3.74612  17.14822     58732.14 
    13.86892  1.83474  3.14592       0.70626         3186.93774  0.21117  0.29405     0.02268  0.91185     19.25205   8787.61803    -2.68512  0.39295  11174.57798  0.00993  58701.59488  52.37813  6.77134  17.16118  58732.05612 
    13.99163  1.58987  2.99381       1.14334         3101.36873  0.00215  0.17384     0.01255  1.41479     17.79542    7487.7557    -2.76204  0.26517   9968.35962  0.00035  58701.51796  52.35741  0.08247  17.14817     58732.25 
     13.7885  1.86284  3.07057       1.00075         2977.05741  0.00924  0.19367     0.01339  1.34998     18.02808   3540.49921    -2.65525   0.4613  10765.49648  0.00059  58701.62475   52.4165  0.34888  17.14724     58731.87 
    13.79892  1.87156  3.36568       0.68427         2892.39005  0.00386  0.11221     0.01067  2.37004     18.42671   5895.24465    -2.71586  0.53226  11709.70361  0.00148  58701.56414  52.57434  0.17724  17.16369     58731.87 
    14.02179   1.8211  3.36605       1.21664         2882.42897  0.00223  0.25118     0.02082  1.05502      16.8804   3557.68292    -2.77994  0.31079  10775.75879    4e-05  58701.50006  52.37423  0.07622  17.14299     58731.88 
    14.22332  1.89281  3.26568       1.43645         2578.37765  0.01322  0.20108     0.01602  1.27382      16.9615   7924.24223    -2.66221  0.18217  10867.23396    5e-05  58701.61779  52.41489  0.48799  17.14392     58732.14 
    13.91085  2.19857  3.58928       0.50011         3372.11153  0.02101  0.20137     0.01902  1.24437     16.69803   3972.45015    -2.65456  0.45265  11660.78347    3e-05  58701.62544  52.47211  0.76816  17.14859     58732.14 
    14.34661  1.80007  3.33692       0.71045         3058.65901  0.00617  0.25973     0.02563  0.99029     18.33312   8679.04821     -2.7101  0.14038  11400.57053   0.0012   58701.5699  52.41139  0.20508  17.14774     58731.87 
    13.94762  1.76923  3.18104       0.87414         2991.73287  0.00329  0.24509      0.0205  1.07183      16.9085   9868.09759    -2.64044  0.33432  11106.84409    5e-05  58701.63956  52.40341  0.11302  17.16731     58731.87 
    14.04268  1.85598  3.44718       0.90422          3010.9249  0.07385  0.15428     0.01272  1.65225     17.09343   7387.76131    -2.78945  0.31354   10634.1474    7e-05  58701.49055  52.43822  3.00274  17.16657      58732.2 
    13.83183  1.68481  3.17478       0.98518         3050.15515  0.01538  0.26072      0.0219  0.94731     19.08338   7842.07452    -2.65868  0.43888  10543.90243  0.00673  58701.62132  52.33508  0.50165   17.1478     58732.23 
    13.35956   1.5973  2.73733       0.91897         2990.16861  0.00127  0.30864     0.02216   0.8531     16.50351   8253.35636    -2.70174  1.21908  10873.46606    2e-05  58701.57826  52.34115  0.03946  17.16295     58731.87 
     13.8174  1.76081  2.98736       1.59199         2690.84139  0.02872  0.19623      0.0124  1.46047     17.49294   9041.24185    -2.79841  0.40351  10454.27279  0.00017  58701.48159  52.40391  1.11654  17.14706     58731.88 
     13.7613  1.60906  2.87956       0.50516         3256.82586  0.00164  0.22213     0.01781  1.16191     18.93043   4601.47509    -2.72909  0.43404  11141.12415  0.00473  58701.55091  52.42057  0.05842   17.1727     58731.88 
    13.90347  1.85101  2.97864        1.4174         2631.81263  0.00291  0.25865     0.01645  1.06564     16.62356   9278.15248    -2.71314  0.32935  10779.96236    2e-05  58701.56686   52.3764  0.09995  17.14591     58731.87 
    13.71988  1.54274  2.89642       0.76336         3107.60109  0.01739  0.21461     0.01922  1.17129     17.76703   3979.11581    -2.64399  0.46962  11209.44701  0.00032  58701.63601   52.4273  0.62051  17.15672     58732.14 
    13.92849  1.60319   2.7727       0.98657         2915.59349  0.03163  0.25295     0.01892  1.03094     18.32654   7490.07642    -2.61532  0.26131  10909.10094  0.00118  58701.66468  52.38064  1.07037  17.16199  58732.05612 
     13.9741  1.69016  3.05245       1.27941         2754.56887  0.00306  0.24856      0.0203  0.98429     16.18072   6673.38731    -2.66673  0.28623  10735.36872    1e-05  58701.61327  52.35802  0.10162  17.14177  58732.23828 
    14.19665  1.87668   3.1673       0.20571         2956.32264  0.11023  0.11505     0.01071  2.27154     18.02345   7125.24264    -2.59596  0.18592  12307.99441  0.00059  58701.68404  52.61177  4.98943    17.171     58731.87 
    13.62237  1.80383  3.27687       0.88177         2844.74976  0.00507  0.17246     0.01638  1.40622     17.13014   7890.94784    -2.79042  0.79675  11090.55592    7e-05  58701.48958  52.44907  0.19427  17.15564      58732.2 
    13.65549  1.51903  2.76201       1.05132         2998.60261  0.00996  0.15994     0.01152  1.56115      18.5746   7843.90589    -2.83904  0.49844   10187.3708  0.00209  58701.44096  52.39209  0.39677  17.15351     58731.88 
    13.60315  1.39482  2.58401       1.03998         2906.20418  0.00963  0.18268     0.01356  1.38528     16.74251   8183.56763    -2.72572  0.50007  10541.89377    3e-05  58701.55428  52.40254   0.3671  17.14974  58732.05612 
    14.13611  2.05505  3.49706       1.23663         2757.37212  0.00804  0.21738      0.0164  1.19309     16.00426   3610.20748     -2.8153  0.25724  10563.62453    1e-05   58701.4647  52.37899  0.28904  17.15157     58731.87 
    13.84604    1.612   2.7605        0.6333          3093.9832  0.01732   0.2122     0.01662  1.19701     18.99157   4039.73421      -2.475  0.32028  11277.30282  0.00545    58701.805  52.43635  0.62357  17.15595  58732.05612 
    14.17124  1.74543  3.01641        1.0336         3013.21409  0.00963  0.14913      0.0101  1.65668     16.00704   4531.78243     -2.7882  0.17893  10105.66737    1e-05   58701.4918  52.39436  0.39193  17.17789     58731.88 
    13.88545  1.76808   3.3007       0.72414          2897.4314   0.0434  0.30659     0.03121  0.78648     17.13823   4477.34934    -2.56206  0.41475  11373.85942    8e-05  58701.71794   52.3635  1.29894  17.15549     58731.87 
    13.43207   1.5328  2.70112        0.8516         2707.42304  0.00341  0.25971      0.0228  0.99442     16.66772   3762.18258    -2.56855   0.8613  11712.10167    3e-05  58701.71145  52.43559  0.11368  17.15605     58731.88 
    13.81204  1.84578  3.26656       0.54379          3328.4098   0.0053    0.163     0.01499  1.56082     18.11781   4745.28711    -2.70546  0.47833  11452.83251  0.00073  58701.57454  52.49376  0.21117  17.14687  58732.05612 
    13.90023  1.61655  3.05245       1.20268         2973.97858  0.06619  0.23002     0.01706  1.15682     16.77359   4953.35758    -2.83429  0.34118  10370.70235    3e-05  58701.44571  52.35755   2.3503  17.14663     58731.87 
    13.73001  1.86786  3.34565       0.75035         2968.03661  0.05315  0.22549     0.01977  1.11456     18.97221   7740.76036    -2.70118  0.64065  11133.91705  0.00521  58701.57882   52.4126  1.85841  17.16345     58731.18 
    14.07701  1.78649  3.15079       0.73265         3027.87413  0.04627  0.14216     0.01175  1.77537     18.72666   6259.63533    -2.58105  0.24332  11089.16116  0.00296  58701.69895  52.48557  1.92971  17.16339     58732.15 
    13.91309  1.54742  2.83676       0.80342         3442.53375  0.00449  0.16137     0.01085  1.59014      19.4911   5944.93408    -2.71597  0.29407  10056.11716  0.01721  58701.56403  52.38372   0.1799  17.15842     58731.87 
    13.70673  1.70715  3.27662       1.21364         2748.79034  0.00188  0.21362     0.02015  1.17235     16.80831   8972.28586    -2.66885  0.63999  11067.01559    4e-05  58701.61115  52.41635    0.067  17.16475     58731.87 
    13.84286  1.63026  2.97366       0.95474         3060.53801  0.01853  0.15553     0.01171  1.66514     17.17723   7618.41676    -2.82029  0.37119  10454.85658    8e-05  58701.45971  52.42465  0.75535  17.16187     58731.87 
    13.99574  1.60013  2.89219        0.8312          3090.7657  0.03879  0.15049     0.01158   1.7367     17.01297   6451.60756    -2.73135  0.24503  10841.14643    6e-05  58701.54865   52.4626   1.6053  17.14869     58731.88 
    14.01002  1.85198  3.22379       0.69684         3020.61478  0.00167  0.13635     0.01145  1.96681     17.70845   5045.73009    -2.71026  0.29329  11409.61599  0.00028  58701.56974  52.52548  0.07193  17.15988     58731.87 
    13.87099  1.82822  3.23116       1.00277         2764.51564  0.00298   0.2923      0.0263  0.83525     18.30889   3012.46295    -2.68512  0.40423  11097.16194  0.00113  58701.59488  52.35455  0.09177  17.15981     58731.87 
    13.90616  1.86122  3.42871       0.44193         3426.65905   0.0029  0.17909     0.01823  1.35563      16.8687   6397.52012    -2.73669  0.42118  11448.06821    4e-05  58701.54331  52.47059  0.10961  17.17179     58731.87 
    14.00381  1.90766  3.37262       1.01861         2823.88415  0.02826  0.16705     0.01445   1.4676     16.94941   8121.64609     -2.7207  0.32493  10836.99036    5e-05   58701.5593  52.43593   1.1006  17.15259     58731.87 
    14.08941  1.84917   3.2377       0.98543         3048.61253  0.03844  0.26827     0.02031  0.95962     18.27963   8224.36243    -2.78274  0.24389  10501.67409  0.00106  58701.49726  52.33407   1.2611  17.13886  58732.05612 
    14.17112  1.69822  2.98537       0.87101         3131.03152  0.00211  0.27927     0.01864  0.96972     18.09154   6784.94144    -2.99547  0.17464  10325.56277  0.00069  58701.28453  52.32138  0.06939  17.14951     58731.88 
    13.77932  1.36204  2.60303       0.56331         3095.30931  0.11969  0.22751     0.01904  1.14453     16.21022   5206.76904    -2.88652   0.3307  11057.74693    1e-05  58701.39348  52.41138  4.23127  17.16541     58731.88 
     13.7931  1.41948  2.63921       0.98516         2902.33573  0.01361  0.24565     0.01816  1.02567     17.71817   9744.92818     -2.7751  0.33152   10421.0808  0.00029   58701.5049  52.33994  0.45961  17.17662     58731.88 
     14.0783   1.7064  3.25571       1.00162         2892.01621   0.0067  0.27959     0.02517   0.9175     17.09475   5537.67954    -2.85322    0.254   10855.9676    7e-05  58701.42678  52.35421  0.21557  17.17303     58731.18 
    13.75343  1.89918  3.27616       0.75601           3214.129  0.02676  0.23899     0.01822   1.0489      19.4301   6761.55214    -2.69231  0.58187  10604.66001  0.01496  58701.58769  52.35925  0.91238  17.14414     58731.87 
    13.61972  1.53648  2.87135       0.85271          2858.7176  0.00775  0.21042     0.01654  1.26495     18.04897    9295.8868    -2.99873  0.60793   10794.9514  0.00062  58701.28127  52.40791  0.28528  17.16406     58731.87 
    13.87131  1.45679  2.72598       0.86138         2992.29969  0.05124  0.18454      0.0143  1.43884     17.72782   7433.36012    -2.78111   0.2891  10820.15853   0.0003  58701.49889  52.43138   1.9811   17.1493     58732.14 
    13.54291  1.84475   3.0496       1.07485         3158.64453   0.0014  0.17576      0.0107  1.53209     17.84801   9037.48328    -2.93639   0.8583  10098.76123  0.00039  58701.34361  52.38153  0.05521  17.16441     58731.88 
    13.66894   1.8902  3.21501       0.42346         3901.94575  0.01136  0.23034     0.01804   1.0409     19.26024   5553.44485    -2.66826  0.70896  10751.25496  0.01012  58701.61174  52.36977  0.38601  17.14822     58731.88 
    13.73158  2.05728  3.62357       0.72415         3007.25346  0.02605  0.30071     0.02922  0.85578     16.39611   6247.40435    -2.70472  0.74859   11674.4573    1e-05  58701.57528  52.40353  0.81148  17.15781     58731.88 
    14.14703  1.92316  3.60354       1.05376          2996.9464  0.00594  0.13816     0.01136  1.81629     16.69907   9641.18506     -2.7469  0.26854    10357.815    3e-05   58701.5331  52.42973   0.2497  17.15843  58732.05612 
    13.46096  1.48326  2.73596       0.92193         3094.15883  0.26364  0.20687     0.01464  1.29618     17.97677   7925.97195    -2.78498  0.82886  10553.51899  0.00053  58701.49502   52.3924  9.79454  17.14202  58732.05612 
    14.14731  1.62414  2.89966       0.48407          2918.2071  0.00598  0.12818     0.01183  1.95268     18.08951   9820.01968    -2.59149  0.17423  11646.13969  0.00068  58701.68851  52.54225  0.25777  17.15888  58732.05612 
     14.0345  1.66972  2.70184       0.79364         3125.15705  0.03213  0.26271     0.01705  1.02042     16.89743   8464.82109    -2.80621  0.19599  10778.92376    4e-05  58701.47379  52.36831  1.08255  17.16963  58732.05612 
     13.7422  1.60604  2.90295       0.85556         2986.98741  0.00462  0.20286     0.01709  1.21707     17.89561    7752.6982    -2.64238   0.4508   11020.9077  0.00044  58701.63762  52.41926  0.16743  17.16495     58731.87 
    13.83021  1.81352  3.29798       0.62226         3294.27439  0.01324  0.28769      0.0261  0.88608     17.10956    4327.3387    -2.75073  0.46938  11178.56153    7e-05  58701.52927  52.37278  0.41891  17.13438     58731.88 
     14.1834  1.82604  3.27391       0.86134         3058.63715  0.00136  0.12574     0.01039  2.05249     17.72793   4969.05317    -2.66418  0.20184  10887.95815   0.0003  58701.61582  52.49098  0.05978  17.14629     58731.88 
    14.12646   1.6885  3.14042       1.05239         3129.79366  0.00159  0.15493      0.0122  1.72534     18.35838   8684.62227    -2.85004  0.20927  10589.38871  0.00127  58701.42996  52.44119  0.06552  17.16014     58732.18 
    13.73444  1.96064  3.39184       0.88684         3022.79972  0.00323  0.15326     0.01178  1.62514     16.51858   6735.82533    -2.75571  0.66102  10487.55081    2e-05  58701.52429   52.4236  0.13056  17.15902     58731.88 
    13.63793     1.85  3.33598       1.06847         2804.28307  0.02397  0.14494     0.01282  1.70568     18.50001   8956.23281    -2.65504  0.80732   10913.3658  0.00176  58701.62496  52.46562   0.9857  17.16409     58731.87 
    14.18188  2.01518  3.50426       1.19874         2847.20637    0.042  0.17617     0.01325  1.44017     19.37313   6869.27657    -2.78013  0.23555  10348.41196  0.01312  58701.49987  52.39281  1.62449  17.15889  58732.05612 
    13.99968  1.70873  2.85806       1.02326          3019.6647  0.07914  0.15397     0.01033  1.68896     16.24223   7750.50201    -2.73384  0.23375  10482.61767    1e-05  58701.54616  52.42914  3.24299  17.16559     58731.88 
    13.53023  1.49375  2.79206       1.12587         2820.02722  0.29376  0.28776     0.02111  0.92799     17.13545   6765.43417    -2.63711   0.7241  10719.93276    8e-05  58701.64289  52.34547  9.49414  17.15598     58731.87 
    13.47483  1.67693  2.90739       0.77488         3057.13821  0.00171  0.27492     0.02202  0.90941     17.58923   5402.83992    -2.69477  0.93155  10911.20832  0.00022  58701.58523  52.35688  0.05489  17.14954     58731.18 
    13.45617  1.36791  2.50618       0.62417         3159.15732  0.00106  0.17056     0.01365  1.43958     18.30605   4782.98372    -2.62864  0.68873  11023.05114  0.00112  58701.65136   52.4476  0.04111  17.16504     58732.23 
    14.07478  1.57878  2.77818       0.65642         2792.06525  0.05319  0.27024     0.02127  1.00951     16.89673   9721.17525    -2.81464  0.18917  11320.32697    4e-05  58701.46536  52.40887   1.7839  17.16441     58731.87 
    13.52517  1.37809  2.52846       0.79573         3028.35139  0.00407  0.30574     0.02437  0.86382     17.84573   3856.66791    -2.75018  0.57338  11198.70781  0.00039  58701.52982  52.36927  0.12736   17.1623     58731.88 
    14.21818  1.89026  3.33814       0.65181         3279.68961  0.00122  0.24638     0.02022  1.04237      18.4234   8655.49421    -2.70943  0.19517   10930.3339  0.00147  58701.57057  52.38437  0.04133  17.15841  58732.05612 
    13.44879  1.40466  2.62787       0.89909         3037.20828   0.0036  0.25944     0.01977  0.98521     17.63796   8326.81181    -2.91284  0.77641  10551.63415  0.00024  58701.36716   52.3432  0.11932  17.16398     58732.14 
    13.57744  1.80812  3.02535       1.10583         2992.89134  0.00283  0.23885     0.01454  1.13288      16.3359   8030.81338    -2.80253  0.78543  10193.98906    1e-05  58701.47747  52.33891  0.09962  17.16896     58731.87 
    14.42736  1.99631  3.48681       0.53314         3180.46288  0.00254  0.25847     0.02347  1.05067     17.14082   8556.70132    -2.71847  0.13022   11730.1893    8e-05  58701.56153  52.44718  0.08665  17.14818  58732.33579 
    13.67066  1.84034  3.11903       0.59363         3099.78375  0.01017  0.18822     0.01538   1.3909      17.7837   3778.33258    -2.71646  0.64298  11361.36147  0.00034  58701.56354  52.46823  0.38838  17.16206     58731.88 
    13.98202  1.82851  3.15106       0.89414         2674.81211  0.00243   0.1216     0.01052  2.06292     19.15258   4952.45653     -2.6511  0.30316  11271.80204  0.00789   58701.6289   52.5218  0.10665  17.15384     58731.88 
    14.27564  1.77169  2.90789       0.96331         3074.24402  0.13412  0.17487     0.01178  1.47992     18.48699   7101.61502    -2.79721  0.12594  10540.89429   0.0017  58701.48279  52.41321  5.24006  17.16713     58731.87 
    14.09228  1.79167  3.40765       0.80469         3147.36183  0.00918  0.11448     0.01044  2.09198     16.14658    3811.1289    -2.72558  0.26866  10601.42395    1e-05  58701.55442  52.47054  0.40439  17.15736  58732.05612 
    14.02549  2.01129  3.57668       1.03033         2944.30251  0.00156  0.12354     0.01012  2.18328     17.40993   6010.92255    -2.88426  0.35017  10866.58361  0.00014  58701.39574  52.49805  0.06987  17.17512     58731.87 
    14.03439  1.92473  3.17428       1.02626         2857.01748  0.00164  0.27325     0.01938  1.02109     16.44407   4572.98658    -2.70205  0.27299  11011.96434    2e-05  58701.57795  52.38701  0.05532  17.15181     58732.32 
    13.98112   1.5962  2.90631       1.09869         2707.26385  0.00567  0.24797     0.02117   1.0162     16.62321   9034.59447    -2.65745   0.2529  11112.70423    2e-05  58701.62255  52.39402  0.19063  17.15994     58731.87 
