# Wavelength Flux
# STATUS = PUBLIC
# OBJECT = 2019neq
# TELESCOPE = 
# INSTRUMENT = LRS2
# DATE-OBS = 
# MJD =
# EXPTIME =
# SLIT =
# DISPERSER =
# SOURCE = 2020ApJ...900...73K
# FILTER =
# FLUX_STANDARD =
# EXTINCTION_CORRECTED = 
# PHOTOMETRY_CALIBRATED =
# FLUX_UNITS = 1E-15 erg/s/cm^2^/A
# QUALITY =
# MIN_WAVE =
# MAX_WAVE =
# COMMENT =
3640.     0.744
3640.901  0.725
3641.803  0.742
3642.704  0.727
3643.606  0.719
3644.507  0.713
3645.409  0.747
3646.310  0.744
3647.212  0.720
3648.113  0.738
3649.015  0.729
3649.916  0.740
3650.818  0.705
3651.719  0.689
3652.621  0.682
3653.522  0.659
3654.424  0.683
3655.325  0.668
3656.227  0.664
3657.128  0.682
3658.030  0.687
3658.931  0.681
3659.833  0.688
3660.734  0.688
3661.636  0.671
3662.537  0.676
3663.439  0.666
3664.340  0.643
3665.242  0.645
3666.143  0.636
3667.045  0.624
3667.946  0.638
3668.848  0.655
3669.749  0.649
3670.651  0.630
3671.552  0.658
3672.454  0.665
3673.355  0.629
3674.257  0.638
3675.158  0.655
3676.060  0.651
3676.961  0.661
3677.863  0.662
3678.764  0.661
3679.665  0.653
3680.567  0.677
3681.468  0.665
3682.370  0.666
3683.271  0.665
3684.173  0.653
3685.074  0.662
3685.976  0.669
3686.877  0.675
3687.779  0.673
3688.680  0.658
3689.582  0.670
3690.483  0.674
3691.385  0.651
3692.286  0.649
3693.188  0.657
3694.089  0.660
3694.991  0.661
3695.892  0.678
3696.794  0.681
3697.695  0.673
3698.597  0.668
3699.498  0.656
3700.400  0.657
3701.301  0.674
3702.203  0.669
3703.104  0.688
3704.006  0.690
3704.907  0.686
3705.809  0.702
3706.710  0.684
3707.612  0.698
3708.513  0.713
3709.415  0.698
3710.316  0.666
3711.218  0.675
3712.119  0.687
3713.021  0.684
3713.922  0.685
3714.824  0.682
3715.725  0.654
3716.627  0.662
3717.528  0.677
3718.429  0.675
3719.331  0.690
3720.232  0.700
3721.134  0.696
3722.035  0.676
3722.937  0.677
3723.838  0.680
3724.740  0.670
3725.641  0.673
3726.543  0.684
3727.444  0.701
3728.346  0.673
3729.247  0.667
3730.149  0.656
3731.050  0.676
3731.952  0.666
3732.853  0.656
3733.755  0.682
3734.656  0.702
3735.558  0.703
3736.459  0.703
3737.361  0.700
3738.262  0.680
3739.164  0.677
3740.065  0.666
3740.967  0.657
3741.868  0.617
3742.770  0.619
3743.671  0.651
3744.573  0.657
3745.474  0.675
3746.376  0.667
3747.277  0.660
3748.179  0.666
3749.080  0.667
3749.982  0.675
3750.883  0.680
3751.785  0.677
3752.686  0.683
3753.588  0.676
3754.489  0.668
3755.391  0.656
3756.292  0.655
3757.193  0.675
3758.095  0.677
3758.996  0.657
3759.898  0.653
3760.799  0.660
3761.701  0.669
3762.602  0.652
3763.504  0.674
3764.405  0.660
3765.307  0.645
3766.208  0.652
3767.110  0.667
3768.011  0.655
3768.913  0.654
3769.814  0.656
3770.716  0.668
3771.617  0.667
3772.519  0.672
3773.420  0.668
3774.322  0.664
3775.223  0.668
3776.125  0.660
3777.026  0.655
3777.928  0.646
3778.829  0.648
3779.731  0.650
3780.632  0.678
3781.534  0.673
3782.435  0.660
3783.337  0.645
3784.238  0.634
3785.140  0.633
3786.041  0.640
3786.943  0.646
3787.844  0.634
3788.746  0.642
3789.647  0.659
3790.549  0.660
3791.450  0.650
3792.352  0.658
3793.253  0.669
3794.155  0.666
3795.056  0.652
3795.957  0.655
3796.859  0.666
3797.760  0.670
3798.662  0.664
3799.563  0.667
3800.465  0.655
3801.366  0.640
3802.268  0.654
3803.169  0.649
3804.071  0.653
3804.972  0.656
3805.874  0.649
3806.775  0.667
3807.677  0.682
3808.578  0.663
3809.480  0.657
3810.381  0.652
3811.283  0.651
3812.184  0.649
3813.086  0.661
3813.987  0.665
3814.889  0.657
3815.790  0.667
3816.692  0.655
3817.593  0.640
3818.495  0.640
3819.396  0.657
3820.298  0.686
3821.199  0.675
3822.101  0.646
3823.002  0.627
3823.904  0.650
3824.805  0.661
3825.707  0.656
3826.608  0.635
3827.510  0.628
3828.411  0.629
3829.313  0.624
3830.214  0.635
3831.116  0.628
3832.017  0.638
3832.918  0.636
3833.820  0.627
3834.721  0.620
3835.623  0.623
3836.524  0.630
3837.426  0.626
3838.327  0.617
3839.229  0.615
3840.130  0.606
3841.032  0.617
3841.933  0.615
3842.835  0.604
3843.736  0.608
3844.638  0.607
3845.539  0.597
3846.441  0.598
3847.342  0.603
3848.244  0.577
3849.145  0.580
3850.047  0.569
3850.948  0.571
3851.850  0.580
3852.751  0.590
3853.653  0.575
3854.554  0.569
3855.456  0.571
3856.357  0.578
3857.259  0.569
3858.160  0.565
3859.062  0.566
3859.963  0.572
3860.865  0.574
3861.766  0.563
3862.668  0.565
3863.569  0.581
3864.471  0.573
3865.372  0.575
3866.274  0.572
3867.175  0.554
3868.077  0.564
3868.978  0.560
3869.880  0.568
3870.781  0.584
3871.682  0.585
3872.584  0.582
3873.485  0.581
3874.387  0.576
3875.288  0.573
3876.190  0.574
3877.091  0.583
3877.993  0.575
3878.894  0.583
3879.796  0.578
3880.697  0.578
3881.599  0.565
3882.500  0.578
3883.402  0.577
3884.303  0.582
3885.205  0.581
3886.106  0.569
3887.008  0.553
3887.909  0.559
3888.811  0.573
3889.712  0.591
3890.614  0.573
3891.515  0.577
3892.417  0.571
3893.318  0.568
3894.220  0.563
3895.121  0.564
3896.023  0.575
3896.924  0.581
3897.826  0.579
3898.727  0.578
3899.629  0.563
3900.530  0.573
3901.432  0.578
3902.333  0.571
3903.235  0.580
3904.136  0.579
3905.038  0.572
3905.939  0.557
3906.841  0.571
3907.742  0.571
3908.644  0.565
3909.545  0.568
3910.446  0.562
3911.348  0.571
3912.249  0.564
3913.151  0.556
3914.052  0.557
3914.954  0.565
3915.855  0.571
3916.757  0.560
3917.658  0.544
3918.560  0.554
3919.461  0.568
3920.363  0.556
3921.264  0.565
3922.166  0.564
3923.067  0.559
3923.969  0.554
3924.870  0.552
3925.772  0.549
3926.673  0.557
3927.575  0.550
3928.476  0.559
3929.378  0.560
3930.279  0.548
3931.181  0.550
3932.082  0.518
3932.984  0.477
3933.885  0.480
3934.787  0.540
3935.688  0.558
3936.590  0.549
3937.491  0.540
3938.393  0.541
3939.294  0.546
3940.196  0.558
3941.097  0.545
3941.999  0.538
3942.900  0.547
3943.802  0.553
3944.703  0.561
3945.605  0.562
3946.506  0.557
3947.408  0.552
3948.309  0.558
3949.210  0.551
3950.112  0.558
3951.013  0.568
3951.915  0.560
3952.816  0.565
3953.718  0.561
3954.619  0.556
3955.521  0.576
3956.422  0.563
3957.324  0.563
3958.225  0.559
3959.127  0.549
3960.028  0.559
3960.930  0.583
3961.831  0.582
3962.733  0.566
3963.634  0.571
3964.536  0.573
3965.437  0.571
3966.339  0.565
3967.240  0.554
3968.142  0.533
3969.043  0.562
3969.945  0.573
3970.846  0.588
3971.748  0.578
3972.649  0.572
3973.551  0.574
3974.452  0.584
3975.354  0.575
3976.255  0.565
3977.157  0.565
3978.058  0.579
3978.960  0.572
3979.861  0.565
3980.763  0.565
3981.664  0.565
3982.566  0.574
3983.467  0.567
3984.369  0.558
3985.270  0.570
3986.172  0.572
3987.073  0.572
3987.974  0.567
3988.876  0.556
3989.777  0.572
3990.679  0.566
3991.580  0.576
3992.482  0.581
3993.383  0.568
3994.285  0.568
3995.186  0.562
3996.088  0.565
3996.989  0.570
3997.891  0.572
3998.792  0.565
3999.694  0.561
4000.595  0.568
4001.497  0.576
4002.398  0.584
4003.300  0.568
4004.201  0.573
4005.103  0.593
4006.004  0.581
4006.906  0.576
4007.807  0.579
4008.709  0.571
4009.610  0.563
4010.512  0.577
4011.413  0.576
4012.315  0.570
4013.216  0.563
4014.118  0.574
4015.019  0.566
4015.921  0.558
4016.822  0.558
4017.724  0.553
4018.625  0.552
4019.527  0.557
4020.428  0.565
4021.330  0.564
4022.231  0.560
4023.133  0.568
4024.034  0.562
4024.936  0.571
4025.837  0.554
4026.738  0.553
4027.640  0.559
4028.541  0.546
4029.443  0.560
4030.344  0.562
4031.246  0.555
4032.147  0.560
4033.049  0.561
4033.950  0.555
4034.852  0.552
4035.753  0.555
4036.655  0.547
4037.556  0.539
4038.458  0.544
4039.359  0.558
4040.261  0.555
4041.162  0.559
4042.064  0.561
4042.965  0.554
4043.867  0.554
4044.768  0.558
4045.670  0.555
4046.571  0.557
4047.473  0.543
4048.374  0.542
4049.276  0.548
4050.177  0.555
4051.079  0.545
4051.980  0.552
4052.882  0.550
4053.783  0.553
4054.685  0.548
4055.586  0.548
4056.488  0.554
4057.389  0.544
4058.291  0.551
4059.192  0.561
4060.094  0.552
4060.995  0.551
4061.897  0.543
4062.798  0.540
4063.700  0.541
4064.601  0.545
4065.502  0.544
4066.404  0.547
4067.305  0.541
4068.207  0.540
4069.108  0.554
4070.010  0.553
4070.911  0.564
4071.813  0.559
4072.714  0.551
4073.616  0.554
4074.517  0.563
4075.419  0.547
4076.320  0.554
4077.222  0.567
4078.123  0.563
4079.025  0.550
4079.926  0.559
4080.828  0.551
4081.729  0.565
4082.631  0.578
4083.532  0.567
4084.434  0.560
4085.335  0.551
4086.237  0.561
4087.138  0.551
4088.040  0.544
4088.941  0.549
4089.843  0.556
4090.744  0.564
4091.646  0.548
4092.547  0.577
4093.449  0.582
4094.350  0.569
4095.252  0.579
4096.153  0.586
4097.055  0.573
4097.956  0.573
4098.858  0.566
4099.759  0.568
4100.661  0.577
4101.562  0.595
4102.464  0.590
4103.365  0.572
4104.266  0.567
4105.168  0.577
4106.069  0.570
4106.971  0.566
4107.872  0.564
4108.774  0.575
4109.675  0.587
4110.577  0.575
4111.478  0.574
4112.380  0.588
4113.281  0.583
4114.183  0.575
4115.084  0.566
4115.986  0.564
4116.887  0.573
4117.789  0.578
4118.690  0.586
4119.592  0.615
4120.493  0.672
4121.395  0.665
4122.296  0.644
4123.198  0.699
4124.099  0.730
4125.001  0.647
4125.902  0.583
4126.804  0.574
4127.705  0.575
4128.607  0.573
4129.508  0.572
4130.410  0.566
4131.311  0.576
4132.213  0.572
4133.114  0.566
4134.016  0.560
4134.917  0.547
4135.819  0.547
4136.720  0.552
4137.622  0.545
4138.523  0.553
4139.425  0.559
4140.326  0.545
4141.227  0.540
4142.129  0.532
4143.030  0.531
4143.932  0.523
4144.833  0.512
4145.735  0.504
4146.636  0.510
4147.538  0.513
4148.439  0.506
4149.341  0.512
4150.242  0.513
4151.144  0.517
4152.045  0.524
4152.947  0.531
4153.848  0.550
4154.750  0.537
4155.651  0.540
4156.553  0.552
4157.454  0.546
4158.356  0.553
4159.257  0.541
4160.159  0.540
4161.060  0.555
4161.962  0.559
4162.863  0.551
4163.765  0.560
4164.666  0.566
4165.568  0.563
4166.469  0.550
4167.371  0.554
4168.272  0.569
4169.174  0.563
4170.075  0.566
4170.977  0.577
4171.878  0.573
4172.780  0.575
4173.681  0.568
4174.583  0.566
4175.484  0.567
4176.386  0.577
4177.287  0.576
4178.189  0.578
4179.090  0.577
4179.991  0.559
4180.893  0.561
4181.794  0.580
4182.696  0.582
4183.597  0.586
4184.499  0.574
4185.400  0.569
4186.302  0.579
4187.203  0.584
4188.105  0.589
4189.006  0.596
4189.908  0.583
4190.809  0.582
4191.711  0.579
4192.612  0.567
4193.514  0.573
4194.415  0.580
4195.317  0.581
4196.218  0.581
4197.120  0.574
4198.021  0.578
4198.923  0.576
4199.824  0.571
4200.726  0.583
4201.627  0.587
4202.529  0.576
4203.430  0.585
4204.332  0.579
4205.233  0.575
4206.135  0.575
4207.036  0.571
4207.938  0.567
4208.839  0.563
4209.741  0.570
4210.642  0.563
4211.544  0.569
4212.445  0.567
4213.347  0.565
4214.248  0.562
4215.150  0.577
4216.051  0.586
4216.953  0.569
4217.854  0.569
4218.755  0.570
4219.657  0.577
4220.558  0.573
4221.460  0.561
4222.361  0.552
4223.263  0.546
4224.164  0.560
4225.066  0.552
4225.967  0.561
4226.869  0.570
4227.770  0.580
4228.672  0.574
4229.573  0.567
4230.475  0.562
4231.376  0.562
4232.278  0.565
4233.179  0.561
4234.081  0.548
4234.982  0.560
4235.884  0.569
4236.785  0.568
4237.687  0.558
4238.588  0.564
4239.490  0.561
4240.391  0.555
4241.293  0.561
4242.194  0.560
4243.096  0.563
4243.997  0.553
4244.899  0.552
4245.800  0.551
4246.702  0.537
4247.603  0.549
4248.505  0.544
4249.406  0.541
4250.308  0.545
4251.209  0.535
4252.111  0.538
4253.012  0.536
4253.914  0.538
4254.815  0.532
4255.717  0.536
4256.618  0.521
4257.519  0.521
4258.421  0.531
4259.322  0.534
4260.224  0.531
4261.125  0.530
4262.027  0.519
4262.928  0.515
4263.830  0.516
4264.731  0.511
4265.633  0.516
4266.534  0.500
4267.436  0.494
4268.337  0.488
4269.239  0.497
4270.140  0.501
4271.042  0.498
4271.943  0.497
4272.845  0.487
4273.746  0.478
4274.648  0.492
4275.549  0.493
4276.451  0.485
4277.352  0.501
4278.254  0.516
4279.155  0.506
4280.057  0.493
4280.958  0.494
4281.860  0.499
4282.761  0.495
4283.663  0.487
4284.564  0.476
4285.466  0.467
4286.367  0.493
4287.269  0.491
4288.170  0.486
4289.072  0.496
4289.973  0.491
4290.875  0.480
4291.776  0.490
4292.678  0.501
4293.579  0.503
4294.481  0.498
4295.382  0.489
4296.283  0.487
4297.185  0.491
4298.086  0.492
4298.988  0.504
4299.889  0.504
4300.791  0.505
4301.692  0.503
4302.594  0.499
4303.495  0.491
4304.397  0.482
4305.298  0.482
4306.200  0.493
4307.101  0.486
4308.003  0.503
4308.904  0.490
4309.806  0.483
4310.707  0.496
4311.609  0.498
4312.510  0.489
4313.412  0.487
4314.313  0.490
4315.215  0.479
4316.116  0.483
4317.018  0.491
4317.919  0.488
4318.821  0.503
4319.722  0.510
4320.624  0.499
4321.525  0.497
4322.427  0.494
4323.328  0.493
4324.230  0.497
4325.131  0.509
4326.033  0.502
4326.934  0.496
4327.836  0.496
4328.737  0.493
4329.639  0.491
4330.540  0.492
4331.442  0.494
4332.343  0.495
4333.245  0.505
4334.146  0.507
4335.047  0.506
4335.949  0.519
4336.850  0.523
4337.752  0.517
4338.653  0.509
4339.555  0.517
4340.456  0.531
4341.358  0.532
4342.259  0.518
4343.161  0.527
4344.062  0.528
4344.964  0.523
4345.865  0.528
4346.767  0.519
4347.668  0.512
4348.570  0.501
4349.471  0.445
4350.373  0.434
4351.274  0.482
4352.176  0.525
4353.077  0.540
4353.979  0.530
4354.880  0.533
4355.782  0.528
4356.683  0.526
4357.585  0.524
4358.486  0.521
4359.388  0.525
4360.289  0.539
4361.191  0.535
4362.092  0.539
4362.994  0.534
4363.895  0.528
4364.797  0.526
4365.698  0.530
4366.600  0.531
4367.501  0.536
4368.403  0.525
4369.304  0.524
4370.206  0.520
4371.107  0.538
4372.009  0.527
4372.910  0.533
4373.811  0.531
4374.713  0.524
4375.614  0.528
4376.516  0.536
4377.417  0.536
4378.319  0.539
4379.220  0.540
4380.122  0.536
4381.023  0.519
4381.925  0.530
4382.826  0.545
4383.728  0.542
4384.629  0.531
4385.531  0.522
4386.432  0.522
4387.334  0.519
4388.235  0.491
4389.137  0.500
4390.038  0.534
4390.940  0.543
4391.841  0.528
4392.743  0.535
4393.644  0.524
4394.546  0.527
4395.447  0.524
4396.349  0.521
4397.250  0.527
4398.152  0.532
4399.053  0.533
4399.955  0.542
4400.856  0.537
4401.758  0.530
4402.659  0.520
4403.561  0.531
4404.462  0.526
4405.364  0.516
4406.265  0.519
4407.167  0.525
4408.068  0.525
4408.970  0.540
4409.871  0.526
4410.773  0.529
4411.674  0.542
4412.575  0.531
4413.477  0.532
4414.378  0.533
4415.280  0.540
4416.181  0.528
4417.083  0.524
4417.984  0.532
4418.886  0.529
4419.787  0.515
4420.689  0.512
4421.590  0.509
4422.492  0.517
4423.393  0.528
4424.295  0.552
4425.196  0.513
4426.098  0.513
4426.999  0.515
4427.901  0.511
4428.802  0.509
4429.704  0.507
4430.605  0.521
4431.507  0.520
4432.408  0.508
4433.310  0.517
4434.211  0.513
4435.113  0.514
4436.014  0.523
4436.916  0.530
4437.817  0.516
4438.719  0.512
4439.620  0.509
4440.522  0.506
4441.423  0.509
4442.325  0.513
4443.226  0.512
4444.128  0.506
4445.029  0.497
4445.931  0.505
4446.832  0.504
4447.734  0.502
4448.635  0.501
4449.536  0.499
4450.438  0.495
4451.339  0.494
4452.241  0.497
4453.142  0.511
4454.044  0.498
4454.945  0.485
4455.847  0.492
4456.748  0.495
4457.650  0.474
4458.551  0.414
4459.453  0.458
4460.354  0.495
4461.256  0.490
4462.157  0.480
4463.059  0.476
4463.960  0.480
4464.862  0.475
4465.763  0.477
4466.665  0.481
4467.566  0.480
4468.468  0.474
4469.369  0.473
4470.271  0.478
4471.172  0.465
4472.074  0.470
4472.975  0.462
4473.877  0.464
4474.778  0.459
4475.680  0.463
4476.581  0.463
4477.483  0.464
4478.384  0.468
4479.286  0.453
4480.187  0.464
4481.089  0.454
4481.990  0.459
4482.892  0.460
4483.793  0.451
4484.695  0.454
4485.596  0.456
4486.498  0.458
4487.399  0.453
4488.300  0.458
4489.202  0.466
4490.103  0.456
4491.005  0.448
4491.906  0.445
4492.808  0.454
4493.709  0.465
4494.611  0.454
4495.512  0.446
4496.414  0.445
4497.315  0.451
4498.217  0.448
4499.118  0.445
4500.020  0.441
4500.921  0.447
4501.823  0.460
4502.724  0.459
4503.626  0.442
4504.527  0.440
4505.429  0.444
4506.330  0.440
4507.232  0.445
4508.133  0.443
4509.035  0.438
4509.936  0.435
4510.838  0.433
4511.739  0.445
4512.641  0.449
4513.542  0.443
4514.444  0.437
4515.345  0.432
4516.247  0.434
4517.148  0.434
4518.050  0.440
4518.951  0.435
4519.853  0.439
4520.754  0.441
4521.656  0.430
4522.557  0.435
4523.459  0.429
4524.360  0.433
4525.262  0.437
4526.163  0.427
4527.064  0.431
4527.966  0.427
4528.867  0.415
4529.769  0.412
4530.670  0.421
4531.572  0.415
4532.473  0.426
4533.375  0.437
4534.276  0.436
4535.178  0.447
4536.079  0.454
4536.981  0.447
4537.882  0.433
4538.784  0.423
4539.685  0.425
4540.587  0.432
4541.488  0.420
4542.390  0.429
4543.291  0.432
4544.193  0.440
4545.094  0.433
4545.996  0.426
4546.897  0.438
4547.799  0.446
4548.700  0.446
4549.602  0.449
4550.503  0.440
4551.405  0.432
4552.306  0.435
4553.208  0.440
4554.109  0.443
4555.011  0.439
4555.912  0.437
4556.814  0.440
4557.715  0.434
4558.617  0.425
4559.518  0.421
4560.420  0.434
4561.321  0.424
4562.223  0.422
4563.124  0.432
4564.026  0.438
4564.927  0.437
4565.828  0.442
4566.730  0.433
4567.631  0.432
4568.533  0.441
4569.434  0.440
4570.336  0.438
4571.237  0.441
4572.139  0.437
4573.040  0.429
4573.942  0.436
4574.843  0.444
4575.745  0.436
4576.646  0.432
4577.548  0.449
4578.449  0.448
4579.351  0.436
4580.252  0.442
4581.154  0.446
4582.055  0.441
4582.957  0.450
4583.858  0.453
4584.760  0.451
4585.661  0.453
4586.563  0.448
4587.464  0.446
4588.366  0.439
4589.267  0.434
4590.169  0.449
4591.070  0.440
4591.972  0.439
4592.873  0.447
4593.775  0.437
4594.676  0.424
4595.578  0.419
4596.479  0.438
4597.381  0.444
4598.282  0.447
4599.184  0.449
4600.085  0.446
4600.987  0.438
4601.888  0.434
4602.790  0.434
4603.691  0.434
4604.592  0.433
4605.494  0.435
4606.395  0.440
4607.297  0.449
4608.198  0.448
4609.100  0.447
4610.001  0.447
4610.903  0.447
4611.804  0.447
4612.706  0.446
4613.607  0.446
4614.509  0.446
4615.410  0.445
4616.312  0.445
4617.213  0.445
4618.115  0.444
4619.016  0.444
4619.918  0.444
4620.819  0.444
4621.721  0.443
4622.622  0.443
4623.524  0.443
4624.425  0.442
4625.327  0.442
4626.228  0.442
4627.130  0.442
4628.031  0.441
4628.933  0.441
4629.834  0.441
4630.736  0.440
4631.637  0.440
4632.539  0.440
4633.440  0.439
4634.342  0.439
4635.243  0.439
4636.145  0.439
4637.046  0.438
4637.948  0.438
4638.849  0.438
4639.751  0.437
4640.652  0.437
4641.554  0.437
4642.455  0.437
4643.356  0.436
4644.258  0.436
4645.159  0.436
4646.061  0.435
4646.962  0.435
4647.864  0.435
4648.765  0.434
4649.667  0.434
4650.568  0.434
4651.470  0.434
4652.371  0.433
4653.273  0.433
4654.174  0.433
4655.076  0.432
4655.977  0.432
4656.879  0.432
4657.780  0.432
4658.682  0.431
4659.583  0.431
4660.485  0.431
4661.386  0.430
4662.288  0.430
4663.189  0.430
4664.091  0.429
4664.992  0.429
4665.894  0.429
4666.795  0.429
4667.697  0.428
4668.598  0.428
4669.500  0.427
4670.401  0.421
4671.303  0.416
4672.204  0.410
4673.106  0.412
4674.007  0.419
4674.909  0.415
4675.810  0.408
4676.712  0.408
4677.613  0.410
4678.515  0.407
4679.416  0.408
4680.318  0.416
4681.219  0.421
4682.120  0.417
4683.022  0.412
4683.923  0.409
4684.825  0.406
4685.726  0.402
4686.628  0.398
4687.529  0.395
4688.431  0.398
4689.332  0.395
4690.234  0.391
4691.135  0.399
4692.037  0.398
4692.938  0.396
4693.840  0.395
4694.741  0.397
4695.643  0.401
4696.544  0.404
4697.446  0.405
4698.347  0.406
4699.249  0.407
4700.150  0.407
4701.052  0.408
4701.953  0.412
4702.855  0.409
4703.756  0.409
4704.658  0.416
4705.559  0.415
4706.461  0.416
4707.362  0.409
4708.264  0.402
4709.165  0.404
4710.067  0.400
4710.968  0.397
4711.870  0.396
4712.771  0.395
4713.673  0.398
4714.574  0.404
4715.476  0.403
4716.377  0.401
4717.279  0.404
4718.180  0.406
4719.082  0.401
4719.983  0.396
4720.884  0.398
4721.786  0.397
4722.687  0.391
4723.589  0.395
4724.490  0.399
4725.392  0.394
4726.293  0.390
4727.195  0.391
4728.096  0.391
4728.998  0.388
4729.899  0.390
4730.801  0.394
4731.702  0.393
4732.604  0.390
4733.505  0.391
4734.407  0.389
4735.308  0.384
4736.210  0.385
4737.111  0.394
4738.013  0.396
4738.914  0.396
4739.816  0.395
4740.717  0.391
4741.619  0.391
4742.520  0.394
4743.422  0.394
4744.323  0.393
4745.225  0.391
4746.126  0.387
4747.028  0.399
4747.929  0.409
4748.831  0.412
4749.732  0.410
4750.634  0.405
4751.535  0.410
4752.437  0.408
4753.338  0.403
4754.240  0.405
4755.141  0.403
4756.043  0.391
4756.944  0.388
4757.845  0.389
4758.747  0.386
4759.648  0.386
4760.550  0.387
4761.451  0.388
4762.353  0.388
4763.254  0.386
4764.156  0.383
4765.057  0.388
4765.959  0.391
4766.860  0.388
4767.762  0.383
4768.663  0.382
4769.565  0.384
4770.466  0.389
4771.368  0.392
4772.269  0.390
4773.171  0.386
4774.072  0.386
4774.974  0.387
4775.875  0.390
4776.777  0.390
4777.678  0.387
4778.580  0.387
4779.481  0.385
4780.383  0.388
4781.284  0.392
4782.186  0.390
4783.087  0.386
4783.989  0.384
4784.890  0.381
4785.792  0.380
4786.693  0.378
4787.595  0.377
4788.496  0.383
4789.398  0.385
4790.299  0.380
4791.201  0.373
4792.102  0.369
4793.004  0.372
4793.905  0.383
4794.807  0.385
4795.708  0.379
4796.609  0.381
4797.511  0.387
4798.412  0.395
4799.314  0.400
4800.215  0.402
4801.117  0.397
4802.018  0.383
4802.920  0.373
4803.821  0.372
4804.723  0.376
4805.624  0.380
4806.526  0.381
4807.427  0.379
4808.329  0.379
4809.230  0.378
4810.132  0.376
4811.033  0.377
4811.935  0.373
4812.836  0.369
4813.738  0.370
4814.639  0.372
4815.541  0.373
4816.442  0.377
4817.344  0.378
4818.245  0.374
4819.147  0.372
4820.048  0.378
4820.950  0.383
4821.851  0.381
4822.753  0.377
4823.654  0.376
4824.556  0.379
4825.457  0.377
4826.359  0.378
4827.260  0.378
4828.162  0.372
4829.063  0.370
4829.965  0.375
4830.866  0.381
4831.768  0.381
4832.669  0.379
4833.571  0.378
4834.472  0.372
4835.373  0.368
4836.275  0.372
4837.176  0.376
4838.078  0.374
4838.979  0.374
4839.881  0.376
4840.782  0.379
4841.684  0.383
4842.585  0.382
4843.487  0.380
4844.388  0.379
4845.290  0.376
4846.191  0.369
4847.093  0.368
4847.994  0.377
4848.896  0.378
4849.797  0.373
4850.699  0.375
4851.600  0.376
4852.502  0.373
4853.403  0.375
4854.305  0.375
4855.206  0.374
4856.108  0.377
4857.009  0.378
4857.911  0.374
4858.812  0.373
4859.714  0.375
4860.615  0.376
4861.517  0.376
4862.418  0.377
4863.320  0.384
4864.221  0.390
4865.123  0.388
4866.024  0.386
4866.926  0.377
4867.827  0.375
4868.729  0.382
4869.630  0.385
4870.532  0.381
4871.433  0.382
4872.335  0.385
4873.236  0.389
4874.137  0.389
4875.039  0.385
4875.940  0.386
4876.842  0.389
4877.743  0.392
4878.645  0.394
4879.546  0.394
4880.448  0.398
4881.349  0.394
4882.251  0.390
4883.152  0.392
4884.054  0.389
4884.955  0.385
4885.857  0.389
4886.758  0.393
4887.660  0.393
4888.561  0.393
4889.463  0.395
4890.364  0.400
4891.266  0.400
4892.167  0.395
4893.069  0.396
4893.970  0.397
4894.872  0.394
4895.773  0.396
4896.675  0.398
4897.576  0.393
4898.478  0.395
4899.379  0.401
4900.281  0.399
4901.182  0.397
4902.084  0.403
4902.985  0.404
4903.887  0.397
4904.788  0.390
4905.690  0.392
4906.591  0.401
4907.493  0.400
4908.394  0.391
4909.296  0.391
4910.197  0.396
4911.099  0.395
4912.000  0.396
4912.901  0.398
4913.803  0.401
4914.704  0.401
4915.606  0.398
4916.507  0.399
4917.409  0.399
4918.310  0.396
4919.212  0.393
4920.113  0.393
4921.015  0.391
4921.916  0.387
4922.818  0.387
4923.719  0.391
4924.621  0.390
4925.522  0.390
4926.424  0.393
4927.325  0.399
4928.227  0.403
4929.128  0.401
4930.030  0.397
4930.931  0.407
4931.833  0.410
4932.734  0.402
4933.636  0.399
4934.537  0.402
4935.439  0.402
4936.340  0.404
4937.242  0.407
4938.143  0.408
4939.045  0.406
4939.946  0.406
4940.848  0.408
4941.749  0.407
4942.651  0.408
4943.552  0.414
4944.454  0.415
4945.355  0.416
4946.257  0.416
4947.158  0.415
4948.060  0.417
4948.961  0.417
4949.863  0.422
4950.764  0.423
4951.665  0.414
4952.567  0.403
4953.468  0.402
4954.370  0.408
4955.271  0.411
4956.173  0.409
4957.074  0.407
4957.976  0.413
4958.877  0.414
4959.779  0.408
4960.680  0.408
4961.582  0.415
4962.483  0.415
4963.385  0.405
4964.286  0.397
4965.188  0.401
4966.089  0.411
4966.991  0.408
4967.892  0.404
4968.794  0.408
4969.695  0.412
4970.597  0.408
4971.498  0.399
4972.400  0.397
4973.301  0.398
4974.203  0.397
4975.104  0.401
4976.006  0.409
4976.907  0.403
4977.809  0.394
4978.710  0.396
4979.612  0.398
4980.513  0.395
4981.415  0.393
4982.316  0.392
4983.218  0.392
4984.119  0.396
4985.021  0.398
4985.922  0.395
4986.824  0.395
4987.725  0.397
4988.627  0.395
4989.528  0.394
4990.429  0.398
4991.331  0.401
4992.232  0.402
4993.134  0.403
4994.035  0.399
4994.937  0.393
4995.838  0.386
4996.740  0.386
4997.641  0.392
4998.543  0.390
4999.444  0.387
5000.346  0.387
5001.247  0.395
5002.149  0.403
5003.050  0.404
5003.952  0.402
5004.853  0.402
5005.755  0.403
5006.656  0.402
5007.558  0.395
5008.459  0.388
5009.361  0.399
5010.262  0.411
5011.164  0.408
5012.065  0.403
5012.967  0.404
5013.868  0.408
5014.770  0.408
5015.671  0.400
5016.573  0.395
5017.474  0.398
5018.376  0.398
5019.277  0.395
5020.179  0.393
5021.080  0.390
5021.982  0.389
5022.883  0.389
5023.785  0.393
5024.686  0.393
5025.588  0.387
5026.489  0.387
5027.391  0.387
5028.292  0.389
5029.193  0.391
5030.095  0.388
5030.996  0.385
5031.898  0.384
5032.799  0.384
5033.701  0.381
5034.602  0.378
5035.504  0.380
5036.405  0.380
5037.307  0.379
5038.208  0.378
5039.110  0.379
5040.011  0.380
5040.913  0.378
5041.814  0.378
5042.716  0.378
5043.617  0.374
5044.519  0.373
5045.420  0.378
5046.322  0.384
5047.223  0.382
5048.125  0.379
5049.026  0.385
5049.928  0.382
5050.829  0.379
5051.731  0.380
5052.632  0.381
5053.534  0.382
5054.435  0.382
5055.337  0.380
5056.238  0.377
5057.140  0.377
5058.041  0.376
5058.943  0.377
5059.844  0.380
5060.746  0.380
5061.647  0.379
5062.549  0.382
5063.450  0.383
5064.352  0.383
5065.253  0.380
5066.154  0.379
5067.056  0.383
5067.957  0.383
5068.859  0.383
5069.760  0.383
5070.662  0.383
5071.563  0.387
5072.465  0.385
5073.366  0.376
5074.268  0.372
5075.169  0.375
5076.071  0.376
5076.972  0.373
5077.874  0.374
5078.775  0.374
5079.677  0.371
5080.578  0.374
5081.480  0.379
5082.381  0.385
5083.283  0.388
5084.184  0.386
5085.086  0.383
5085.987  0.382
5086.889  0.381
5087.790  0.383
5088.692  0.385
5089.593  0.382
5090.495  0.378
5091.396  0.377
5092.298  0.380
5093.199  0.382
5094.101  0.382
5095.002  0.385
5095.904  0.387
5096.805  0.388
5097.707  0.386
5098.608  0.382
5099.510  0.377
5100.411  0.377
5101.313  0.380
5102.214  0.379
5103.116  0.376
5104.017  0.380
5104.918  0.385
5105.820  0.386
5106.721  0.384
5107.623  0.384
5108.524  0.382
5109.426  0.382
5110.327  0.387
5111.229  0.390
5112.130  0.388
5113.032  0.388
5113.933  0.387
5114.835  0.385
5115.736  0.382
5116.638  0.379
5117.539  0.375
5118.441  0.375
5119.342  0.379
5120.244  0.384
5121.145  0.385
5122.047  0.385
5122.948  0.388
5123.850  0.392
5124.751  0.393
5125.653  0.393
5126.554  0.394
5127.456  0.389
5128.357  0.385
5129.259  0.386
5130.160  0.388
5131.062  0.390
5131.963  0.393
5132.865  0.393
5133.766  0.390
5134.668  0.389
5135.569  0.392
5136.471  0.394
5137.372  0.391
5138.274  0.388
5139.175  0.392
5140.077  0.399
5140.978  0.403
5141.880  0.398
5142.781  0.393
5143.682  0.395
5144.584  0.398
5145.485  0.401
5146.387  0.399
5147.288  0.394
5148.190  0.391
5149.091  0.392
5149.993  0.397
5150.894  0.398
5151.796  0.396
5152.697  0.397
5153.599  0.399
5154.500  0.399
5155.402  0.396
5156.303  0.394
5157.205  0.395
5158.106  0.396
5159.008  0.396
5159.909  0.399
5160.811  0.400
5161.712  0.400
5162.614  0.399
5163.515  0.396
5164.417  0.401
5165.318  0.407
5166.220  0.410
5167.121  0.408
5168.023  0.400
5168.924  0.391
5169.826  0.389
5170.727  0.398
5171.629  0.408
5172.530  0.405
5173.432  0.402
5174.333  0.402
5175.235  0.397
5176.136  0.396
5177.038  0.403
5177.939  0.401
5178.841  0.397
5179.742  0.394
5180.644  0.393
5181.545  0.400
5182.446  0.404
5183.348  0.403
5184.249  0.401
5185.151  0.399
5186.052  0.401
5186.954  0.405
5187.855  0.399
5188.757  0.397
5189.658  0.401
5190.560  0.397
5191.461  0.392
5192.363  0.394
5193.264  0.398
5194.166  0.399
5195.067  0.396
5195.969  0.395
5196.870  0.396
5197.772  0.397
5198.673  0.398
5199.575  0.398
5200.476  0.391
5201.378  0.384
5202.279  0.391
5203.181  0.402
5204.082  0.403
5204.984  0.399
5205.885  0.399
5206.787  0.400
5207.688  0.395
5208.590  0.388
5209.491  0.388
5210.393  0.392
5211.294  0.397
5212.196  0.396
5213.097  0.391
5213.999  0.389
5214.900  0.391
5215.802  0.395
5216.703  0.394
5217.605  0.389
5218.506  0.391
5219.408  0.399
5220.309  0.398
5221.210  0.395
5222.112  0.400
5223.013  0.404
5223.915  0.395
5224.816  0.392
5225.718  0.393
5226.619  0.391
5227.521  0.388
5228.422  0.389
5229.324  0.391
5230.225  0.391
5231.127  0.389
5232.028  0.388
5232.930  0.388
5233.831  0.388
5234.733  0.390
5235.634  0.391
5236.536  0.388
5237.437  0.388
5238.339  0.391
5239.240  0.390
5240.142  0.387
5241.043  0.386
5241.945  0.382
5242.846  0.379
5243.748  0.378
5244.649  0.379
5245.551  0.384
5246.452  0.387
5247.354  0.384
5248.255  0.381
5249.157  0.382
5250.058  0.382
5250.960  0.380
5251.861  0.381
5252.763  0.385
5253.664  0.385
5254.566  0.380
5255.467  0.376
5256.369  0.376
5257.270  0.378
5258.172  0.379
5259.073  0.380
5259.974  0.380
5260.876  0.375
5261.777  0.374
5262.679  0.374
5263.580  0.373
5264.482  0.374
5265.383  0.376
5266.285  0.379
5267.186  0.377
5268.088  0.375
5268.989  0.380
5269.891  0.380
5270.792  0.378
5271.694  0.378
5272.595  0.378
5273.497  0.376
5274.398  0.374
5275.300  0.373
5276.201  0.374
5277.103  0.376
5278.004  0.372
5278.906  0.364
5279.807  0.365
5280.709  0.368
5281.610  0.369
5282.512  0.372
5283.413  0.370
5284.315  0.370
5285.216  0.369
5286.118  0.367
5287.019  0.368
5287.921  0.368
5288.822  0.365
5289.724  0.363
5290.625  0.363
5291.527  0.364
5292.428  0.366
5293.330  0.367
5294.231  0.365
5295.133  0.362
5296.034  0.360
5296.936  0.362
5297.837  0.360
5298.738  0.355
5299.640  0.355
5300.541  0.357
5301.443  0.360
5302.344  0.360
5303.246  0.359
5304.147  0.357
5305.049  0.359
5305.950  0.359
5306.852  0.353
5307.753  0.350
5308.655  0.354
5309.556  0.361
5310.458  0.360
5311.359  0.354
5312.261  0.350
5313.162  0.354
5314.064  0.356
5314.965  0.349
5315.867  0.349
5316.768  0.351
5317.670  0.352
5318.571  0.355
5319.473  0.354
5320.374  0.354
5321.276  0.353
5322.177  0.351
5323.079  0.345
5323.980  0.340
5324.882  0.338
5325.783  0.339
5326.685  0.346
5327.586  0.356
5328.488  0.356
5329.389  0.352
5330.291  0.347
5331.192  0.340
5332.094  0.337
5332.995  0.341
5333.897  0.343
5334.798  0.344
5335.700  0.343
5336.601  0.340
5337.502  0.339
5338.404  0.339
5339.305  0.338
5340.207  0.338
5341.108  0.339
5342.010  0.340
5342.911  0.339
5343.813  0.338
5344.714  0.336
5345.616  0.332
5346.517  0.329
5347.419  0.332
5348.320  0.335
5349.222  0.337
5350.123  0.336
5351.025  0.332
5351.926  0.324
5352.828  0.327
5353.729  0.335
5354.631  0.337
5355.532  0.333
5356.434  0.331
5357.335  0.333
5358.237  0.333
5359.138  0.330
5360.040  0.327
5360.941  0.329
5361.843  0.330
5362.744  0.327
5363.646  0.326
5364.547  0.331
5365.449  0.331
5366.350  0.330
5367.252  0.331
5368.153  0.329
5369.055  0.327
5369.956  0.328
5370.858  0.329
5371.759  0.329
5372.661  0.331
5373.562  0.338
5374.463  0.351
5375.365  0.371
5376.266  0.380
5377.168  0.373
5378.069  0.360
5378.971  0.345
5379.872  0.334
5380.774  0.326
5381.675  0.322
5382.577  0.322
5383.478  0.321
5384.380  0.320
5385.281  0.324
5386.183  0.329
5387.084  0.329
5387.986  0.328
5388.887  0.331
5389.789  0.331
5390.690  0.329
5391.592  0.325
5392.493  0.323
5393.395  0.326
5394.296  0.326
5395.198  0.326
5396.099  0.328
5397.001  0.325
5397.902  0.323
5398.804  0.324
5399.705  0.322
5400.607  0.318
5401.508  0.319
5402.410  0.319
5403.311  0.317
5404.213  0.316
5405.114  0.319
5406.016  0.320
5406.917  0.319
5407.819  0.322
5408.720  0.323
5409.622  0.319
5410.523  0.317
5411.425  0.321
5412.326  0.323
5413.227  0.321
5414.129  0.318
5415.030  0.318
5415.932  0.319
5416.833  0.316
5417.735  0.315
5418.636  0.316
5419.538  0.313
5420.439  0.309
5421.341  0.306
5422.242  0.310
5423.144  0.313
5424.045  0.313
5424.947  0.313
5425.848  0.313
5426.750  0.314
5427.651  0.317
5428.553  0.318
5429.454  0.315
5430.356  0.314
5431.257  0.313
5432.159  0.314
5433.060  0.319
5433.962  0.319
5434.863  0.313
5435.765  0.311
5436.666  0.312
5437.568  0.309
5438.469  0.307
5439.371  0.311
5440.272  0.317
5441.174  0.319
5442.075  0.321
5442.977  0.321
5443.878  0.317
5444.780  0.319
5445.681  0.320
5446.583  0.315
5447.484  0.313
5448.386  0.315
5449.287  0.316
5450.189  0.314
5451.090  0.315
5451.991  0.319
5452.893  0.314
5453.794  0.310
5454.696  0.310
5455.597  0.314
5456.499  0.320
5457.400  0.317
5458.302  0.316
5459.203  0.320
5460.105  0.321
5461.006  0.320
5461.908  0.319
5462.809  0.319
5463.711  0.318
5464.612  0.316
5465.514  0.312
5466.415  0.312
5467.317  0.314
5468.218  0.316
5469.120  0.317
5470.021  0.317
5470.923  0.320
5471.824  0.318
5472.726  0.318
5473.627  0.320
5474.529  0.323
5475.430  0.324
5476.332  0.324
5477.233  0.321
5478.135  0.316
5479.036  0.316
5479.938  0.320
5480.839  0.323
5481.741  0.336
5482.642  0.358
5483.544  0.375
5484.445  0.381
5485.347  0.374
5486.248  0.354
5487.150  0.335
5488.051  0.324
5488.953  0.318
5489.854  0.315
5490.755  0.315
5491.657  0.314
5492.558  0.315
5493.460  0.316
5494.361  0.310
5495.263  0.307
5496.164  0.308
5497.066  0.311
5497.967  0.314
5498.869  0.315
5499.770  0.316
5500.672  0.318
5501.573  0.317
5502.475  0.314
5503.376  0.310
5504.278  0.312
5505.179  0.313
5506.081  0.310
5506.982  0.311
5507.884  0.315
5508.785  0.316
5509.687  0.315
5510.588  0.315
5511.490  0.314
5512.391  0.315
5513.293  0.320
5514.194  0.319
5515.096  0.315
5515.997  0.312
5516.899  0.309
5517.800  0.303
5518.702  0.303
5519.603  0.309
5520.505  0.312
5521.406  0.312
5522.308  0.310
5523.209  0.307
5524.111  0.307
5525.012  0.310
5525.914  0.310
5526.815  0.307
5527.717  0.307
5528.618  0.308
5529.519  0.309
5530.421  0.313
5531.322  0.309
5532.224  0.312
5533.125  0.327
5534.027  0.352
5534.928  0.388
5535.830  0.437
5536.731  0.480
5537.633  0.495
5538.534  0.472
5539.436  0.427
5540.337  0.381
5541.239  0.342
5542.140  0.319
5543.042  0.311
5543.943  0.309
5544.845  0.307
5545.746  0.306
5546.648  0.306
5547.549  0.307
5548.451  0.305
5549.352  0.301
5550.254  0.301
5551.155  0.304
5552.057  0.307
5552.958  0.306
5553.860  0.305
5554.761  0.306
5555.663  0.309
5556.564  0.309
5557.466  0.305
5558.367  0.303
5559.269  0.301
5560.170  0.303
5561.072  0.304
5561.973  0.301
5562.875  0.302
5563.776  0.305
5564.678  0.307
5565.579  0.308
5566.481  0.309
5567.382  0.308
5568.283  0.309
5569.185  0.310
5570.086  0.307
5570.988  0.306
5571.889  0.306
5572.791  0.301
5573.692  0.292
5574.594  0.276
5575.495  0.268
5576.397  0.296
5577.298  0.315
5578.200  0.299
5579.101  0.288
5580.003  0.300
5580.904  0.297
5581.806  0.296
5582.707  0.294
5583.609  0.289
5584.510  0.290
5585.412  0.296
5586.313  0.301
5587.215  0.301
5588.116  0.301
5589.018  0.304
5589.919  0.306
5590.821  0.302
5591.722  0.302
5592.624  0.302
5593.525  0.297
5594.427  0.298
5595.328  0.301
5596.230  0.298
5597.131  0.298
5598.033  0.301
5598.934  0.299
5599.836  0.299
5600.737  0.300
5601.639  0.301
5602.540  0.301
5603.442  0.300
5604.343  0.301
5605.245  0.302
5606.146  0.300
5607.047  0.295
5607.949  0.294
5608.850  0.296
5609.752  0.297
5610.653  0.294
5611.555  0.290
5612.456  0.294
5613.358  0.295
5614.259  0.291
5615.161  0.289
5616.062  0.290
5616.964  0.292
5617.865  0.294
5618.767  0.291
5619.668  0.288
5620.570  0.289
5621.471  0.291
5622.373  0.292
5623.274  0.291
5624.176  0.292
5625.077  0.292
5625.979  0.290
5626.880  0.290
5627.782  0.290
5628.683  0.290
5629.585  0.289
5630.486  0.286
5631.388  0.286
5632.289  0.288
5633.191  0.291
5634.092  0.292
5634.994  0.291
5635.895  0.290
5636.797  0.288
5637.698  0.287
5638.600  0.291
5639.501  0.292
5640.403  0.285
5641.304  0.285
5642.206  0.286
5643.107  0.287
5644.009  0.286
5644.910  0.281
5645.811  0.280
5646.713  0.279
5647.614  0.280
5648.516  0.282
5649.417  0.280
5650.319  0.282
5651.220  0.283
5652.122  0.283
5653.023  0.281
5653.925  0.277
5654.826  0.274
5655.728  0.280
5656.629  0.286
5657.531  0.287
5658.432  0.288
5659.334  0.286
5660.235  0.285
5661.137  0.286
5662.038  0.288
5662.940  0.288
5663.841  0.287
5664.743  0.286
5665.644  0.284
5666.546  0.281
5667.447  0.280
5668.349  0.281
5669.250  0.285
5670.152  0.287
5671.053  0.284
5671.955  0.279
5672.856  0.281
5673.758  0.278
5674.659  0.275
5675.561  0.276
5676.462  0.278
5677.364  0.281
5678.265  0.283
5679.167  0.281
5680.068  0.279
5680.970  0.281
5681.871  0.279
5682.772  0.277
5683.674  0.276
5684.575  0.277
5685.477  0.276
5686.378  0.272
5687.280  0.271
5688.181  0.272
5689.083  0.274
5689.984  0.277
5690.886  0.277
5691.787  0.276
5692.689  0.272
5693.590  0.272
5694.492  0.275
5695.393  0.274
5696.295  0.273
5697.196  0.270
5698.098  0.270
5698.999  0.275
5699.901  0.279
5700.802  0.279
5701.704  0.277
5702.605  0.277
5703.507  0.279
5704.408  0.278
5705.310  0.276
5706.211  0.275
5707.113  0.273
5708.014  0.271
5708.916  0.272
5709.817  0.276
5710.719  0.278
5711.620  0.273
5712.522  0.271
5713.423  0.274
5714.325  0.276
5715.226  0.272
5716.128  0.269
5717.029  0.270
5717.931  0.270
5718.832  0.269
5719.734  0.269
5720.635  0.269
5721.536  0.270
5722.438  0.271
5723.339  0.266
5724.241  0.263
5725.142  0.266
5726.044  0.268
5726.945  0.269
5727.847  0.269
5728.748  0.271
5729.650  0.274
5730.551  0.276
5731.453  0.276
5732.354  0.270
5733.256  0.268
5734.157  0.271
5735.059  0.275
5735.960  0.276
5736.862  0.272
5737.763  0.268
5738.665  0.267
5739.566  0.265
5740.468  0.264
5741.369  0.267
5742.271  0.269
5743.172  0.268
5744.074  0.267
5744.975  0.266
5745.877  0.263
5746.778  0.264
5747.680  0.262
5748.581  0.261
5749.483  0.266
5750.384  0.269
5751.286  0.270
5752.187  0.270
5753.089  0.269
5753.990  0.267
5754.892  0.263
5755.793  0.265
5756.695  0.269
5757.596  0.270
5758.498  0.267
5759.399  0.260
5760.300  0.261
5761.202  0.266
5762.103  0.270
5763.005  0.271
5763.906  0.269
5764.808  0.264
5765.709  0.264
5766.611  0.263
5767.512  0.261
5768.414  0.264
5769.315  0.265
5770.217  0.263
5771.118  0.263
5772.020  0.265
5772.921  0.267
5773.823  0.268
5774.724  0.268
5775.626  0.262
5776.527  0.253
5777.429  0.249
5778.330  0.241
5779.232  0.228
5780.133  0.226
5781.035  0.241
5781.936  0.261
5782.838  0.266
5783.739  0.264
5784.641  0.264
5785.542  0.264
5786.444  0.263
5787.345  0.263
5788.247  0.259
5789.148  0.259
5790.050  0.262
5790.951  0.265
5791.853  0.269
5792.754  0.267
5793.656  0.264
5794.557  0.265
5795.459  0.267
5796.360  0.266
5797.262  0.263
5798.163  0.265
5799.064  0.267
5799.966  0.267
5800.867  0.266
5801.769  0.265
5802.670  0.270
5803.572  0.271
5804.473  0.265
5805.375  0.265
5806.276  0.265
5807.178  0.264
5808.079  0.261
5808.981  0.259
5809.882  0.261
5810.784  0.263
5811.685  0.263
5812.587  0.261
5813.488  0.259
5814.390  0.261
5815.291  0.263
5816.193  0.264
5817.094  0.263
5817.996  0.263
5818.897  0.263
5819.799  0.259
5820.700  0.258
5821.602  0.258
5822.503  0.255
5823.405  0.255
5824.306  0.259
5825.208  0.265
5826.109  0.266
5827.011  0.263
5827.912  0.261
5828.814  0.258
5829.715  0.258
5830.617  0.261
5831.518  0.263
5832.420  0.264
5833.321  0.264
5834.223  0.261
5835.124  0.258
5836.026  0.259
5836.927  0.260
5837.828  0.261
5838.730  0.261
5839.631  0.260
5840.533  0.257
5841.434  0.256
5842.336  0.257
5843.237  0.260
5844.139  0.262
5845.040  0.260
5845.942  0.258
5846.843  0.256
5847.745  0.256
5848.646  0.257
5849.548  0.257
5850.449  0.256
5851.351  0.254
5852.252  0.255
5853.154  0.256
5854.055  0.256
5854.957  0.254
5855.858  0.251
5856.760  0.251
5857.661  0.256
5858.563  0.258
5859.464  0.254
5860.366  0.254
5861.267  0.254
5862.169  0.258
5863.070  0.260
5863.972  0.258
5864.873  0.256
5865.775  0.255
5866.676  0.253
5867.578  0.254
5868.479  0.255
5869.381  0.251
5870.282  0.251
5871.184  0.254
5872.085  0.256
5872.987  0.253
5873.888  0.252
5874.790  0.252
5875.691  0.252
5876.592  0.252
5877.494  0.252
5878.395  0.251
5879.297  0.249
5880.198  0.249
5881.100  0.250
5882.001  0.247
5882.903  0.242
5883.804  0.245
5884.706  0.246
5885.607  0.244
5886.509  0.238
5887.410  0.231
5888.312  0.230
5889.213  0.228
5890.115  0.226
5891.016  0.225
5891.918  0.226
5892.819  0.231
5893.721  0.237
5894.622  0.239
5895.524  0.237
5896.425  0.234
5897.327  0.233
5898.228  0.236
5899.130  0.237
5900.031  0.236
5900.933  0.236
5901.834  0.239
5902.736  0.241
5903.637  0.244
5904.539  0.247
5905.440  0.249
5906.342  0.248
5907.243  0.248
5908.145  0.246
5909.046  0.243
5909.948  0.243
5910.849  0.241
5911.751  0.236
5912.652  0.238
5913.554  0.243
5914.455  0.243
5915.356  0.235
5916.258  0.234
5917.159  0.233
5918.061  0.232
5918.962  0.233
5919.864  0.235
5920.765  0.233
5921.667  0.233
5922.568  0.236
5923.470  0.236
5924.371  0.236
5925.273  0.238
5926.174  0.241
5927.076  0.243
5927.977  0.241
5928.879  0.237
5929.780  0.237
5930.682  0.239
5931.583  0.240
5932.485  0.241
5933.386  0.245
5934.288  0.246
5935.189  0.246
5936.091  0.245
5936.992  0.242
5937.894  0.237
5938.795  0.235
5939.697  0.234
5940.598  0.235
5941.500  0.233
5942.401  0.228
5943.303  0.226
5944.204  0.227
5945.106  0.228
5946.007  0.229
5946.909  0.229
5947.810  0.227
5948.712  0.228
5949.613  0.233
5950.515  0.239
5951.416  0.239
5952.318  0.241
5953.219  0.247
5954.120  0.247
5955.022  0.239
5955.923  0.231
5956.825  0.231
5957.726  0.233
5958.628  0.236
5959.529  0.239
5960.431  0.241
5961.332  0.241
5962.234  0.237
5963.135  0.234
5964.037  0.235
5964.938  0.237
5965.840  0.237
5966.741  0.233
5967.643  0.232
5968.544  0.231
5969.446  0.233
5970.347  0.236
5971.249  0.236
5972.150  0.234
5973.052  0.233
5973.953  0.229
5974.855  0.224
5975.756  0.226
5976.658  0.229
5977.559  0.231
5978.461  0.235
5979.362  0.236
5980.264  0.237
5981.165  0.237
5982.067  0.235
5982.968  0.234
5983.870  0.236
5984.771  0.239
5985.673  0.241
5986.574  0.242
5987.476  0.242
5988.377  0.237
5989.279  0.233
5990.180  0.236
5991.081  0.238
5991.983  0.236
5992.884  0.235
5993.786  0.237
5994.687  0.237
5995.589  0.235
5996.490  0.235
5997.392  0.235
5998.293  0.236
5999.195  0.237
6000.096  0.237
6000.998  0.237
6001.899  0.240
6002.801  0.239
6003.702  0.238
6004.604  0.235
6005.505  0.235
6006.407  0.238
6007.308  0.239
6008.210  0.235
6009.111  0.234
6010.013  0.238
6010.914  0.241
6011.816  0.239
6012.717  0.239
6013.619  0.239
6014.520  0.235
6015.422  0.232
6016.323  0.233
6017.225  0.237
6018.126  0.237
6019.028  0.237
6019.929  0.238
6020.831  0.234
6021.732  0.231
6022.634  0.232
6023.535  0.235
6024.437  0.235
6025.338  0.231
6026.240  0.232
6027.141  0.232
6028.043  0.231
6028.944  0.231
6029.845  0.231
6030.747  0.230
6031.648  0.230
6032.550  0.232
6033.451  0.235
6034.353  0.239
6035.254  0.239
6036.156  0.236
6037.057  0.233
6037.959  0.230
6038.860  0.232
6039.762  0.237
6040.663  0.237
6041.565  0.233
6042.466  0.232
6043.368  0.233
6044.269  0.231
6045.171  0.233
6046.072  0.237
6046.974  0.237
6047.875  0.235
6048.777  0.235
6049.678  0.236
6050.580  0.235
6051.481  0.234
6052.383  0.236
6053.284  0.237
6054.186  0.237
6055.087  0.236
6055.989  0.230
6056.890  0.228
6057.792  0.236
6058.693  0.239
6059.595  0.237
6060.496  0.234
6061.398  0.231
6062.299  0.234
6063.201  0.235
6064.102  0.233
6065.004  0.232
6065.905  0.232
6066.807  0.234
6067.708  0.236
6068.609  0.235
6069.511  0.234
6070.412  0.236
6071.314  0.236
6072.215  0.234
6073.117  0.235
6074.018  0.236
6074.920  0.235
6075.821  0.233
6076.723  0.234
6077.624  0.240
6078.526  0.242
6079.427  0.236
6080.329  0.236
6081.230  0.235
6082.132  0.234
6083.033  0.235
6083.935  0.234
6084.836  0.232
6085.738  0.232
6086.639  0.232
6087.541  0.230
6088.442  0.231
6089.344  0.232
6090.245  0.234
6091.147  0.235
6092.048  0.233
6092.950  0.231
6093.851  0.233
6094.753  0.234
6095.654  0.233
6096.556  0.233
6097.457  0.234
6098.359  0.236
6099.260  0.240
6100.162  0.240
6101.063  0.238
6101.965  0.235
6102.866  0.233
6103.768  0.233
6104.669  0.234
6105.571  0.234
6106.472  0.234
6107.373  0.234
6108.275  0.234
6109.176  0.235
6110.078  0.234
6110.979  0.230
6111.881  0.230
6112.782  0.234
6113.684  0.233
6114.585  0.232
6115.487  0.230
6116.388  0.227
6117.290  0.229
6118.191  0.231
6119.093  0.232
6119.994  0.232
6120.896  0.234
6121.797  0.232
6122.699  0.229
6123.600  0.228
6124.502  0.226
6125.403  0.225
6126.305  0.229
6127.206  0.232
6128.108  0.232
6129.009  0.231
6129.911  0.229
6130.812  0.231
6131.714  0.232
6132.615  0.231
6133.517  0.231
6134.418  0.234
6135.320  0.233
6136.221  0.229
6137.123  0.229
6138.024  0.230
6138.926  0.230
6139.827  0.231
6140.729  0.233
6141.630  0.234
6142.532  0.235
6143.433  0.235
6144.335  0.233
6145.236  0.230
6146.137  0.226
6147.039  0.228
6147.940  0.230
6148.842  0.228
6149.743  0.229
6150.645  0.226
6151.546  0.224
6152.448  0.229
6153.349  0.233
6154.251  0.229
6155.152  0.225
6156.054  0.227
6156.955  0.230
6157.857  0.229
6158.758  0.225
6159.660  0.223
6160.561  0.223
6161.463  0.226
6162.364  0.226
6163.266  0.227
6164.167  0.231
6165.069  0.230
6165.970  0.227
6166.872  0.230
6167.773  0.227
6168.675  0.226
6169.576  0.229
6170.478  0.229
6171.379  0.228
6172.281  0.228
6173.182  0.228
6174.084  0.230
6174.985  0.231
6175.887  0.228
6176.788  0.224
6177.690  0.223
6178.591  0.227
6179.493  0.228
6180.394  0.225
6181.296  0.225
6182.197  0.225
6183.099  0.224
6184.000  0.222
6184.901  0.222
6185.803  0.222
6186.704  0.222
6187.606  0.223
6188.507  0.223
6189.409  0.221
6190.310  0.224
6191.212  0.230
6192.113  0.231
6193.015  0.231
6193.916  0.232
6194.818  0.230
6195.719  0.227
6196.621  0.225
6197.522  0.227
6198.424  0.231
6199.325  0.230
6200.227  0.227
6201.128  0.223
6202.030  0.225
6202.931  0.228
6203.833  0.225
6204.734  0.224
6205.636  0.225
6206.537  0.225
6207.439  0.226
6208.340  0.228
6209.242  0.227
6210.143  0.226
6211.045  0.223
6211.946  0.221
6212.848  0.221
6213.749  0.224
6214.651  0.227
6215.552  0.227
6216.454  0.226
6217.355  0.224
6218.257  0.222
6219.158  0.220
6220.060  0.217
6220.961  0.217
6221.863  0.222
6222.764  0.221
6223.665  0.218
6224.567  0.221
6225.468  0.222
6226.370  0.219
6227.271  0.223
6228.173  0.225
6229.074  0.223
6229.976  0.221
6230.877  0.219
6231.779  0.220
6232.680  0.222
6233.582  0.222
6234.483  0.222
6235.385  0.224
6236.286  0.224
6237.188  0.223
6238.089  0.220
6238.991  0.219
6239.892  0.220
6240.794  0.219
6241.695  0.218
6242.597  0.220
6243.498  0.223
6244.400  0.223
6245.301  0.220
6246.203  0.219
6247.104  0.221
6248.006  0.221
6248.907  0.220
6249.809  0.219
6250.710  0.218
6251.612  0.217
6252.513  0.218
6253.415  0.221
6254.316  0.222
6255.218  0.220
6256.119  0.219
6257.021  0.219
6257.922  0.219
6258.824  0.219
6259.725  0.217
6260.627  0.217
6261.528  0.216
6262.429  0.217
6263.331  0.220
6264.232  0.221
6265.134  0.221
6266.035  0.220
6266.937  0.220
6267.838  0.221
6268.740  0.220
6269.641  0.217
6270.543  0.216
6271.444  0.216
6272.346  0.215
6273.247  0.213
6274.149  0.216
6275.050  0.218
6275.952  0.214
6276.853  0.210
6277.755  0.208
6278.656  0.210
6279.558  0.208
6280.459  0.206
6281.361  0.210
6282.262  0.209
6283.164  0.206
6284.065  0.211
6284.967  0.217
6285.868  0.214
6286.770  0.212
6287.671  0.214
6288.573  0.217
6289.474  0.219
6290.376  0.220
6291.277  0.217
6292.179  0.214
6293.080  0.212
6293.982  0.212
6294.883  0.215
6295.785  0.219
6296.686  0.218
6297.588  0.211
6298.489  0.204
6299.390  0.207
6300.292  0.217
6301.193  0.214
6302.095  0.203
6302.996  0.202
6303.898  0.210
6304.799  0.217
6305.701  0.223
6306.602  0.222
6307.504  0.214
6308.405  0.211
6309.307  0.213
6310.208  0.212
6311.110  0.211
6312.011  0.214
6312.913  0.218
6313.814  0.219
6314.716  0.216
6315.617  0.212
6316.519  0.209
6317.420  0.209
6318.322  0.214
6319.223  0.217
6320.125  0.217
6321.026  0.218
6321.928  0.219
6322.829  0.215
6323.731  0.212
6324.632  0.211
6325.534  0.211
6326.435  0.214
6327.337  0.219
6328.238  0.218
6329.140  0.215
6330.041  0.214
6330.943  0.215
6331.844  0.214
6332.746  0.216
6333.647  0.218
6334.549  0.216
6335.450  0.215
6336.352  0.216
6337.253  0.219
6338.154  0.220
6339.056  0.216
6339.957  0.213
6340.859  0.214
6341.760  0.215
6342.662  0.216
6343.563  0.215
6344.465  0.215
6345.366  0.216
6346.268  0.215
6347.169  0.215
6348.071  0.215
6348.972  0.216
6349.874  0.217
6350.775  0.215
6351.677  0.215
6352.578  0.214
6353.480  0.213
6354.381  0.215
6355.283  0.217
6356.184  0.212
6357.086  0.207
6357.987  0.206
6358.889  0.209
6359.790  0.208
6360.692  0.205
6361.593  0.207
6362.495  0.215
6363.396  0.217
6364.298  0.210
6365.199  0.206
6366.101  0.206
6367.002  0.208
6367.904  0.209
6368.805  0.211
6369.707  0.214
6370.608  0.215
6371.510  0.214
6372.411  0.213
6373.313  0.214
6374.214  0.216
6375.116  0.220
6376.017  0.220
6376.918  0.214
6377.820  0.209
6378.721  0.211
6379.623  0.217
6380.524  0.217
6381.426  0.211
6382.327  0.210
6383.229  0.212
6384.130  0.212
6385.032  0.211
6385.933  0.210
6386.835  0.209
6387.736  0.212
6388.638  0.212
6389.539  0.212
6390.441  0.215
6391.342  0.217
6392.244  0.215
6393.145  0.209
6394.047  0.208
6394.948  0.210
6395.850  0.210
6396.751  0.211
6397.653  0.213
6398.554  0.211
6399.456  0.209
6400.357  0.210
6401.259  0.214
6402.160  0.213
6403.062  0.212
6403.963  0.213
6404.865  0.212
6405.766  0.208
6406.668  0.207
6407.569  0.210
6408.471  0.212
6409.372  0.209
6410.274  0.202
6411.175  0.201
6412.077  0.206
6412.978  0.211
6413.880  0.211
6414.781  0.207
6415.682  0.207
6416.584  0.208
6417.485  0.205
6418.387  0.201
6419.288  0.203
6420.190  0.209
6421.091  0.211
6421.993  0.210
6422.894  0.210
6423.796  0.208
6424.697  0.202
6425.599  0.199
6426.500  0.200
6427.402  0.202
6428.303  0.201
6429.205  0.205
6430.106  0.207
6431.008  0.210
6431.909  0.213
6432.811  0.209
6433.712  0.206
6434.614  0.205
6435.515  0.206
6436.417  0.206
6437.318  0.205
6438.220  0.206
6439.121  0.205
6440.023  0.207
6440.924  0.211
6441.826  0.208
6442.727  0.200
6443.629  0.196
6444.530  0.198
6445.432  0.200
6446.333  0.197
6447.235  0.196
6448.136  0.199
6449.038  0.204
6449.939  0.206
6450.841  0.207
6451.742  0.207
6452.644  0.203
6453.545  0.198
6454.446  0.196
6455.348  0.200
6456.249  0.204
6457.151  0.204
6458.052  0.202
6458.954  0.198
6459.855  0.198
6460.757  0.201
6461.658  0.202
6462.560  0.205
6463.461  0.207
6464.363  0.207
6465.264  0.208
6466.166  0.204
6467.067  0.195
6467.969  0.191
6468.870  0.194
6469.772  0.196
6470.673  0.198
6471.575  0.200
6472.476  0.198
6473.378  0.194
6474.279  0.193
6475.181  0.195
6476.082  0.197
6476.984  0.200
6477.885  0.203
6478.787  0.201
6479.688  0.197
6480.590  0.198
6481.491  0.200
6482.393  0.200
6483.294  0.199
6484.196  0.197
6485.097  0.196
6485.999  0.200
6486.900  0.201
6487.802  0.197
6488.703  0.194
6489.605  0.195
6490.506  0.195
6491.408  0.193
6492.309  0.194
6493.210  0.196
6494.112  0.201
6495.013  0.203
6495.915  0.205
6496.816  0.210
6497.718  0.219
6498.619  0.218
6499.521  0.214
6500.422  0.210
6501.324  0.204
6502.225  0.202
6503.127  0.197
6504.028  0.193
6504.930  0.194
6505.831  0.195
6506.733  0.193
6507.634  0.194
6508.536  0.192
6509.437  0.189
6510.339  0.188
6511.240  0.186
6512.142  0.185
6513.043  0.185
6513.945  0.182
6514.846  0.181
6515.748  0.184
6516.649  0.188
6517.551  0.193
6518.452  0.196
6519.354  0.194
6520.255  0.192
6521.157  0.191
6522.058  0.188
6522.960  0.187
6523.861  0.191
6524.763  0.194
6525.664  0.193
6526.566  0.192
6527.467  0.191
6528.369  0.193
6529.270  0.196
6530.172  0.191
6531.073  0.189
6531.974  0.191
6532.876  0.192
6533.777  0.194
6534.679  0.193
6535.580  0.192
6536.482  0.189
6537.383  0.187
6538.285  0.188
6539.186  0.191
6540.088  0.191
6540.989  0.190
6541.891  0.189
6542.792  0.186
6543.694  0.183
6544.595  0.183
6545.497  0.184
6546.398  0.184
6547.300  0.185
6548.201  0.187
6549.103  0.188
6550.004  0.189
6550.906  0.186
6551.807  0.181
6552.709  0.182
6553.610  0.183
6554.512  0.183
6555.413  0.184
6556.315  0.185
6557.216  0.182
6558.118  0.183
6559.019  0.185
6559.921  0.185
6560.822  0.186
6561.724  0.188
6562.625  0.190
6563.527  0.190
6564.428  0.190
6565.330  0.191
6566.231  0.191
6567.133  0.188
6568.034  0.188
6568.936  0.190
6569.837  0.190
6570.738  0.190
6571.640  0.186
6572.541  0.187
6573.443  0.187
6574.344  0.184
6575.246  0.185
6576.147  0.188
6577.049  0.194
6577.950  0.195
6578.852  0.193
6579.753  0.193
6580.655  0.189
6581.556  0.190
6582.458  0.195
6583.359  0.196
6584.261  0.194
6585.162  0.194
6586.064  0.192
6586.965  0.191
6587.867  0.192
6588.768  0.193
6589.670  0.191
6590.571  0.190
6591.473  0.189
6592.374  0.188
6593.276  0.191
6594.177  0.194
6595.079  0.188
6595.980  0.186
6596.882  0.188
6597.783  0.186
6598.685  0.190
6599.586  0.188
6600.488  0.186
6601.389  0.187
6602.291  0.186
6603.192  0.186
6604.094  0.188
6604.995  0.187
6605.897  0.184
6606.798  0.184
6607.699  0.183
6608.601  0.183
6609.502  0.186
6610.404  0.186
6611.305  0.182
6612.207  0.179
6613.108  0.179
6614.010  0.181
6614.911  0.181
6615.813  0.182
6616.714  0.184
6617.616  0.186
6618.517  0.184
6619.419  0.182
6620.320  0.179
6621.222  0.173
6622.123  0.173
6623.025  0.177
6623.926  0.179
6624.828  0.178
6625.729  0.177
6626.631  0.180
6627.532  0.183
6628.434  0.182
6629.335  0.180
6630.237  0.183
6631.138  0.183
6632.040  0.181
6632.941  0.177
6633.843  0.179
6634.744  0.185
6635.646  0.184
6636.547  0.183
6637.449  0.183
6638.350  0.183
6639.252  0.180
6640.153  0.178
6641.055  0.176
6641.956  0.179
6642.858  0.184
6643.759  0.185
6644.661  0.184
6645.562  0.184
6646.463  0.178
6647.365  0.172
6648.266  0.177
6649.168  0.179
6650.069  0.177
6650.971  0.176
6651.872  0.178
6652.774  0.177
6653.675  0.177
6654.577  0.174
6655.478  0.173
6656.380  0.176
6657.281  0.177
6658.183  0.175
6659.084  0.176
6659.986  0.175
6660.887  0.173
6661.789  0.175
6662.690  0.177
6663.592  0.181
6664.493  0.184
6665.395  0.183
6666.296  0.181
6667.198  0.178
6668.099  0.176
6669.001  0.177
6669.902  0.177
6670.804  0.175
6671.705  0.175
6672.607  0.177
6673.508  0.177
6674.410  0.176
6675.311  0.178
6676.213  0.178
6677.114  0.177
6678.016  0.177
6678.917  0.179
6679.819  0.178
6680.720  0.176
6681.622  0.177
6682.523  0.174
6683.425  0.171
6684.326  0.171
6685.227  0.173
6686.129  0.176
6687.030  0.177
6687.932  0.175
6688.833  0.173
6689.735  0.173
6690.636  0.171
6691.538  0.172
6692.439  0.172
6693.341  0.172
6694.242  0.174
6695.144  0.176
6696.045  0.178
6696.947  0.177
6697.848  0.175
6698.750  0.175
6699.651  0.177
6700.553  0.178
6701.454  0.174
6702.356  0.173
6703.257  0.175
6704.159  0.172
6705.060  0.171
6705.962  0.170
6706.863  0.170
6707.765  0.170
6708.666  0.168
6709.568  0.169
6710.469  0.171
6711.371  0.174
6712.272  0.175
6713.174  0.172
6714.075  0.173
6714.977  0.173
6715.878  0.169
6716.780  0.170
6717.681  0.175
6718.583  0.175
6719.484  0.173
6720.386  0.170
6721.287  0.170
6722.189  0.173
6723.090  0.175
6723.991  0.178
6724.893  0.175
6725.794  0.169
6726.696  0.171
6727.597  0.174
6728.499  0.172
6729.400  0.170
6730.302  0.169
6731.203  0.166
6732.105  0.167
6733.006  0.169
6733.908  0.169
6734.809  0.168
6735.711  0.167
6736.612  0.170
6737.514  0.171
6738.415  0.170
6739.317  0.171
6740.218  0.170
6741.120  0.168
6742.021  0.167
6742.923  0.170
6743.824  0.170
6744.726  0.168
6745.627  0.168
6746.529  0.172
6747.430  0.174
6748.332  0.178
6749.233  0.179
6750.135  0.172
6751.036  0.168
6751.938  0.168
6752.839  0.169
6753.741  0.171
6754.642  0.171
6755.544  0.169
6756.445  0.169
6757.347  0.169
6758.248  0.171
6759.150  0.172
6760.051  0.171
6760.953  0.169
6761.854  0.167
6762.755  0.168
6763.657  0.170
6764.558  0.172
6765.460  0.170
6766.361  0.169
6767.263  0.170
6768.164  0.173
6769.066  0.172
6769.967  0.169
6770.869  0.168
6771.770  0.169
6772.672  0.170
6773.573  0.168
6774.475  0.164
6775.376  0.162
6776.278  0.165
6777.179  0.167
6778.081  0.164
6778.982  0.162
6779.884  0.164
6780.785  0.166
6781.687  0.165
6782.588  0.163
6783.490  0.163
6784.391  0.166
6785.293  0.168
6786.194  0.164
6787.096  0.162
6787.997  0.163
6788.899  0.164
6789.800  0.164
6790.702  0.167
6791.603  0.170
6792.505  0.171
6793.406  0.171
6794.308  0.169
6795.209  0.167
6796.111  0.171
6797.012  0.174
6797.914  0.172
6798.815  0.166
6799.717  0.162
6800.618  0.164
6801.519  0.162
6802.421  0.161
6803.322  0.161
6804.224  0.161
6805.125  0.161
6806.027  0.161
6806.928  0.163
6807.830  0.165
6808.731  0.164
6809.633  0.162
6810.534  0.161
6811.436  0.160
6812.337  0.159
6813.239  0.159
6814.140  0.157
6815.042  0.157
6815.943  0.159
6816.845  0.160
6817.746  0.159
6818.648  0.157
6819.549  0.155
6820.451  0.157
6821.352  0.159
6822.254  0.155
6823.155  0.153
6824.057  0.157
6824.958  0.161
6825.860  0.158
6826.761  0.155
6827.663  0.158
6828.564  0.160
6829.466  0.158
6830.367  0.159
6831.269  0.159
6832.170  0.158
6833.072  0.160
6833.973  0.161
6834.875  0.159
6835.776  0.158
6836.678  0.160
6837.579  0.163
6838.481  0.165
6839.382  0.165
6840.283  0.165
6841.185  0.166
6842.086  0.167
6842.988  0.166
6843.889  0.166
6844.791  0.166
6845.692  0.162
6846.594  0.162
6847.495  0.168
6848.397  0.170
6849.298  0.166
6850.200  0.163
6851.101  0.162
6852.003  0.162
6852.904  0.165
6853.806  0.163
6854.707  0.157
6855.609  0.161
6856.510  0.167
6857.412  0.169
6858.313  0.165
6859.215  0.161
6860.116  0.160
6861.018  0.159
6861.919  0.157
6862.821  0.156
6863.722  0.154
6864.624  0.148
6865.525  0.142
6866.427  0.143
6867.328  0.152
6868.230  0.165
6869.131  0.175
6870.033  0.173
6870.934  0.166
6871.836  0.165
6872.737  0.167
6873.639  0.163
6874.540  0.163
6875.442  0.162
6876.343  0.160
6877.245  0.160
6878.146  0.163
6879.047  0.163
6879.949  0.159
6880.850  0.157
6881.752  0.158
6882.653  0.156
6883.555  0.154
6884.456  0.154
6885.358  0.158
6886.259  0.161
6887.161  0.160
6888.062  0.155
6888.964  0.159
6889.865  0.163
6890.767  0.160
6891.668  0.159
6892.570  0.162
6893.471  0.160
6894.373  0.157
6895.274  0.158
6896.176  0.158
6897.077  0.159
6897.979  0.156
6898.880  0.156
6899.782  0.161
6900.683  0.161
6901.585  0.156
6902.486  0.152
6903.388  0.155
6904.289  0.157
6905.191  0.154
6906.092  0.155
6906.994  0.155
6907.895  0.154
6908.797  0.157
6909.698  0.158
6910.600  0.155
6911.501  0.154
6912.403  0.155
6913.304  0.155
6914.206  0.154
6915.107  0.152
6916.008  0.149
6916.910  0.150
6917.811  0.155
6918.713  0.157
6919.614  0.156
6920.516  0.154
6921.417  0.150
6922.319  0.148
6923.220  0.155
6924.122  0.159
6925.023  0.155
6925.925  0.147
6926.826  0.146
6927.728  0.151
6928.629  0.152
6929.531  0.149
6930.432  0.149
6931.334  0.149
6932.235  0.150
6933.137  0.152
6934.038  0.152
6934.940  0.148
6935.841  0.146
6936.743  0.146
6937.644  0.147
6938.546  0.150
6939.447  0.151
6940.349  0.151
6941.250  0.155
6942.152  0.155
6943.053  0.147
6943.955  0.144
6944.856  0.147
6945.758  0.147
6946.659  0.145
6947.561  0.144
6948.462  0.148
6949.364  0.151
6950.265  0.149
6951.167  0.151
6952.068  0.152
6952.970  0.150
6953.871  0.151
6954.772  0.152
6955.674  0.151
6956.575  0.153
6957.477  0.155
6958.378  0.153
6959.280  0.152
6960.181  0.153
6961.083  0.155
6961.984  0.156
6962.886  0.157
6963.787  0.156
6964.689  0.156
6965.590  0.157
6966.492  0.160
6967.393  0.162
6968.295  0.157
6969.196  0.152
6970.098  0.148
6970.999  0.150
6971.901  0.153
6972.802  0.156
6973.704  0.155
6974.605  0.153
6975.507  0.156
6976.408  0.156
6977.310  0.152
6978.211  0.149
6979.113  0.151
6980.014  0.155
6980.916  0.157
6981.817  0.156
6982.719  0.154
6983.620  0.153
6984.522  0.151
6985.423  0.149
6986.325  0.150
6987.226  0.151
6988.128  0.151
6989.029  0.148
6989.931  0.147
6990.832  0.149
6991.734  0.148
6992.635  0.146
6993.536  0.151
6994.438  0.154
6995.339  0.155
6996.241  0.155
6997.142  0.153
6998.044  0.152
6998.945  0.153
6999.847  0.157
7000.748  0.160
7001.650  0.160
7002.551  0.157
7003.453  0.154
7004.354  0.153
7005.256  0.153
7006.157  0.155
7007.059  0.156
7007.960  0.155
7008.862  0.153
7009.763  0.154
7010.665  0.153
7011.566  0.150
7012.468  0.150
7013.369  0.151
7014.271  0.152
7015.172  0.153
7016.074  0.155
7016.975  0.155
7017.877  0.155
7018.778  0.155
7019.680  0.155
7020.581  0.154
7021.483  0.155
7022.384  0.156
7023.286  0.157
7024.187  0.155
7025.089  0.155
7025.990  0.154
7026.892  0.154
7027.793  0.155
7028.695  0.155
7029.596  0.155
7030.498  0.155
7031.399  0.158
7032.300  0.158
7033.202  0.158
7034.103  0.160
7035.005  0.160
7035.906  0.159
7036.808  0.157
7037.709  0.158
7038.611  0.159
7039.512  0.156
7040.414  0.154
7041.315  0.154
7042.217  0.154
7043.118  0.153
7044.020  0.155
7044.921  0.155
7045.823  0.154
7046.724  0.152
7047.626  0.150
7048.527  0.149
7049.429  0.148
7050.330  0.149
7051.232  0.152
7052.133  0.153
7053.035  0.150
7053.936  0.151
7054.838  0.154
7055.739  0.155
7056.641  0.152
7057.542  0.150
7058.444  0.151
7059.345  0.152
7060.247  0.152
7061.148  0.153
7062.050  0.154
7062.951  0.153
7063.853  0.152
7064.754  0.150
7065.656  0.152
7066.557  0.153
7067.459  0.156
7068.360  0.156
7069.262  0.154
7070.163  0.153
7071.064  0.153
7071.966  0.154
7072.867  0.155
7073.769  0.154
7074.670  0.154
7075.572  0.155
7076.473  0.153
7077.375  0.151
7078.276  0.150
7079.178  0.149
7080.079  0.148
7080.981  0.149
7081.882  0.152
7082.784  0.153
7083.685  0.154
7084.587  0.155
7085.488  0.154
7086.390  0.153
7087.291  0.151
7088.193  0.150
7089.094  0.152
7089.996  0.153
7090.897  0.154
7091.799  0.155
7092.700  0.153
7093.602  0.152
7094.503  0.154
7095.405  0.155
7096.306  0.154
7097.208  0.153
7098.109  0.152
7099.011  0.152
7099.912  0.150
7100.814  0.151
7101.715  0.153
7102.617  0.153
7103.518  0.152
7104.420  0.153
7105.321  0.154
7106.223  0.153
7107.124  0.152
7108.026  0.152
7108.927  0.152
7109.828  0.153
7110.730  0.154
7111.631  0.153
7112.533  0.152
7113.434  0.151
7114.336  0.155
7115.237  0.159
7116.139  0.156
7117.040  0.151
7117.942  0.153
7118.843  0.153
7119.745  0.152
7120.646  0.154
7121.548  0.156
7122.449  0.155
7123.351  0.154
7124.252  0.153
7125.154  0.151
7126.055  0.151
7126.957  0.151
7127.858  0.150
7128.760  0.149
7129.661  0.151
7130.563  0.152
7131.464  0.152
7132.366  0.153
7133.267  0.153
7134.169  0.152
7135.070  0.151
7135.972  0.150
7136.873  0.150
7137.775  0.152
7138.676  0.150
7139.578  0.148
7140.479  0.150
7141.381  0.150
7142.282  0.150
7143.184  0.149
7144.085  0.148
7144.987  0.147
7145.888  0.147
7146.790  0.151
7147.691  0.154
7148.592  0.156
7149.494  0.156
7150.395  0.151
7151.297  0.149
7152.198  0.152
7153.100  0.152
7154.001  0.153
7154.903  0.155
7155.804  0.156
7156.706  0.155
7157.607  0.155
7158.509  0.154
7159.410  0.155
7160.312  0.156
7161.213  0.155
7162.115  0.156
7163.016  0.156
7163.918  0.158
7164.819  0.161
7165.721  0.161
7166.622  0.154
7167.524  0.152
7168.425  0.152
7169.327  0.151
7170.228  0.151
7171.130  0.152
7172.031  0.152
7172.933  0.151
7173.834  0.153
7174.736  0.154
7175.637  0.155
7176.539  0.156
7177.440  0.154
7178.342  0.153
7179.243  0.155
7180.145  0.156
7181.046  0.155
7181.948  0.155
7182.849  0.153
7183.751  0.152
7184.652  0.151
7185.554  0.149
7186.455  0.154
7187.356  0.159
7188.258  0.155
7189.159  0.153
7190.061  0.153
7190.962  0.152
7191.864  0.151
7192.765  0.152
7193.667  0.152
7194.568  0.153
7195.470  0.154
7196.371  0.155
7197.273  0.152
7198.174  0.148
7199.076  0.145
7199.977  0.144
7200.879  0.146
7201.780  0.148
7202.682  0.150
7203.583  0.151
7204.485  0.147
7205.386  0.149
7206.288  0.155
7207.189  0.155
7208.091  0.154
7208.992  0.156
7209.894  0.155
7210.795  0.153
7211.697  0.153
7212.598  0.155
7213.500  0.155
7214.401  0.153
7215.303  0.153
7216.204  0.153
7217.106  0.151
7218.007  0.152
7218.909  0.154
7219.810  0.154
7220.712  0.154
7221.613  0.152
7222.515  0.151
7223.416  0.154
7224.317  0.155
7225.219  0.155
7226.120  0.151
7227.022  0.149
7227.923  0.150
7228.825  0.150
7229.726  0.150
7230.628  0.148
7231.529  0.145
7232.431  0.141
7233.332  0.138
7234.234  0.141
7235.135  0.146
7236.037  0.150
7236.938  0.147
7237.840  0.139
7238.741  0.138
7239.643  0.139
7240.544  0.136
7241.446  0.139
7242.347  0.137
7243.249  0.135
7244.150  0.139
7245.052  0.140
7245.953  0.140
7246.855  0.137
7247.756  0.141
7248.658  0.146
7249.559  0.149
7250.461  0.149
7251.362  0.148
7252.264  0.147
7253.165  0.149
7254.067  0.159
7254.968  0.183
7255.870  0.232
7256.771  0.305
7257.673  0.362
7258.574  0.359
7259.476  0.301
7260.377  0.225
7261.279  0.172
7262.180  0.154
7263.081  0.152
7263.983  0.149
7264.884  0.147
7265.786  0.150
7266.687  0.153
7267.589  0.154
7268.490  0.153
7269.392  0.152
7270.293  0.152
7271.195  0.152
7272.096  0.152
7272.998  0.151
7273.899  0.147
7274.801  0.137
7275.702  0.129
7276.604  0.126
7277.505  0.131
7278.407  0.146
7279.308  0.157
7280.210  0.161
7281.111  0.163
7282.013  0.162
7282.914  0.155
7283.816  0.152
7284.717  0.152
7285.619  0.149
7286.520  0.144
7287.422  0.150
7288.323  0.154
7289.225  0.153
7290.126  0.152
7291.028  0.153
7291.929  0.151
7292.831  0.149
7293.732  0.149
7294.634  0.148
7295.535  0.146
7296.437  0.145
7297.338  0.147
7298.240  0.149
7299.141  0.149
7300.043  0.149
7300.944  0.148
7301.845  0.143
7302.747  0.139
7303.648  0.139
7304.550  0.144
7305.451  0.145
7306.353  0.148
7307.254  0.149
7308.156  0.149
7309.057  0.149
7309.959  0.147
7310.860  0.148
7311.762  0.148
7312.663  0.144
7313.565  0.140
7314.466  0.136
7315.368  0.132
7316.269  0.129
7317.171  0.129
7318.072  0.136
7318.974  0.147
7319.875  0.148
7320.777  0.150
7321.678  0.152
7322.580  0.150
7323.481  0.149
7324.383  0.150
7325.284  0.150
7326.186  0.150
7327.087  0.148
7327.989  0.145
7328.890  0.144
7329.792  0.146
7330.693  0.144
7331.595  0.143
7332.496  0.146
7333.398  0.146
7334.299  0.146
7335.201  0.147
7336.102  0.147
7337.004  0.146
7337.905  0.147
7338.807  0.143
7339.708  0.129
7340.609  0.126
7341.511  0.127
7342.412  0.134
7343.314  0.146
7344.215  0.147
7345.117  0.146
7346.018  0.146
7346.920  0.148
7347.821  0.146
7348.723  0.145
7349.624  0.144
7350.526  0.143
7351.427  0.147
7352.329  0.150
7353.230  0.148
7354.132  0.147
7355.033  0.147
7355.935  0.148
7356.836  0.145
7357.738  0.145
7358.639  0.142
7359.541  0.138
7360.442  0.141
7361.344  0.147
7362.245  0.148
7363.147  0.147
7364.048  0.146
7364.950  0.146
7365.851  0.147
7366.753  0.144
7367.654  0.137
7368.556  0.136
7369.457  0.136
7370.359  0.137
7371.260  0.139
7372.162  0.144
7373.063  0.149
7373.965  0.149
7374.866  0.147
7375.768  0.146
7376.669  0.148
7377.571  0.146
7378.472  0.145
7379.373  0.146
7380.275  0.146
7381.176  0.146
7382.078  0.145
7382.979  0.146
7383.881  0.148
7384.782  0.151
7385.684  0.154
7386.585  0.158
7387.487  0.156
7388.388  0.153
7389.290  0.150
7390.191  0.147
7391.093  0.145
7391.994  0.146
7392.896  0.148
7393.797  0.150
7394.699  0.149
7395.600  0.149
7396.502  0.145
7397.403  0.145
7398.305  0.146
7399.206  0.144
7400.108  0.145
7401.009  0.144
7401.911  0.142
7402.812  0.139
7403.714  0.144
7404.615  0.150
7405.517  0.151
7406.418  0.150
7407.320  0.151
7408.221  0.152
7409.123  0.151
7410.024  0.152
7410.926  0.152
7411.827  0.149
7412.729  0.150
7413.630  0.150
7414.532  0.150
7415.433  0.151
7416.335  0.151
7417.236  0.149
7418.137  0.148
7419.039  0.147
7419.940  0.147
7420.842  0.149
7421.743  0.149
7422.645  0.150
7423.546  0.154
7424.448  0.155
7425.349  0.156
7426.251  0.160
7427.152  0.166
7428.054  0.168
7428.955  0.162
7429.857  0.153
7430.758  0.147
7431.660  0.145
7432.561  0.145
7433.463  0.143
7434.364  0.146
7435.266  0.146
7436.167  0.142
7437.069  0.142
7437.970  0.142
7438.872  0.141
7439.773  0.142
7440.675  0.145
7441.576  0.155
7442.478  0.160
7443.379  0.163
7444.281  0.165
7445.182  0.162
7446.084  0.157
7446.985  0.153
7447.887  0.149
7448.788  0.147
7449.690  0.145
7450.591  0.144
7451.493  0.145
7452.394  0.144
7453.296  0.144
7454.197  0.145
7455.099  0.144
7456.000  0.144
7456.901  0.144
7457.803  0.143
7458.704  0.144
7459.606  0.146
7460.507  0.145
7461.409  0.145
7462.310  0.147
7463.212  0.148
7464.113  0.148
7465.015  0.144
7465.916  0.141
7466.818  0.140
7467.719  0.140
7468.621  0.144
7469.522  0.144
7470.424  0.140
7471.325  0.139
7472.227  0.140
7473.128  0.139
7474.030  0.141
7474.931  0.143
7475.833  0.144
7476.734  0.142
7477.636  0.140
7478.537  0.137
7479.439  0.137
7480.340  0.138
7481.242  0.139
7482.143  0.142
7483.045  0.142
7483.946  0.142
7484.848  0.142
7485.749  0.142
7486.651  0.143
7487.552  0.143
7488.454  0.144
7489.355  0.143
7490.257  0.143
7491.158  0.143
7492.060  0.143
7492.961  0.143
7493.863  0.143
7494.764  0.147
7495.665  0.148
7496.567  0.144
7497.468  0.143
7498.370  0.145
7499.271  0.145
7500.173  0.143
7501.074  0.142
7501.976  0.142
7502.877  0.141
7503.779  0.141
7504.680  0.141
7505.582  0.143
7506.483  0.144
7507.385  0.143
7508.286  0.143
7509.188  0.145
7510.089  0.146
7510.991  0.146
7511.892  0.147
7512.794  0.144
7513.695  0.144
7514.597  0.144
7515.498  0.143
7516.400  0.142
7517.301  0.142
7518.203  0.142
7519.104  0.141
7520.006  0.139
7520.907  0.142
7521.809  0.140
7522.710  0.133
7523.612  0.132
7524.513  0.136
7525.415  0.136
7526.316  0.135
7527.218  0.136
7528.119  0.137
7529.021  0.138
7529.922  0.140
7530.824  0.141
7531.725  0.141
7532.626  0.142
7533.528  0.142
7534.429  0.143
7535.331  0.140
7536.232  0.139
7537.134  0.140
7538.035  0.141
7538.937  0.143
7539.838  0.144
7540.740  0.146
7541.641  0.143
7542.543  0.142
7543.444  0.143
7544.346  0.143
7545.247  0.142
7546.149  0.141
7547.050  0.140
7547.952  0.141
7548.853  0.143
7549.755  0.142
7550.656  0.140
7551.558  0.140
7552.459  0.141
7553.361  0.140
7554.262  0.139
7555.164  0.142
7556.065  0.143
7556.967  0.143
7557.868  0.139
7558.770  0.138
7559.671  0.141
7560.573  0.143
7561.474  0.142
7562.376  0.141
7563.277  0.141
7564.179  0.140
7565.080  0.139
7565.982  0.141
7566.883  0.142
7567.785  0.141
7568.686  0.141
7569.588  0.138
7570.489  0.134
7571.390  0.135
7572.292  0.135
7573.193  0.134
7574.095  0.135
7574.996  0.135
7575.898  0.139
7576.799  0.139
7577.701  0.138
7578.602  0.139
7579.504  0.139
7580.405  0.139
7581.307  0.140
7582.208  0.141
7583.110  0.140
7584.011  0.140
7584.913  0.141
7585.814  0.141
7586.716  0.139
7587.617  0.140
7588.519  0.140
7589.420  0.139
7590.322  0.140
7591.223  0.138
7592.125  0.135
7593.026  0.133
7593.928  0.130
7594.829  0.129
7595.731  0.129
7596.632  0.128
7597.534  0.131
7598.435  0.133
7599.337  0.132
7600.238  0.129
7601.140  0.136
7602.041  0.144
7602.943  0.148
7603.844  0.152
7604.746  0.151
7605.647  0.152
7606.549  0.151
7607.450  0.147
7608.352  0.146
7609.253  0.144
7610.154  0.148
7611.056  0.149
7611.957  0.145
7612.859  0.142
7613.760  0.138
7614.662  0.141
7615.563  0.144
7616.465  0.141
7617.366  0.138
7618.268  0.135
7619.169  0.134
7620.071  0.132
7620.972  0.131
7621.874  0.130
7622.775  0.130
7623.677  0.135
7624.578  0.138
7625.480  0.134
7626.381  0.131
7627.283  0.132
7628.184  0.132
7629.086  0.130
7629.987  0.130
7630.889  0.134
7631.790  0.138
7632.692  0.138
7633.593  0.133
7634.495  0.133
7635.396  0.140
7636.298  0.144
7637.199  0.140
7638.101  0.131
7639.002  0.130
7639.904  0.136
7640.805  0.137
7641.707  0.134
7642.608  0.131
7643.510  0.130
7644.411  0.132
7645.313  0.137
7646.214  0.139
7647.116  0.134
7648.017  0.128
7648.918  0.129
7649.820  0.135
7650.721  0.136
7651.623  0.135
7652.524  0.132
7653.426  0.129
7654.327  0.133
7655.229  0.141
7656.130  0.140
7657.032  0.138
7657.933  0.137
7658.835  0.140
7659.736  0.143
7660.638  0.141
7661.539  0.138
7662.441  0.133
7663.342  0.133
7664.244  0.138
7665.145  0.143
7666.047  0.146
7666.948  0.142
7667.850  0.139
7668.751  0.136
7669.653  0.136
7670.554  0.137
7671.456  0.134
7672.357  0.134
7673.259  0.135
7674.160  0.136
7675.062  0.137
7675.963  0.135
7676.865  0.135
7677.766  0.138
7678.668  0.137
7679.569  0.136
7680.471  0.136
7681.372  0.134
7682.274  0.132
7683.175  0.132
7684.077  0.133
7684.978  0.135
7685.880  0.134
7686.781  0.132
7687.682  0.131
7688.584  0.131
7689.485  0.132
7690.387  0.133
7691.288  0.135
7692.190  0.136
7693.091  0.134
7693.993  0.133
7694.894  0.134
7695.796  0.134
7696.697  0.133
7697.599  0.136
7698.500  0.140
7699.402  0.140
7700.303  0.140
7701.205  0.136
7702.106  0.133
7703.008  0.133
7703.909  0.131
7704.811  0.130
7705.712  0.134
7706.614  0.137
7707.515  0.134
7708.417  0.133
7709.318  0.136
7710.220  0.134
7711.121  0.126
7712.023  0.125
7712.924  0.121
7713.826  0.123
7714.727  0.123
7715.629  0.126
7716.530  0.128
7717.432  0.120
7718.333  0.119
7719.235  0.123
7720.136  0.127
7721.038  0.128
7721.939  0.128
7722.841  0.129
7723.742  0.128
7724.644  0.130
7725.545  0.128
7726.446  0.127
7727.348  0.131
7728.249  0.134
7729.151  0.136
7730.052  0.134
7730.954  0.132
7731.855  0.131
7732.757  0.133
7733.658  0.132
7734.560  0.131
7735.461  0.131
7736.363  0.132
7737.264  0.132
7738.166  0.130
7739.067  0.126
7739.969  0.127
7740.870  0.128
7741.772  0.129
7742.673  0.133
7743.575  0.136
7744.476  0.133
7745.378  0.130
7746.279  0.131
7747.181  0.128
7748.082  0.124
7748.984  0.129
7749.885  0.124
7750.787  0.117
7751.688  0.110
7752.590  0.119
7753.491  0.135
7754.393  0.131
7755.294  0.126
7756.196  0.126
7757.097  0.127
7757.999  0.123
7758.900  0.119
7759.802  0.118
7760.703  0.119
7761.605  0.125
7762.506  0.128
7763.408  0.124
7764.309  0.124
7765.210  0.128
7766.112  0.132
7767.013  0.131
7767.915  0.129
7768.816  0.131
7769.718  0.132
7770.619  0.130
7771.521  0.130
7772.422  0.134
7773.324  0.135
7774.225  0.136
7775.127  0.133
7776.028  0.131
7776.930  0.128
7777.831  0.125
7778.733  0.123
7779.634  0.122
7780.536  0.121
7781.437  0.121
7782.339  0.126
7783.240  0.129
7784.142  0.126
7785.043  0.126
7785.945  0.127
7786.846  0.127
7787.748  0.126
7788.649  0.128
7789.551  0.130
7790.452  0.129
7791.354  0.122
7792.255  0.118
7793.157  0.120
7794.058  0.116
7794.960  0.112
7795.861  0.115
7796.763  0.121
7797.664  0.126
7798.566  0.127
7799.467  0.128
7800.369  0.131
7801.270  0.128
7802.172  0.123
7803.073  0.125
7803.974  0.127
7804.876  0.128
7805.777  0.127
7806.679  0.124
7807.580  0.117
7808.482  0.117
7809.383  0.121
7810.285  0.124
7811.186  0.126
7812.088  0.129
7812.989  0.128
7813.891  0.126
7814.792  0.126
7815.694  0.126
7816.595  0.125
7817.497  0.123
7818.398  0.121
7819.300  0.112
7820.201  0.109
7821.103  0.117
7822.004  0.117
7822.906  0.113
7823.807  0.114
7824.709  0.122
7825.610  0.124
7826.512  0.125
7827.413  0.125
7828.315  0.125
7829.216  0.126
7830.118  0.128
7831.019  0.127
7831.921  0.126
7832.822  0.126
7833.724  0.127
7834.625  0.127
7835.527  0.127
7836.428  0.126
7837.330  0.126
7838.231  0.128
7839.133  0.122
7840.034  0.118
7840.935  0.123
7841.837  0.124
7842.738  0.125
7843.640  0.124
7844.541  0.122
7845.443  0.124
7846.344  0.125
7847.246  0.125
7848.147  0.127
7849.049  0.128
7849.950  0.122
7850.852  0.110
7851.753  0.114
7852.655  0.121
7853.556  0.120
7854.458  0.111
7855.359  0.107
7856.261  0.119
7857.162  0.126
7858.064  0.124
7858.965  0.121
7859.867  0.115
7860.768  0.115
7861.670  0.113
7862.571  0.121
7863.473  0.128
7864.374  0.125
7865.276  0.126
7866.177  0.120
7867.079  0.119
7867.980  0.117
7868.882  0.114
7869.783  0.119
7870.685  0.118
7871.586  0.118
7872.488  0.123
7873.389  0.122
7874.291  0.121
7875.192  0.121
7876.094  0.118
7876.995  0.118
7877.897  0.122
7878.798  0.120
7879.699  0.117
7880.601  0.118
7881.502  0.119
7882.404  0.121
7883.305  0.119
7884.207  0.120
7885.108  0.121
7886.010  0.119
7886.911  0.118
7887.813  0.116
7888.714  0.115
7889.616  0.117
7890.517  0.113
7891.419  0.112
7892.320  0.125
7893.222  0.125
7894.123  0.119
7895.025  0.120
7895.926  0.123
7896.828  0.125
7897.729  0.125
7898.631  0.123
7899.532  0.122
7900.434  0.122
7901.335  0.122
7902.237  0.123
7903.138  0.124
7904.040  0.122
7904.941  0.121
7905.843  0.121
7906.744  0.119
7907.646  0.118
7908.547  0.119
7909.449  0.119
7910.350  0.116
7911.252  0.108
7912.153  0.113
7913.055  0.117
7913.956  0.110
7914.858  0.104
7915.759  0.115
7916.661  0.125
7917.562  0.122
7918.463  0.124
7919.365  0.120
7920.266  0.109
7921.168  0.109
7922.069  0.109
7922.971  0.112
7923.872  0.117
7924.774  0.118
7925.675  0.120
7926.577  0.120
7927.478  0.121
7928.380  0.121
7929.281  0.116
7930.183  0.115
7931.084  0.117
7931.986  0.121
7932.887  0.122
7933.789  0.122
7934.690  0.124
7935.592  0.123
7936.493  0.124
7937.395  0.126
7938.296  0.124
7939.198  0.122
7940.099  0.123
7941.001  0.122
7941.902  0.122
7942.804  0.123
7943.705  0.126
7944.607  0.128
7945.508  0.123
7946.410  0.121
7947.311  0.122
7948.213  0.113
7949.114  0.109
7950.016  0.110
7950.917  0.116
7951.819  0.122
7952.720  0.123
7953.622  0.124
7954.523  0.122
7955.425  0.119
7956.326  0.120
7957.227  0.120
7958.129  0.119
7959.030  0.118
7959.932  0.117
7960.833  0.117
7961.735  0.110
7962.636  0.104
7963.538  0.112
7964.439  0.109
7965.341  0.110
7966.242  0.108
7967.144  0.107
7968.045  0.116
7968.947  0.117
7969.848  0.116
7970.750  0.120
7971.651  0.121
7972.553  0.119
7973.454  0.118
7974.356  0.118
7975.257  0.117
7976.159  0.116
7977.060  0.115
7977.962  0.112
7978.863  0.111
7979.765  0.112
7980.666  0.111
7981.568  0.115
7982.469  0.121
7983.371  0.120
7984.272  0.120
7985.174  0.119
7986.075  0.119
7986.977  0.118
7987.878  0.118
7988.780  0.120
7989.681  0.122
7990.583  0.118
7991.484  0.108
7992.386  0.106
7993.287  0.105
7994.189  0.107
7995.090  0.111
7995.991  0.110
7996.893  0.114
7997.794  0.119
7998.696  0.121
7999.597  0.119
8000.499  0.119
8001.400  0.120
8002.302  0.118
8003.203  0.116
8004.105  0.118
8005.006  0.121
8005.908  0.117
8006.809  0.114
8007.711  0.115
8008.612  0.117
8009.514  0.118
8010.415  0.117
8011.317  0.113
8012.218  0.110
8013.120  0.111
8014.021  0.111
8014.923  0.109
8015.824  0.114
8016.726  0.118
8017.627  0.115
8018.529  0.114
8019.430  0.117
8020.332  0.119
8021.233  0.116
8022.135  0.117
8023.036  0.116
8023.938  0.109
8024.839  0.109
8025.741  0.105
8026.642  0.107
8027.544  0.111
8028.445  0.108
8029.347  0.113
8030.248  0.116
8031.150  0.113
8032.051  0.112
8032.953  0.112
8033.854  0.113
8034.755  0.114
8035.657  0.115
8036.558  0.114
8037.460  0.114
8038.361  0.113
8039.263  0.113
8040.164  0.116
8041.066  0.116
8041.967  0.114
8042.869  0.116
8043.770  0.117
8044.672  0.116
8045.573  0.117
8046.475  0.118
8047.376  0.116
8048.278  0.114
8049.179  0.114
8050.081  0.112
8050.982  0.110
8051.884  0.108
8052.785  0.107
8053.687  0.111
8054.588  0.113
8055.490  0.111
8056.391  0.112
8057.293  0.114
8058.194  0.114
8059.096  0.114
8059.997  0.111
8060.899  0.107
8061.800  0.106
8062.702  0.103
8063.603  0.104
8064.505  0.105
8065.406  0.107
8066.308  0.112
8067.209  0.114
8068.111  0.114
8069.012  0.112
8069.914  0.109
8070.815  0.110
8071.717  0.111
8072.618  0.110
8073.519  0.112
8074.421  0.113
8075.322  0.112
8076.224  0.110
8077.125  0.110
8078.027  0.110
8078.928  0.111
8079.830  0.109
8080.731  0.109
8081.633  0.109
8082.534  0.107
8083.436  0.107
8084.337  0.105
8085.239  0.103
8086.140  0.105
8087.042  0.108
8087.943  0.108
8088.845  0.107
8089.746  0.108
8090.648  0.108
8091.549  0.106
8092.451  0.106
8093.352  0.107
8094.254  0.109
8095.155  0.109
8096.057  0.108
8096.958  0.108
8097.860  0.107
8098.761  0.106
8099.663  0.105
8100.564  0.106
8101.466  0.108
8102.367  0.103
8103.269  0.101
8104.170  0.101
8105.072  0.106
8105.973  0.109
8106.875  0.107
8107.776  0.104
8108.678  0.104
8109.579  0.105
8110.481  0.105
8111.382  0.102
8112.283  0.099
8113.185  0.099
8114.086  0.099
8114.988  0.101
8115.889  0.105
8116.791  0.106
8117.692  0.106
8118.594  0.107
8119.495  0.105
8120.397  0.103
8121.298  0.102
8122.200  0.098
8123.101  0.096
8124.003  0.100
8124.904  0.102
8125.806  0.101
8126.707  0.100
8127.609  0.100
8128.510  0.099
8129.412  0.096
8130.313  0.095
8131.215  0.094
8132.116  0.091
8133.018  0.087
8133.919  0.083
8134.821  0.084
8135.722  0.088
8136.624  0.092
8137.525  0.097
8138.427  0.098
8139.328  0.095
8140.230  0.091
8141.131  0.088
8142.033  0.088
8142.934  0.090
8143.836  0.092
8144.737  0.090
8145.639  0.088
8146.540  0.086
8147.442  0.081
8148.343  0.078
8149.244  0.082
8150.146  0.086
8151.047  0.091
8151.949  0.091
8152.850  0.084
8153.752  0.079
8154.653  0.083
8155.555  0.088
8156.456  0.090
8157.358  0.092
8158.259  0.094
8159.161  0.095
8160.062  0.088
8160.964  0.078
8161.865  0.070
8162.767  0.067
8163.668  0.068
8164.570  0.073
8165.471  0.081
8166.373  0.089
8167.274  0.089
8168.176  0.083
8169.077  0.078
8169.979  0.078
8170.880  0.085
8171.782  0.094
8172.683  0.101
8173.585  0.104
8174.486  0.098
8175.388  0.088
8176.289  0.077
8177.191  0.067
8178.092  0.066
8178.994  0.070
8179.895  0.078
8180.797  0.085
8181.698  0.089
8182.600  0.091
8183.501  0.092
8184.403  0.094
8185.304  0.093
8186.206  0.091
8187.107  0.088
8188.008  0.084
8188.910  0.082
8189.811  0.084
8190.713  0.089
8191.614  0.091
8192.516  0.090
8193.417  0.090
8194.319  0.092
8195.220  0.095
8196.122  0.092
8197.023  0.085
8197.925  0.081
8198.826  0.077
8199.728  0.080
8200.629  0.085
8201.531  0.091
8202.432  0.098
8203.334  0.104
8204.235  0.104
8205.137  0.103
8206.038  0.104
8206.940  0.106
8207.841  0.103
8208.743  0.099
8209.644  0.098
8210.546  0.097
8211.447  0.095
8212.349  0.095
8213.250  0.097
8214.152  0.099
8215.053  0.103
8215.955  0.102
8216.856  0.101
8217.758  0.097
8218.659  0.096
8219.561  0.096
8220.462  0.094
8221.364  0.093
8222.265  0.091
8223.167  0.088
8224.068  0.086
8224.970  0.081
8225.871  0.070
8226.772  0.059
8227.674  0.051
8228.575  0.048
8229.477  0.051
8230.378  0.058
8231.280  0.065
8232.181  0.071
8233.083  0.078
8233.984  0.084
8234.886  0.086
8235.787  0.088
8236.689  0.090
8237.590  0.092
8238.492  0.094
8239.393  0.096
8240.295  0.097
8241.196  0.093
8242.098  0.088
8242.999  0.086
8243.901  0.088
8244.802  0.091
8245.704  0.097
8246.605  0.101
8247.507  0.101
8248.408  0.101
8249.310  0.100
8250.211  0.096
8251.113  0.094
8252.014  0.094
8252.916  0.091
8253.817  0.091
8254.719  0.089
8255.620  0.083
8256.522  0.079
8257.423  0.080
8258.325  0.082
8259.226  0.087
8260.128  0.092
8261.029  0.095
8261.931  0.095
8262.832  0.092
8263.734  0.092
8264.635  0.097
8265.536  0.099
8266.438  0.101
8267.339  0.102
8268.241  0.099
8269.142  0.097
8270.044  0.096
8270.945  0.092
8271.847  0.089
8272.748  0.088
8273.650  0.087
8274.551  0.087
8275.453  0.085
8276.354  0.089
8277.256  0.088
8278.157  0.079
8279.059  0.078
8279.960  0.080
8280.862  0.078
8281.763  0.079
8282.665  0.082
8283.566  0.088
8284.468  0.095
8285.369  0.096
8286.271  0.089
8287.172  0.071
8288.074  0.058
8288.975  0.065
8289.877  0.076
8290.778  0.095
8291.680  0.107
8292.581  0.100
8293.483  0.094
8294.384  0.085
8295.286  0.078
8296.187  0.084
8297.089  0.086
8297.990  0.077
8298.892  0.073
8299.793  0.070
8300.695  0.081
8301.596  0.094
8302.498  0.094
8303.399  0.088
8304.300  0.086
8305.202  0.088
8306.103  0.092
8307.005  0.096
8307.906  0.100
8308.808  0.097
8309.709  0.089
8310.611  0.086
8311.512  0.085
8312.414  0.087
8313.315  0.092
8314.217  0.095
8315.118  0.096
8316.020  0.092
8316.921  0.092
8317.823  0.093
8318.724  0.091
8319.626  0.088
8320.527  0.086
8321.429  0.087
8322.330  0.091
8323.232  0.097
8324.133  0.100
8325.035  0.100
8325.936  0.101
8326.838  0.100
8327.739  0.097
8328.641  0.097
8329.542  0.097
8330.444  0.097
8331.345  0.098
8332.247  0.098
8333.148  0.095
8334.050  0.094
8334.951  0.097
8335.853  0.097
8336.754  0.095
8337.656  0.095
8338.557  0.095
8339.459  0.092
8340.360  0.099
8341.262  0.099
8342.163  0.070
8343.064  0.060
8343.966  0.067
8344.867  0.071
8345.769  0.073
8346.670  0.070
8347.572  0.084
8348.473  0.101
8349.375  0.102
8350.276  0.089
8351.178  0.088
8352.079  0.101
8352.981  0.094
8353.882  0.088
8354.784  0.089
8355.685  0.096
8356.587  0.104
8357.488  0.104
8358.390  0.108
8359.291  0.118
8360.193  0.119
8361.094  0.105
8361.996  0.098
8362.897  0.108
8363.799  0.113
8364.700  0.112
8365.602  0.112
8366.503  0.109
8367.405  0.107
8368.306  0.111
8369.208  0.114
8370.109  0.113
8371.011  0.112
8371.912  0.116
8372.814  0.117
8373.715  0.120
8374.617  0.119
8375.518  0.115
8376.420  0.119
8377.321  0.120
8378.223  0.116
8379.124  0.115
8380.026  0.114
8380.927  0.111
8381.828  0.108
8382.730  0.109
8383.631  0.112
8384.533  0.107
8385.434  0.108
8386.336  0.121
8387.237  0.124
8388.139  0.122
8389.040  0.114
8389.942  0.112
8390.843  0.116
8391.745  0.108
8392.646  0.110
8393.548  0.113
8394.449  0.105
8395.351  0.106
8396.252  0.109
8397.154  0.115
8398.055  0.111
8398.957  0.114
8399.858  0.103
8400.760  0.077
8401.661  0.079
8402.563  0.092
8403.464  0.094
8404.366  0.092
8405.267  0.090
8406.169  0.090
8407.070  0.090
8407.972  0.091
8408.873  0.093
8409.775  0.094
8410.676  0.094
8411.578  0.093
8412.479  0.092
8413.381  0.094
8414.282  0.094
8415.184  0.089
8416.085  0.085
8416.987  0.085
8417.888  0.088
8418.790  0.092
8419.691  0.093
8420.592  0.092
8421.494  0.093
8422.395  0.096
8423.297  0.097
8424.198  0.097
8425.100  0.099
8426.001  0.097
8426.903  0.092
8427.804  0.092
8428.706  0.099
8429.607  0.099
8430.509  0.085
8431.410  0.073
8432.312  0.066
8433.213  0.081
8434.115  0.097
8435.016  0.097
8435.918  0.095
8436.819  0.095
8437.721  0.097
8438.622  0.097
8439.524  0.095
8440.425  0.095
8441.327  0.094
8442.228  0.094
8443.130  0.097
8444.031  0.099
8444.933  0.096
8445.834  0.095
8446.736  0.097
8447.637  0.097
8448.539  0.095
8449.440  0.095
8450.342  0.096
8451.243  0.095
8452.145  0.094
8453.046  0.089
8453.948  0.083
8454.849  0.086
8455.751  0.092
8456.652  0.096
8457.553  0.096
8458.455  0.095
8459.356  0.093
8460.258  0.093
8461.159  0.094
8462.061  0.092
8462.962  0.091
8463.864  0.092
8464.765  0.087
8465.667  0.084
8466.568  0.082
8467.470  0.085
8468.371  0.095
8469.273  0.098
8470.174  0.096
8471.076  0.095
8471.977  0.095
8472.879  0.095
8473.780  0.094
8474.682  0.094
8475.583  0.091
8476.485  0.092
8477.386  0.093
8478.288  0.095
8479.189  0.097
8480.091  0.097
8480.992  0.095
8481.894  0.093
8482.795  0.095
8483.697  0.095
8484.598  0.094
8485.500  0.095
8486.401  0.096
8487.303  0.095
8488.204  0.093
8489.106  0.092
8490.007  0.091
8490.909  0.091
8491.810  0.092
8492.712  0.091
8493.613  0.090
8494.515  0.088
8495.416  0.091
8496.317  0.094
8497.219  0.096
8498.120  0.097
8499.022  0.096
8499.923  0.094
8500.825  0.093
8501.726  0.092
8502.628  0.089
8503.529  0.090
8504.431  0.089
8505.332  0.087
8506.234  0.086
8507.135  0.086
8508.037  0.089
8508.938  0.093
8509.840  0.095
8510.741  0.093
8511.643  0.092
8512.544  0.093
8513.446  0.094
8514.347  0.095
8515.249  0.097
8516.150  0.097
8517.052  0.096
8517.953  0.094
8518.855  0.095
8519.756  0.095
8520.658  0.095
8521.559  0.093
8522.461  0.095
8523.362  0.095
8524.264  0.092
8525.165  0.094
8526.067  0.096
8526.968  0.095
8527.870  0.095
8528.771  0.095
8529.673  0.093
8530.574  0.094
8531.476  0.095
8532.377  0.094
8533.279  0.094
8534.180  0.094
8535.081  0.094
8535.983  0.093
8536.884  0.092
8537.786  0.092
8538.687  0.092
8539.589  0.091
8540.490  0.090
8541.392  0.091
8542.293  0.092
8543.195  0.091
8544.096  0.091
8544.998  0.094
8545.899  0.094
8546.801  0.094
8547.702  0.093
8548.604  0.091
8549.505  0.089
8550.407  0.089
8551.308  0.090
8552.210  0.091
8553.111  0.091
8554.013  0.091
8554.914  0.092
8555.816  0.094
8556.717  0.093
8557.619  0.094
8558.520  0.094
8559.422  0.091
8560.323  0.090
8561.225  0.091
8562.126  0.091
8563.028  0.090
8563.929  0.091
8564.831  0.091
8565.732  0.091
8566.634  0.091
8567.535  0.091
8568.437  0.093
8569.338  0.092
8570.240  0.090
8571.141  0.090
8572.043  0.092
8572.944  0.093
8573.845  0.092
8574.747  0.089
8575.648  0.089
8576.550  0.089
8577.451  0.089
8578.353  0.092
8579.254  0.094
8580.156  0.095
8581.057  0.092
8581.959  0.090
8582.860  0.090
8583.762  0.090
8584.663  0.091
8585.565  0.091
8586.466  0.089
8587.368  0.088
8588.269  0.088
8589.171  0.087
8590.072  0.086
8590.974  0.087
8591.875  0.091
8592.777  0.091
8593.678  0.089
8594.580  0.089
8595.481  0.089
8596.383  0.091
8597.284  0.093
8598.186  0.093
8599.087  0.093
8599.989  0.091
8600.890  0.089
8601.792  0.088
8602.693  0.089
8603.595  0.091
8604.496  0.091
8605.398  0.091
8606.299  0.091
8607.201  0.091
8608.102  0.089
8609.004  0.089
8609.905  0.087
8610.807  0.087
8611.708  0.089
8612.609  0.091
8613.511  0.090
8614.412  0.089
8615.314  0.088
8616.215  0.084
8617.117  0.082
8618.018  0.083
8618.920  0.082
8619.821  0.081
8620.723  0.083
8621.624  0.084
8622.526  0.083
8623.427  0.084
8624.329  0.086
8625.230  0.084
8626.132  0.082
8627.033  0.083
8627.935  0.082
8628.836  0.078
8629.738  0.078
8630.639  0.081
8631.541  0.079
8632.442  0.078
8633.344  0.082
8634.245  0.084
8635.147  0.082
8636.048  0.083
8636.950  0.085
8637.851  0.083
8638.753  0.082
8639.654  0.084
8640.556  0.086
8641.457  0.087
8642.359  0.085
8643.260  0.083
8644.162  0.083
8645.063  0.086
8645.965  0.089
8646.866  0.089
8647.768  0.087
8648.669  0.086
8649.571  0.087
8650.472  0.085
8651.373  0.081
8652.275  0.081
8653.176  0.081
8654.078  0.084
8654.979  0.088
8655.881  0.085
8656.782  0.086
8657.684  0.090
8658.585  0.091
8659.487  0.088
8660.388  0.087
8661.290  0.088
8662.191  0.083
8663.093  0.084
8663.994  0.089
8664.896  0.088
8665.797  0.084
8666.699  0.083
8667.600  0.084
8668.502  0.089
8669.403  0.088
8670.305  0.085
8671.206  0.085
8672.108  0.086
8673.009  0.085
8673.911  0.086
8674.812  0.088
8675.714  0.088
8676.615  0.087
8677.517  0.087
8678.418  0.087
8679.320  0.086
8680.221  0.087
8681.123  0.090
8682.024  0.090
8682.926  0.088
8683.827  0.088
8684.729  0.091
8685.630  0.090
8686.532  0.088
8687.433  0.089
8688.335  0.090
8689.236  0.091
8690.137  0.092
8691.039  0.089
8691.940  0.086
8692.842  0.086
8693.743  0.087
8694.645  0.089
8695.546  0.089
8696.448  0.091
8697.349  0.092
8698.251  0.090
8699.152  0.090
8700.054  0.088
8700.955  0.086
8701.857  0.087
8702.758  0.089
8703.660  0.087
8704.561  0.087
8705.463  0.088
8706.364  0.089
8707.266  0.088
8708.167  0.086
8709.069  0.087
8709.970  0.090
8710.872  0.092
8711.773  0.092
8712.675  0.090
8713.576  0.088
8714.478  0.089
8715.379  0.090
8716.281  0.088
8717.182  0.087
8718.084  0.086
8718.985  0.087
8719.887  0.088
8720.788  0.087
8721.690  0.086
8722.591  0.089
8723.493  0.091
8724.394  0.089
8725.296  0.087
8726.197  0.089
8727.099  0.090
8728.000  0.091
8728.901  0.092
8729.803  0.092
8730.704  0.091
8731.606  0.092
8732.507  0.091
8733.409  0.092
8734.310  0.096
8735.212  0.096
8736.113  0.093
8737.015  0.091
8737.916  0.091
8738.818  0.090
8739.719  0.089
8740.621  0.088
8741.522  0.089
8742.424  0.091
8743.325  0.091
8744.227  0.091
8745.128  0.089
8746.030  0.089
8746.931  0.092
8747.833  0.093
8748.734  0.094
8749.636  0.097
8750.537  0.096
8751.439  0.094
8752.340  0.093
8753.242  0.093
8754.143  0.093
8755.045  0.094
8755.946  0.090
8756.848  0.086
8757.749  0.084
8758.651  0.082
8759.552  0.078
8760.454  0.073
8761.355  0.075
8762.257  0.078
8763.158  0.077
8764.060  0.074
8764.961  0.075
8765.862  0.077
8766.764  0.076
8767.665  0.076
8768.567  0.079
8769.468  0.076
8770.370  0.074
8771.271  0.082
8772.173  0.089
8773.074  0.092
8773.976  0.085
8774.877  0.077
8775.779  0.077
8776.680  0.075
8777.582  0.068
8778.483  0.067
8779.385  0.074
8780.286  0.080
8781.188  0.081
8782.089  0.085
8782.991  0.087
8783.892  0.085
8784.794  0.082
8785.695  0.083
8786.597  0.084
8787.498  0.084
8788.400  0.083
8789.301  0.081
8790.203  0.082
8791.104  0.085
8792.006  0.084
8792.907  0.083
8793.809  0.083
8794.710  0.085
8795.612  0.087
8796.513  0.089
8797.415  0.089
8798.316  0.089
8799.218  0.091
8800.119  0.089
8801.021  0.086
8801.922  0.084
8802.824  0.085
8803.725  0.086
8804.626  0.089
8805.528  0.090
8806.429  0.090
8807.331  0.090
8808.232  0.090
8809.134  0.090
8810.035  0.087
8810.937  0.081
8811.838  0.082
8812.740  0.086
8813.641  0.085
8814.543  0.082
8815.444  0.083
8816.346  0.086
8817.247  0.086
8818.149  0.084
8819.050  0.083
8819.952  0.085
8820.853  0.086
8821.755  0.085
8822.656  0.086
8823.558  0.092
8824.459  0.083
8825.361  0.062
8826.262  0.061
8827.164  0.068
8828.065  0.074
8828.967  0.068
8829.868  0.057
8830.770  0.063
8831.671  0.077
8832.573  0.077
8833.474  0.074
8834.376  0.077
8835.277  0.076
8836.179  0.076
8837.080  0.083
8837.982  0.082
8838.883  0.079
8839.785  0.082
8840.686  0.085
8841.588  0.086
8842.489  0.087
8843.390  0.084
8844.292  0.083
8845.193  0.085
8846.095  0.086
8846.996  0.084
8847.898  0.080
8848.799  0.083
8849.701  0.089
8850.602  0.087
8851.504  0.081
8852.405  0.080
8853.307  0.085
8854.208  0.088
8855.110  0.085
8856.011  0.084
8856.913  0.085
8857.814  0.086
8858.716  0.087
8859.617  0.089
8860.519  0.091
8861.420  0.091
8862.322  0.092
8863.223  0.093
8864.125  0.090
8865.026  0.085
8865.928  0.082
8866.829  0.083
8867.731  0.087
8868.632  0.088
8869.534  0.083
8870.435  0.081
8871.337  0.081
8872.238  0.084
8873.140  0.086
8874.041  0.086
8874.943  0.084
8875.844  0.082
8876.746  0.080
8877.647  0.080
8878.549  0.081
8879.450  0.080
8880.352  0.080
8881.253  0.083
8882.154  0.087
8883.056  0.081
8883.957  0.068
8884.859  0.061
8885.760  0.065
8886.662  0.068
8887.563  0.072
8888.465  0.073
8889.366  0.073
8890.268  0.075
8891.169  0.079
8892.071  0.083
8892.972  0.081
8893.874  0.079
8894.775  0.078
8895.677  0.078
8896.578  0.079
8897.480  0.080
8898.381  0.081
8899.283  0.081
8900.184  0.077
8901.086  0.072
8901.987  0.069
8902.889  0.069
8903.790  0.071
8904.692  0.074
8905.593  0.075
8906.495  0.076
8907.396  0.078
8908.298  0.079
8909.199  0.081
8910.101  0.082
8911.002  0.082
8911.904  0.082
8912.805  0.079
8913.707  0.077
8914.608  0.079
8915.510  0.078
8916.411  0.066
8917.313  0.060
8918.214  0.060
8919.116  0.055
8920.017  0.059
8920.918  0.070
8921.820  0.073
8922.721  0.073
8923.623  0.076
8924.524  0.077
8925.426  0.080
8926.327  0.083
8927.229  0.085
8928.130  0.084
8929.032  0.080
8929.933  0.077
8930.835  0.078
8931.736  0.079
8932.638  0.078
8933.539  0.076
8934.441  0.075
8935.342  0.075
8936.244  0.074
8937.145  0.075
8938.047  0.076
8938.948  0.076
8939.850  0.075
8940.751  0.072
8941.653  0.070
8942.554  0.066
8943.456  0.067
8944.357  0.071
8945.259  0.072
8946.160  0.069
8947.062  0.072
8947.963  0.075
8948.865  0.076
8949.766  0.076
8950.668  0.077
8951.569  0.077
8952.471  0.076
8953.372  0.075
8954.274  0.074
8955.175  0.066
8956.077  0.057
8956.978  0.054
8957.880  0.057
8958.781  0.066
8959.682  0.073
8960.584  0.073
8961.485  0.070
8962.387  0.070
8963.288  0.074
8964.190  0.076
8965.091  0.077
8965.993  0.079
8966.894  0.080
8967.796  0.081
8968.697  0.084
8969.599  0.082
8970.500  0.079
8971.402  0.078
8972.303  0.078
8973.205  0.078
8974.106  0.079
8975.008  0.080
8975.909  0.080
8976.811  0.081
8977.712  0.081
8978.614  0.080
8979.515  0.080
8980.417  0.081
8981.318  0.081
8982.220  0.080
8983.121  0.080
8984.023  0.079
8984.924  0.077
8985.826  0.076
8986.727  0.074
8987.629  0.075
8988.530  0.074
8989.432  0.070
8990.333  0.066
8991.235  0.066
8992.136  0.071
8993.038  0.076
8993.939  0.079
8994.841  0.080
8995.742  0.079
8996.644  0.079
8997.545  0.081
8998.446  0.080
8999.348  0.073
9000.249  0.063
9001.151  0.058
9002.052  0.063
9002.954  0.071
9003.855  0.078
9004.757  0.078
9005.658  0.074
9006.560  0.076
9007.461  0.075
9008.363  0.075
9009.264  0.081
9010.166  0.085
9011.067  0.084
9011.969  0.083
9012.870  0.084
9013.772  0.087
9014.673  0.089
9015.575  0.088
9016.476  0.086
9017.378  0.082
9018.279  0.078
9019.181  0.079
9020.082  0.081
9020.984  0.083
9021.885  0.082
9022.787  0.080
9023.688  0.079
9024.590  0.078
9025.491  0.079
9026.393  0.078
9027.294  0.077
9028.196  0.078
9029.097  0.077
9029.999  0.077
9030.900  0.078
9031.802  0.079
9032.703  0.079
9033.605  0.077
9034.506  0.077
9035.408  0.078
9036.309  0.077
9037.210  0.073
9038.112  0.071
9039.013  0.073
9039.915  0.075
9040.816  0.078
9041.718  0.077
9042.619  0.074
9043.521  0.070
9044.422  0.071
9045.324  0.073
9046.225  0.071
9047.127  0.067
9048.028  0.066
9048.930  0.066
9049.831  0.068
9050.733  0.069
9051.634  0.067
9052.536  0.070
9053.437  0.075
9054.339  0.075
9055.240  0.074
9056.142  0.073
9057.043  0.072
9057.945  0.074
9058.846  0.076
9059.748  0.076
9060.649  0.076
9061.551  0.077
9062.452  0.077
9063.354  0.076
9064.255  0.071
9065.157  0.069
9066.058  0.071
9066.960  0.071
9067.861  0.068
9068.763  0.070
9069.664  0.073
9070.566  0.071
9071.467  0.068
9072.369  0.067
9073.270  0.066
9074.171  0.066
9075.073  0.068
9075.974  0.070
9076.876  0.071
9077.777  0.071
9078.679  0.071
9079.580  0.071
9080.482  0.069
9081.383  0.067
9082.285  0.069
9083.186  0.070
9084.088  0.070
9084.989  0.072
9085.891  0.071
9086.792  0.071
9087.694  0.074
9088.595  0.075
9089.497  0.074
9090.398  0.074
9091.300  0.071
9092.201  0.068
9093.103  0.068
9094.004  0.072
9094.906  0.075
9095.807  0.074
9096.709  0.074
9097.610  0.073
9098.512  0.071
9099.413  0.069
9100.315  0.068
9101.216  0.066
9102.118  0.065
9103.019  0.065
9103.921  0.068
9104.822  0.070
9105.724  0.070
9106.625  0.066
9107.527  0.064
9108.428  0.066
9109.330  0.069
9110.231  0.069
9111.133  0.072
9112.034  0.075
9112.935  0.076
9113.837  0.073
9114.738  0.071
9115.640  0.071
9116.541  0.069
9117.443  0.069
9118.344  0.069
9119.246  0.070
9120.147  0.072
9121.049  0.072
9121.950  0.071
9122.852  0.073
9123.753  0.073
9124.655  0.073
9125.556  0.074
9126.458  0.071
9127.359  0.068
9128.261  0.069
9129.162  0.069
9130.064  0.069
9130.965  0.070
9131.867  0.071
9132.768  0.070
9133.670  0.068
9134.571  0.066
9135.473  0.066
9136.374  0.068
9137.276  0.071
9138.177  0.071
9139.079  0.070
9139.980  0.071
9140.882  0.072
9141.783  0.072
9142.685  0.071
9143.586  0.071
9144.488  0.070
9145.389  0.070
9146.291  0.071
9147.192  0.070
9148.094  0.069
9148.995  0.071
9149.897  0.071
9150.798  0.067
9151.699  0.064
9152.601  0.064
9153.502  0.065
9154.404  0.065
9155.305  0.064
9156.207  0.064
9157.108  0.067
9158.010  0.069
9158.911  0.069
9159.813  0.068
9160.714  0.068
9161.616  0.068
9162.517  0.067
9163.419  0.070
9164.320  0.072
9165.222  0.071
9166.123  0.071
9167.025  0.071
9167.926  0.071
9168.828  0.070
9169.729  0.071
9170.631  0.072
9171.532  0.071
9172.434  0.068
9173.335  0.067
9174.237  0.067
9175.138  0.067
9176.040  0.067
9176.941  0.067
9177.843  0.066
9178.744  0.065
9179.646  0.066
9180.547  0.067
9181.449  0.070
9182.350  0.071
9183.252  0.070
9184.153  0.068
9185.055  0.067
9185.956  0.068
9186.858  0.068
9187.759  0.069
9188.661  0.070
9189.562  0.070
9190.463  0.069
9191.365  0.069
9192.266  0.069
9193.168  0.070
9194.069  0.070
9194.971  0.070
9195.872  0.069
9196.774  0.069
9197.675  0.069
9198.577  0.072
9199.478  0.075
9200.380  0.073
9201.281  0.071
9202.183  0.072
9203.084  0.072
9203.986  0.072
9204.887  0.073
9205.789  0.071
9206.690  0.069
9207.592  0.069
9208.493  0.070
9209.395  0.071
9210.296  0.070
9211.198  0.072
9212.099  0.073
9213.001  0.073
9213.902  0.071
9214.804  0.069
9215.705  0.067
9216.607  0.067
9217.508  0.069
9218.410  0.071
9219.311  0.072
9220.213  0.073
9221.114  0.073
9222.016  0.074
9222.917  0.071
9223.819  0.071
9224.720  0.073
9225.622  0.074
9226.523  0.076
9227.425  0.077
9228.326  0.079
9229.227  0.081
9230.129  0.079
9231.030  0.076
9231.932  0.074
9232.833  0.073
9233.735  0.073
9234.636  0.074
9235.538  0.075
9236.439  0.074
9237.341  0.072
9238.242  0.071
9239.144  0.069
9240.045  0.070
9240.947  0.069
9241.848  0.069
9242.750  0.070
9243.651  0.070
9244.553  0.071
9245.454  0.070
9246.356  0.068
9247.257  0.068
9248.159  0.070
9249.060  0.071
9249.962  0.071
9250.863  0.069
9251.765  0.068
9252.666  0.067
9253.568  0.067
9254.469  0.070
9255.371  0.072
9256.272  0.071
9257.174  0.070
9258.075  0.070
9258.977  0.069
9259.878  0.068
9260.780  0.068
9261.681  0.069
9262.583  0.070
9263.484  0.070
9264.386  0.068
9265.287  0.068
9266.189  0.069
9267.090  0.069
9267.991  0.068
9268.893  0.068
9269.794  0.068
9270.696  0.066
9271.597  0.064
9272.499  0.064
9273.400  0.065
9274.302  0.064
9275.203  0.063
9276.105  0.065
9277.006  0.065
9277.908  0.061
9278.809  0.058
9279.711  0.059
9280.612  0.061
9281.514  0.062
9282.415  0.063
9283.317  0.061
9284.218  0.062
9285.120  0.063
9286.021  0.062
9286.923  0.062
9287.824  0.063
9288.726  0.063
9289.627  0.061
9290.529  0.062
9291.430  0.063
9292.332  0.062
9293.233  0.061
9294.135  0.061
9295.036  0.060
9295.938  0.057
9296.839  0.057
9297.741  0.061
9298.642  0.063
9299.544  0.062
9300.445  0.060
9301.347  0.058
9302.248  0.054
9303.150  0.053
9304.051  0.054
9304.953  0.050
9305.854  0.046
9306.755  0.043
9307.657  0.043
9308.558  0.050
9309.460  0.054
9310.361  0.041
9311.263  0.036
9312.164  0.054
9313.066  0.056
9313.967  0.038
9314.869  0.033
9315.770  0.014
9316.672  0.024
9317.573  0.050
9318.475  0.052
9319.376  0.042
9320.278  0.039
9321.179  0.050
9322.081  0.064
9322.982  0.067
9323.884  0.051
9324.785  0.033
9325.687  0.035
9326.588  0.043
9327.490  0.048
9328.391  0.051
9329.293  0.053
9330.194  0.054
9331.096  0.056
9331.997  0.059
9332.899  0.057
9333.800  0.049
9334.702  0.047
9335.603  0.050
9336.505  0.045
9337.406  0.041
9338.308  0.046
9339.209  0.050
9340.111  0.051
9341.012  0.053
9341.914  0.056
9342.815  0.058
9343.717  0.058
9344.618  0.057
9345.519  0.052
9346.421  0.050
9347.322  0.053
9348.224  0.057
9349.125  0.058
9350.027  0.056
9350.928  0.053
9351.830  0.052
9352.731  0.054
9353.633  0.054
9354.534  0.051
9355.436  0.050
9356.337  0.048
9357.239  0.048
9358.140  0.053
9359.042  0.055
9359.943  0.054
9360.845  0.054
9361.746  0.053
9362.648  0.051
9363.549  0.052
9364.451  0.056
9365.352  0.056
9366.254  0.053
9367.155  0.051
9368.057  0.050
9368.958  0.047
9369.860  0.046
9370.761  0.037
9371.663  0.025
9372.564  0.037
9373.466  0.028
9374.367  0.017
9375.269  0.045
9376.170  0.074
9377.072  0.050
9377.973 -0.01 
9378.875 -0.02 
9379.776  0.029
9380.678  0.048
9381.579  0.051
9382.480  0.048
9383.382  0.047
9384.283  0.049
9385.185  0.052
9386.086  0.055
9386.988  0.057
9387.889  0.058
9388.791  0.057
9389.692  0.056
9390.594  0.058
9391.495  0.060
9392.397  0.060
9393.298  0.057
9394.200  0.055
9395.101  0.054
9396.003  0.055
9396.904  0.057
9397.806  0.055
9398.707  0.051
9399.609  0.048
9400.510  0.054
9401.412  0.061
9402.313  0.056
9403.215  0.051
9404.116  0.052
9405.018  0.059
9405.919  0.063
9406.821  0.064
9407.722  0.062
9408.624  0.059
9409.525  0.055
9410.427  0.052
9411.328  0.049
9412.230  0.050
9413.131  0.056
9414.033  0.061
9414.934  0.062
9415.836  0.060
9416.737  0.053
9417.639  0.054
9418.540  0.061
9419.442  0.056
9420.343  0.049
9421.244  0.043
9422.146  0.043
9423.047  0.048
9423.949  0.051
9424.850  0.052
9425.752  0.054
9426.653  0.055
9427.555  0.049
9428.456  0.045
9429.358  0.047
9430.259  0.048
9431.161  0.050
9432.062  0.051
9432.964  0.053
9433.865  0.057
9434.767  0.059
9435.668  0.053
9436.570  0.045
9437.471  0.042
9438.373  0.059
9439.274  0.060
9440.176  0.037
9441.077  0.024
9441.979  0.016
9442.880  0.042
9443.782  0.053
9444.683  0.051
9445.585  0.052
9446.486  0.051
9447.388  0.049
9448.289  0.050
9449.191  0.051
9450.092  0.052
9450.994  0.052
9451.895  0.050
9452.797  0.049
9453.698  0.048
9454.600  0.040
9455.501  0.033
9456.403  0.043
9457.304  0.044
9458.206  0.032
9459.107  0.028
9460.008  0.027
9460.910  0.025
9461.811  0.038
9462.713  0.050
9463.614  0.052
9464.516  0.050
9465.417  0.049
9466.319  0.048
9467.220  0.048
9468.122  0.049
9469.023  0.051
9469.925  0.050
9470.826  0.051
9471.728  0.051
9472.629  0.047
9473.531  0.042
9474.432  0.048
9475.334  0.060
9476.235  0.040
9477.137  0.030
9478.038  0.038
9478.940  0.031
9479.841  0.016
9480.743  0.029
9481.644  0.043
9482.546  0.047
9483.447  0.050
9484.349  0.052
9485.250  0.053
9486.152  0.051
9487.053  0.051
9487.955  0.052
9488.856  0.051
9489.758  0.054
9490.659  0.057
9491.561  0.057
9492.462  0.055
9493.364  0.051
9494.265  0.048
9495.167  0.045
9496.068  0.043
9496.970  0.046
9497.871  0.049
9498.772  0.040
9499.674  0.032
9500.575  0.041
9501.477  0.043
9502.378  0.036
9503.280  0.037
9504.181  0.042
9505.083  0.051
9505.984  0.055
9506.886  0.051
9507.787  0.052
9508.689  0.054
9509.590  0.053
9510.492  0.052
9511.393  0.051
9512.295  0.051
9513.196  0.050
9514.098  0.051
9514.999  0.051
9515.901  0.053
9516.802  0.053
9517.704  0.049
9518.605  0.049
9519.507  0.050
9520.408  0.052
9521.310  0.048
9522.211  0.045
9523.113  0.050
9524.014  0.051
9524.916  0.050
9525.817  0.050
9526.719  0.051
9527.620  0.054
9528.522  0.056
9529.423  0.054
9530.325  0.053
9531.226  0.053
9532.128  0.054
9533.029  0.053
9533.931  0.051
9534.832  0.049
9535.734  0.048
9536.635  0.052
9537.536  0.054
9538.438  0.053
9539.339  0.053
9540.241  0.053
9541.142  0.056
9542.044  0.057
9542.945  0.057
9543.847  0.058
9544.748  0.060
9545.650  0.061
9546.551  0.059
9547.453  0.057
9548.354  0.057
9549.256  0.058
9550.157  0.055
9551.059  0.050
9551.960  0.046
9552.862  0.045
9553.763  0.048
9554.665  0.052
9555.566  0.047
9556.468  0.044
9557.369  0.051
9558.271  0.054
9559.172  0.053
9560.074  0.053
9560.975  0.053
9561.877  0.050
9562.778  0.042
9563.680  0.042
9564.581  0.047
9565.483  0.045
9566.384  0.031
9567.286  0.022
9568.187  0.029
9569.089  0.038
9569.990  0.045
9570.892  0.047
9571.793  0.049
9572.695  0.054
9573.596  0.054
9574.498  0.052
9575.399  0.052
9576.300  0.054
9577.202  0.054
9578.103  0.052
9579.005  0.049
9579.906  0.046
9580.808  0.049
9581.709  0.054
9582.611  0.054
9583.512  0.053
9584.414  0.052
9585.315  0.051
9586.217  0.052
9587.118  0.050
9588.020  0.048
9588.921  0.049
9589.823  0.050
9590.724  0.051
9591.626  0.049
9592.527  0.046
9593.429  0.047
9594.330  0.049
9595.232  0.049
9596.133  0.048
9597.035  0.049
9597.936  0.051
9598.838  0.050
9599.739  0.051
9600.641  0.053
9601.542  0.053
9602.444  0.052
9603.345  0.054
9604.247  0.054
9605.148  0.052
9606.050  0.051
9606.951  0.046
9607.853  0.041
9608.754  0.042
9609.656  0.047
9610.557  0.048
9611.459  0.050
9612.360  0.053
9613.262  0.056
9614.163  0.055
9615.064  0.053
9615.966  0.051
9616.867  0.051
9617.769  0.050
9618.670  0.049
9619.572  0.050
9620.473  0.049
9621.375  0.046
9622.276  0.045
9623.178  0.044
9624.079  0.047
9624.981  0.047
9625.882  0.046
9626.784  0.050
9627.685  0.051
9628.587  0.050
9629.488  0.050
9630.390  0.052
9631.291  0.053
9632.193  0.053
9633.094  0.052
9633.996  0.051
9634.897  0.052
9635.799  0.052
9636.700  0.051
9637.602  0.050
9638.503  0.050
9639.405  0.053
9640.306  0.054
9641.208  0.056
9642.109  0.056
9643.011  0.052
9643.912  0.049
9644.814  0.052
9645.715  0.053
9646.617  0.050
9647.518  0.048
9648.420  0.049
9649.321  0.051
9650.223  0.051
9651.124  0.052
9652.026  0.051
9652.927  0.048
9653.828  0.048
9654.730  0.048
9655.631  0.048
9656.533  0.049
9657.434  0.051
9658.336  0.053
9659.237  0.053
9660.139  0.050
9661.040  0.047
9661.942  0.049
9662.843  0.050
9663.745  0.047
9664.646  0.043
9665.548  0.045
9666.449  0.049
9667.351  0.046
9668.252  0.046
9669.154  0.046
9670.055  0.045
9670.957  0.045
9671.858  0.048
9672.760  0.050
9673.661  0.050
9674.563  0.051
9675.464  0.052
9676.366  0.052
9677.267  0.051
9678.169  0.052
9679.070  0.054
9679.972  0.054
9680.873  0.049
9681.775  0.043
9682.676  0.042
9683.578  0.045
9684.479  0.047
9685.381  0.049
9686.282  0.049
9687.184  0.049
9688.085  0.051
9688.987  0.052
9689.888  0.047
9690.789  0.046
9691.691  0.050
9692.592  0.051
9693.494  0.049
9694.395  0.048
9695.297  0.050
9696.198  0.056
9697.100  0.056
9698.001  0.045
9698.903  0.036
9699.804  0.039
9700.706  0.041
9701.607  0.038
9702.509  0.042
9703.410  0.050
9704.312  0.051
9705.213  0.049
9706.115  0.051
9707.016  0.052
9707.918  0.051
9708.819  0.053
9709.721  0.058
9710.622  0.058
9711.524  0.057
9712.425  0.057
9713.327  0.053
9714.228  0.050
9715.130  0.052
9716.031  0.055
9716.933  0.058
9717.834  0.052
9718.736  0.041
9719.637  0.037
9720.539  0.039
9721.440  0.042
9722.342  0.047
9723.243  0.048
9724.145  0.050
9725.046  0.051
9725.948  0.048
9726.849  0.047
9727.751  0.049
9728.652  0.051
9729.553  0.051
9730.455  0.050
9731.356  0.050
9732.258  0.054
9733.159  0.052
9734.061  0.051
9734.962  0.052
9735.864  0.050
9736.765  0.040
9737.667  0.036
9738.568  0.040
9739.470  0.046
9740.371  0.050
9741.273  0.050
9742.174  0.047
9743.076  0.046
9743.977  0.048
9744.879  0.049
9745.780  0.049
9746.682  0.050
9747.583  0.050
9748.485  0.049
9749.386  0.052
9750.288  0.054
9751.189  0.055
9752.091  0.054
9752.992  0.052
9753.894  0.050
9754.795  0.050
9755.697  0.050
9756.598  0.050
9757.500  0.050
9758.401  0.050
9759.303  0.049
9760.204  0.050
9761.106  0.052
9762.007  0.052
9762.909  0.050
9763.810  0.050
9764.712  0.054
9765.613  0.057
9766.515  0.057
9767.416  0.056
9768.317  0.057
9769.219  0.054
9770.120  0.050
9771.022  0.052
9771.923  0.054
9772.825  0.053
9773.726  0.054
9774.628  0.055
9775.529  0.053
9776.431  0.053
9777.332  0.054
9778.234  0.054
9779.135  0.052
9780.037  0.052
9780.938  0.053
9781.840  0.054
9782.741  0.056
9783.643  0.053
9784.544  0.052
9785.446  0.053
9786.347  0.054
9787.249  0.056
9788.150  0.054
9789.052  0.050
9789.953  0.042
9790.855  0.039
9791.756  0.045
9792.658  0.047
9793.559  0.049
9794.461  0.050
9795.362  0.050
9796.264  0.049
9797.165  0.049
9798.067  0.051
9798.968  0.049
9799.870  0.047
9800.771  0.049
9801.673  0.050
9802.574  0.045
9803.476  0.044
9804.377  0.048
9805.279  0.054
9806.180  0.054
9807.081  0.051
9807.983  0.050
9808.884  0.049
9809.786  0.050
9810.687  0.052
9811.589  0.052
9812.490  0.050
9813.392  0.047
9814.293  0.047
9815.195  0.048
9816.096  0.047
9816.998  0.046
9817.899  0.050
9818.801  0.057
9819.702  0.058
9820.604  0.054
9821.505  0.051
9822.407  0.053
9823.308  0.055
9824.210  0.055
9825.111  0.054
9826.013  0.051
9826.914  0.049
9827.816  0.049
9828.717  0.054
9829.619  0.059
9830.520  0.058
9831.422  0.055
9832.323  0.056
9833.225  0.054
9834.126  0.054
9835.028  0.054
9835.929  0.054
9836.831  0.055
9837.732  0.056
9838.634  0.056
9839.535  0.055
9840.437  0.055
9841.338  0.056
9842.240  0.053
9843.141  0.052
9844.043  0.052
9844.944  0.054
9845.845  0.052
9846.747  0.048
9847.648  0.043
9848.550  0.039
9849.451  0.042
9850.353  0.047
9851.254  0.051
9852.156  0.056
9853.057  0.055
9853.959  0.054
9854.860  0.053
9855.762  0.053
9856.663  0.056
9857.565  0.060
9858.466  0.060
9859.368  0.057
9860.269  0.055
9861.171  0.057
9862.072  0.060
9862.974  0.063
9863.875  0.060
9864.777  0.055
9865.678  0.056
9866.580  0.058
9867.481  0.058
9868.383  0.060
9869.284  0.065
9870.186  0.060
9871.087  0.039
9871.989  0.021
9872.890  0.026
9873.792  0.035
9874.693  0.045
9875.595  0.059
9876.496  0.055
9877.398  0.050
9878.299  0.052
9879.201  0.055
9880.102  0.057
9881.004  0.056
9881.905  0.057
9882.807  0.059
9883.708  0.058
9884.609  0.054
9885.511  0.052
9886.412  0.054
9887.314  0.055
9888.215  0.056
9889.117  0.059
9890.018  0.058
9890.920  0.055
9891.821  0.058
9892.723  0.056
9893.624  0.046
9894.526  0.042
9895.427  0.050
9896.329  0.051
9897.230  0.043
9898.132  0.045
9899.033  0.051
9899.935  0.054
9900.836  0.057
9901.738  0.055
9902.639  0.054
9903.541  0.057
9904.442  0.059
9905.344  0.059
9906.245  0.057
9907.147  0.054
9908.048  0.053
9908.950  0.053
9909.851  0.051
9910.753  0.058
9911.654  0.069
9912.556  0.062
9913.457  0.036
9914.359  0.017
9915.260  0.013
9916.162  0.024
9917.063  0.038
9917.965  0.047
9918.866  0.053
9919.768  0.056
9920.669  0.055
9921.571  0.055
9922.472  0.058
9923.373  0.057
9924.275  0.052
9925.176  0.051
9926.078  0.055
9926.979  0.058
9927.881  0.054
9928.782  0.049
9929.684  0.052
9930.585  0.055
9931.487  0.053
9932.388  0.051
9933.290  0.053
9934.191  0.055
9935.093  0.058
9935.994  0.057
9936.896  0.053
9937.797  0.052
9938.699  0.055
9939.600  0.054
9940.502  0.042
9941.403  0.030
9942.305  0.029
9943.206  0.037
9944.108  0.043
9945.009  0.044
9945.911  0.036
9946.812  0.026
9947.714  0.025
9948.615  0.030
9949.517  0.033
9950.418  0.036
9951.320  0.045
9952.221  0.048
9953.123  0.047
9954.024  0.058
9954.926  0.056
9955.827  0.029
9956.729  0.014
9957.630  0.020
9958.532  0.028
9959.433  0.046
9960.335  0.054
9961.236  0.042
9962.137  0.034
9963.039  0.036
9963.940  0.041
9964.842  0.051
9965.743  0.055
9966.645  0.053
9967.546  0.052
9968.448  0.054
9969.349  0.059
9970.251  0.060
9971.152  0.053
9972.054  0.042
9972.955  0.037
9973.857  0.041
9974.758  0.049
9975.660  0.056
9976.561  0.059
9977.463  0.053
9978.364  0.048
9979.266  0.054
9980.167  0.058
9981.069  0.055
9981.970  0.054
9982.872  0.057
9983.773  0.057
9984.675  0.052
9985.576  0.049
9986.478  0.049
9987.379  0.049
9988.281  0.050
9989.182  0.051
9990.084  0.052
9990.985  0.052
9991.887  0.049
9992.788  0.048
9993.690  0.052
9994.591  0.056
9995.493  0.058
9996.394  0.057
9997.296  0.058
9998.197  0.053
9999.098  0.045