 texplosion  fnickel     Pspin  log(Bfield)      Mns  thetaPB   mejecta    kappa  kappagamma     vejecta  temperature    alpha  cutoff_wavelength  log(nhhost)      A_V         MJD0   kenergy  mnickel             TSD   log(L0)  Peak_mag     Peak_MJD  log(E_rad)  log(Peak_lum)  Rise_Time     E_fold  tau_1  delta_m15     r_peak     frac 
  -10.01326  0.18532   1.04752     14.25211  1.78825   1.3527  14.63998  0.06341     0.06863  3932.24348   6271.47966  0.37631         5610.47459     20.14986  0.07845  55257.39974   1.35036  2.71302     57062.17131  47.72461  17.77037  55323.61175    51.27884       44.45733   23.09864   52.79689   70.5    0.10264  -20.95923  0.98792 
    -6.9706  0.14661   3.98344     14.34137  1.57769  0.71141  13.93309  0.08803     0.05119  4253.92778   6712.99229  4.44081         3860.80055      19.6515   0.0249   55260.4424   1.50402  2.04278    482619.15509  45.58275   18.1908  55323.61175     50.8648       43.81457   39.59767   89.09475   75.0    0.08748  -20.88748  0.83483 
  -12.66935  0.08311   5.54809     14.33917  1.68495  0.70756  27.83809  0.04768       0.027  4005.46835   6018.17302  4.82034         3925.98551     18.05202  0.00063  55254.74365   2.66424  2.31375   1010066.41551   45.0028  18.37825  55338.44371    50.83183       43.72294   42.89747  108.89359   83.5    0.07567   -20.6833  0.71523 
  -21.40601  0.11786    4.9688     14.32478   1.8462  0.94872  26.92365  0.06077     0.01998  4024.88802   5532.00749  0.96977         3272.34331     16.38009    1e-05  55246.00699   2.60177  3.17317    948516.06236  45.16558   17.9279  55327.31974      50.959       43.94927   49.49709   79.19534   95.5    0.05726  -20.37414  0.72509 
   -2.78117  0.05333   0.81236     14.74763  2.07356   1.1036  71.30521  0.02309     0.32826  4717.91211    5597.0496  4.52714         2878.65653     19.28051   0.0106  55264.63183   9.46778  3.80237      4062.33062  49.15729  17.91564  55319.90376    50.92364       43.91672   39.59767   79.19534   98.5     0.0683  -20.42988  0.99858 
   -6.82296  0.03849   1.37733        14.71  1.62171  0.60798  98.40715  0.01096     0.38377  2829.41428   5309.91691  1.92739         4128.03219     17.38691  0.00014  55260.59004   4.69945  3.78782     10861.16819  48.16486  17.68284  55312.48777    50.88648       43.91901   39.59767   69.29592  104.5    0.04625  -20.37912  0.97494 
  -18.56034  0.09328   4.16452     14.83275  1.54406  0.17414  25.36183  0.06855     0.02283  3774.16434   6069.15236  2.30051          3144.2095     18.78582  0.00339  55248.85266   2.15501  2.36576     53716.92326  46.48827   17.6811  55323.61175    51.07482       44.15478   32.99806   65.99611   94.0    0.05437  -20.39966  0.79361 
  -22.29166   0.1273   5.73452     14.59546  1.63169  0.68828  35.20877  0.06357     0.09178  3533.18424   5177.23973  3.60885         3724.00716     17.44169  0.00015  55245.12134   2.62187  4.48215    321018.02533  45.45796  18.64632  55353.27568     50.8189       43.57911  102.29398  135.29203  108.5    0.03827  -20.18914  0.53979 
   -4.40678  0.03639   1.31762       14.916  1.70586  0.22629  71.99228  0.01993     0.02104  5467.56579   5814.41117  2.25466         2505.21196     17.38515  0.00013  55263.00622  12.83811  2.61949      4048.97136  48.65386     17.75  55319.90376    51.02709       44.05927   29.69825   75.89553   67.0    0.09117  -20.99917  0.97891 
  -20.68529  0.22238   3.12361     14.51094  1.71549   0.8465  18.16852  0.09886     0.09746  3538.48812   5610.84668  1.11815         2950.73049     18.19601  0.00087  55246.72771   1.35701  4.04024    147788.19281  46.34428  18.06763  55323.61175     50.8383       43.77033   46.19728   92.39456  108.0    0.04271  -20.13684   0.8278 
  -25.19564   0.1838   7.46711     14.48231  1.69504  0.67417  25.16078  0.06352     0.08671  3916.33475   5204.52065   4.8742         2738.95243      20.1062  0.07095  55242.21736   2.30203  4.62454     952092.5142  44.77304  17.97432  55323.61175    51.09791       44.17296   36.29786   62.69631  105.5    0.04997  -20.28374  0.41162 
  -24.05711  0.20017   7.46614     14.61319  1.63614   0.8775  27.80198  0.04663     0.39099  3841.42838   4870.34012   0.6067         2745.90702     17.31682  0.00012  55243.35589   2.44731  5.56499    502853.44355  45.03503  17.98945  55327.31974    51.12456       44.20945   32.99806   62.69631  106.0     0.0485  -20.21017  0.35864 
   -8.93808  0.09161   2.18701     14.58088  1.48162  0.57782  34.34304  0.07999     0.04795  4284.82152   5778.30413  3.36444          3731.8149     19.24752  0.00982  55258.47492   3.76124  3.14619     45341.99304  47.10338  17.56946  55319.90376    51.15949       44.29298   26.39845    56.0967  101.0    0.04329  -20.40523  0.91271 
  -47.69742  0.17378   6.21437     14.65682  1.74931   0.9199  33.70399  0.09127     0.34468  3005.45734   5066.26585  0.70996         3695.46035     18.63912  0.00242  55219.71558   1.81606  5.85693    304680.10507  45.44107  18.17387  55334.73572    51.11449       44.16626   32.99806   69.29592  120.0    0.02927  -19.90002  0.46021 
    -8.1788  0.18539   3.29007     14.39427  1.60149  1.34866  20.95411  0.08306      0.2684  4860.06767   5144.64341  2.88801         3821.41905     18.74593  0.00309   55259.2342   2.95244  3.88476    261941.29025  46.02076  18.56299  55342.15171    50.79487       43.59037   89.09475  128.69242   88.0    0.06502  -20.62563  0.80252 
   -4.77968  0.03608   1.29072     14.38364  1.77261  1.35385  89.28169  0.01436     0.02328  4580.30313   6023.68464   3.9541         2267.39587     19.76254  0.03216  55262.63332  11.17321  3.22105     46862.25592  47.62497  18.07958  55331.02773     51.0702       44.12472   29.69825   69.29592   80.0    0.08665  -20.69981  0.97963 
  -19.20071  0.13674    6.2056     14.60541  1.83581  0.47286  23.83619  0.06009     0.05156  3669.02369   5838.44493  3.34979          2946.8182     18.91773   0.0046  55248.21229    1.9141   3.2594    404015.17477  45.34071   18.2877  55334.73572    50.91938       43.82467   39.59767  105.59378  102.0     0.0532  -20.27921  0.61909 
  -22.72645  0.07249   5.21865     14.42578  1.76178  0.68382  58.32046  0.03741     0.01785  3844.09377   5824.76246  3.31541         2998.32291     20.52592  0.18649  55244.68655   5.14086  4.22766    627068.96593  45.28237  17.86408  55323.61175    51.01605       44.04487   32.99806   72.59573  108.0    0.04213  -20.37083  0.62569 
  -33.42656  0.24544  16.76669     14.02609  1.63108     1.48  24.04541  0.05342     0.02041  3517.82702   4936.78957  3.60184         3283.92423     16.91774    5e-05  55233.98644   1.77504   5.9018  37757819.32362  42.45542  18.34574  55338.44371      50.874       43.77998    56.0967   98.99417  111.0    0.04903  -20.24648  0.07462 
  -27.97515  0.16358   6.38275     14.25392  1.73922  1.23884   21.6344  0.09454     0.02542  3421.85065   5576.11056  1.10028         3975.61728     19.66648  0.02578  55239.43785    1.5111   3.5389   2043359.47182  44.58884   17.9377  55327.31974    51.07235       44.13627   29.69825   69.29592  108.0     0.0427   -20.1303  0.56555 
  -18.79884  0.30354   7.24988     14.50661  1.88887  0.56196  11.91804   0.1511     0.11272  4877.90957   5068.65693  2.30414         3856.99311     17.90601  0.00045  55248.61416   1.69161  3.61765    894229.14551  44.87294  18.42003  55334.73572     51.0089       43.88906    56.0967  108.89359   90.0    0.06342  -20.53567  0.52568 
  -13.35601  0.24032    4.9642     14.32167  1.66942  1.05082  15.48632  0.07661     0.06668  4271.48607   5579.04029  1.67952         3855.02366     17.73296   0.0003  55254.05699   1.68552  3.72165    868438.47256  45.16097  18.24435  55331.02773    50.94129       43.89504   39.59767   89.09475   93.0    0.07219  -20.58806  0.66025 
   -6.37211  0.09576   1.55261     14.38064  1.69364   1.0519  29.07724  0.05352     0.08769  5138.80258   6254.77212  1.33171         3707.80795     17.97537  0.00052  55261.04089   4.58041  2.78431     65688.75048  47.29805  18.33484  55342.15171    50.91722       43.82808   49.49709   98.99417   71.0     0.0839  -20.90169  0.96839 
  -48.25197  0.25282   6.46115     14.96767  1.72218  0.68494  25.21442  0.06897     0.13777  2954.06839    5561.1802  0.77383         2908.32421     19.67395  0.02622  55219.16103   1.31255  6.37468     77477.67313  45.99513  18.08185  55327.31974    51.02238       44.05138   32.99806   72.59573  119.0    0.03945  -20.00804  0.42029 
  -39.64275  0.12437   9.13586     14.84647  1.89703  0.39662   39.1708  0.05614     0.04917   3324.1345   5886.43774  1.43863         3054.65055     18.95075  0.00496  55227.77025   2.58194  4.87149    298158.80009  45.15097  18.36151  55338.44371    50.86737       43.73177    56.0967  112.19339  117.0    0.03869  -19.99876  0.34497 
   -6.71649  0.05041   0.84391     15.01646  1.64396  0.24795   56.4274  0.09956     0.14128  8169.28423   6324.48704  2.80244         2523.91933     16.01792    1e-05  55260.69651   22.4639  2.84432      1007.80869  49.62877   18.1809  55331.02773     50.9479       43.90732   42.89747   88.18298   89.5    0.07041  -20.59826  0.99566 
   -4.13306  0.04404    1.6175     14.45236  1.77022  1.12569  63.62924  0.03403     0.02955  4785.82447    5901.4066   3.1079         3320.07814      17.4724  0.00016  55263.27994   8.69356  2.80208     53556.37501  47.37037  18.67436  55356.98367    50.74863       43.52837   89.09475  131.99223   83.5    0.05539   -20.6606  0.96957 
  -13.20698  0.05138   1.10815     14.21059  1.04096  0.91742  64.61368  0.04368     0.04995  4825.63799   5923.15609  0.55548         4824.06876      18.2975   0.0011  55254.20602   8.97555  3.31976     45005.97111  47.54381  17.89379  55319.90376    50.90758       43.89233   36.29786   82.49514   96.0    0.04994  -20.38514  0.96476 
  -39.44224  0.12608   5.60894     14.69599  1.60589  0.90683  45.55759   0.0415     0.28581  2663.62174   5123.71944  0.86083         4402.04565     16.22551    1e-05  55227.97076   1.92812  5.74371    190241.54961  45.69749  18.19851  55327.31974      50.846       43.73993   46.19728  105.59378  116.0    0.03236  -19.98468  0.48632 
  -40.21831  0.27734  20.24566     14.96897  1.48111   0.2214  18.63146   0.0931     0.25608  3533.27073   5036.24463  2.42639         3985.20407     17.19787    9e-05  55227.19469   1.38748  5.16733    650322.44038  44.01364  18.55735  55349.56769    50.77495       43.55339   98.99417  135.29203  108.5    0.04953  -20.09859  0.06054 
   -4.18916  0.05865   1.37026      14.4529   1.6606  0.81627   45.8683  0.04285      0.0857  6213.88577   6743.24759  1.98611         2720.14194     18.32599  0.00118  55263.22384  10.56492  2.69001     35965.42567  47.65962  18.47504  55342.15171    50.76862       43.59625    56.0967  125.39262   68.0    0.09133  -20.89651  0.97677 
    -8.0412  0.14577   2.71323     14.56198  1.77001  0.86079  23.60338  0.08426     0.19366  5038.89276   5643.85026  1.81879         4303.81916     16.99626    6e-05   55259.3718   3.57496  3.44063     90948.79086  46.69105  17.59462  55316.19576    51.55269       44.85561   16.49903   39.59767   86.5    0.06805  -20.65555  0.88924 
   -7.75939  0.05821   1.90608     14.38746  1.64099   1.1668    59.473  0.01906     0.03752  4046.39384    5642.7332  2.29395         3023.18863     18.67285  0.00262  55259.65361   5.80876  3.46171      92956.4686  46.95539  17.32413  55308.77978    51.03188       44.18172   23.61379    56.0967   89.0    0.07956  -20.59228  0.93764 
  -22.89417  0.11021   2.52091     14.89603  1.60121  0.40613  44.92014  0.03727     0.08023  3679.25878   4946.21962  0.13417         2548.06255      17.9153  0.00046  55244.51883   3.62735   4.9507     15251.63979  47.48686  18.18133  55334.73572    50.94886       43.89313   36.29786   94.78437  105.0    0.04424  -20.09391  0.85534 
   -9.35718  0.05586   1.77785     14.42492   1.7357  1.20202  52.14331  0.04736     0.04424  4725.90136   6445.03435   1.6078         3501.97659     18.09844   0.0007  55258.05582   6.94696  2.91276     71985.59895  47.15129   18.6551  55349.56769    50.83511       43.63363   82.49514  125.39262   87.0    0.05815  -20.52416  0.95894 
   -8.85297  0.09572    4.4527     14.77622  1.98513  0.21587  11.70315  0.07028     0.05207  5466.28021   5607.21755  2.55272         2959.21677     17.84734  0.00039  55258.56003     2.086  1.12018    102425.94597  46.25898  17.88223  55319.90376    50.99352       44.05106   29.69825   69.29592   71.5    0.12712  -21.02421  0.91147 
  -13.68849  0.08903   2.39369     14.37495  1.35231  0.73989  37.16877  0.04209     0.03038  3887.60931   7698.33251  0.86776           4867.524     18.88247  0.00424  55253.72451   3.35097  3.30918    127976.57574  46.53466  17.93567  55327.31974     51.0253       44.04045   32.99806   77.01717   87.5    0.06162  -20.48053   0.8751 
   -4.30048  0.20037   1.11707      14.5203  1.65227  1.31387  17.48306  0.14775     0.17322  5574.17722   5919.69966  2.27688         4032.99614     17.43958  0.00015  55263.11252   3.24046  3.50313     17436.18871  48.14931  18.03887  55319.90376    51.01473          44.02   42.89747   75.89553   91.5    0.06665  -20.56413  0.98989 
  -27.86635  0.13543  11.55835     14.38312   1.7058  1.38424  31.84046  0.05518      0.0233  3130.38175   5700.05963  3.39817         4340.12388     17.06147    6e-05  55239.54665   1.86123  4.31228   3624922.12288  43.81568  18.37238  55338.44371    50.88471       43.75453   46.19728   115.4932  112.5    0.04357  -20.16169   0.2383 
    -3.4387  0.19874   1.52807     14.66685   1.6108  0.78534  21.91878  0.07799     0.41801   5990.7775   5371.34676  3.40101         3264.52377     17.46422  0.00016   55263.9743   4.69256  4.35619     16197.06088  47.89816  18.06607  55327.31974    50.98649        43.9641   32.99806   86.61492   86.0    0.08348  -20.73592  0.96516 
  -28.21669  0.28255  18.09004      14.7867  1.57344  0.48935  21.63924  0.06139     0.42977  3611.34207   4468.69084  4.69784         2686.74154     18.95062  0.00496  55239.19631   1.68347  6.11407   1276883.25841  43.84466  18.25904  55331.02773    50.89211       43.78617    56.0967  105.59378  108.0    0.04701  -20.22777  0.07296 
   -5.44433  0.05629   1.74265     14.49207  1.67254  1.57046  65.84354   0.0183     0.05558  3381.18735   5663.90421  2.16635         4372.71879     16.49708    2e-05  55261.96867   4.49034  3.70642     48918.93824  47.32032  17.88515  55312.48777    50.86722       43.82645   33.51321   89.09475   96.5     0.0657  -20.57627  0.95517 
   -11.8613  0.15657    6.7321     14.87086  1.89032  0.37019  23.88432  0.04166     0.03844   3111.6739   5813.53548  3.15353         4398.39854     18.57525  0.00209   55255.5517   1.37952  3.73968    144187.66874  45.73015  17.94395  55323.61175    51.01037        44.0646   29.69825   69.29592   98.5    0.06258  -20.54244  0.55887 
  -29.25734  0.19861  18.03852     14.41276  1.76636  1.11063  30.92377  0.04589     0.08276  3611.15166   4560.55455  3.52339         3295.87322     18.38465  0.00135  55238.15566   2.40553  6.14181   7975714.01974  43.10175  18.10397  55331.02773    51.04619       44.06897   32.99806   75.89553  107.5    0.04823  -20.30789  0.08304 
    -9.6069  0.04837   0.96596     14.53279  1.65993  1.47453  81.08712   0.0188     0.10396  4180.37338   5719.85559  1.48762         3253.79359     17.24228   0.0001   55257.8061   8.45297  3.92216     12366.70783  48.42676  18.45245  55338.44371     50.7506       43.58357   69.29592    118.793   99.5    0.06259  -20.37879  0.99397 
  -14.39495  0.04735   1.09896     14.82563  1.86748  0.52739  73.23543  0.02611     0.01816   3784.8715   5945.91117  0.58423         4394.63874      18.7881  0.00341  55253.01805   6.25822  3.46787      4674.96632  48.78836  17.83194  55323.61175    51.03979       44.10538   32.99806   65.99611  102.0     0.0498   -20.1855  0.99159 
  -27.08305  0.12576   5.40427     14.09922  1.66705  1.29598  24.64375  0.10152     0.02585  4175.69165    5785.2121    2.182         3873.35109     20.41107  0.14315  55240.32995   2.56325  3.09909   2862821.71968  44.56853   18.3155  55338.44371    50.87226       43.74605    59.3965  108.89359  103.5    0.04871  -20.40492   0.6592 
   -7.32533  0.07337   1.20022     14.60255  1.78165  0.73015  46.50332  0.03306     0.05745  5010.40026   6274.14082  0.77012         3811.60591     19.29175  0.01088  55260.08767   6.96396  3.41205     14861.19053  48.18909  18.07474  55323.61175    50.89321       43.86085   39.59767   85.79495   75.0    0.08397   -20.7991  0.98453 
  -10.37876  0.18027   2.24894     14.67656  1.87147  0.50443   18.1674  0.12391     0.09892  5430.28848   5392.87616    1.879         2385.15153     18.97507  0.00525  55257.03424    3.1957  3.27506     38978.95932  47.24624  18.77539  55360.69166    50.83113        43.5918   98.99417  135.29203   79.5    0.06483    -20.689  0.92995 
  -19.61167   0.1868   5.01557     14.36687  1.65105  1.23363  23.66407  0.07526     0.05473  3709.96874   5225.40656   0.9161         4336.13549     16.43669    2e-05  55247.80133   1.94293  4.42049    711985.24932  45.23349   18.3436  55331.02773    50.80837       43.71941    56.0967   95.69436  103.0    0.04747  -20.29139  0.61274 
  -25.90785  0.14431   7.17208     14.32459  1.84281  0.97446  32.75348  0.02426     0.01624  3670.41226   5495.14529   0.1765         5190.08561     18.96674  0.00515  55241.50515   2.63217  4.72677   1974297.44845  44.52762  18.34361  55338.44371    50.84865       43.69638    59.3965   115.4932  114.0    0.06094  -20.34089  0.45573 
  -21.68305  0.16426   4.13533     14.04673   1.6649  1.53538  10.36526  0.16665     0.05698  4121.49016   5895.18774  2.51151         2105.76467     18.88746  0.00429  55245.72995   1.05031  1.70258   2131872.96353  44.92845  18.14284  55331.02773    51.04046       44.07564   32.99806   75.89553   89.0    0.06174   -20.4179  0.85809 
  -31.61518  0.13984  10.60943     14.71064  1.73385  0.61363  35.83505  0.04988     0.11779  2433.10854   5112.05025  3.35317         4220.67235     18.18679  0.00085  55235.79782   1.26549  5.01111    686958.86924  44.61954  18.38139  55334.73572    50.84162       43.71808   49.49709  112.19339  115.0    0.03339  -20.08696  0.24912 
  -11.45986  0.08247    2.1978     14.37415  1.84664  1.07593  47.54876  0.01818     0.02119  4105.32137   5287.37401  0.73477         3074.39062     19.82509  0.03714  55255.95314   4.78036  3.92138    147869.13558  46.68137  18.18432  55334.73572    50.97077       43.93348   39.59767   89.09475   91.0    0.09398  -20.67437  0.91869 
  -20.42649  0.08395   2.42968     14.57049  1.84434  0.66583  45.35933  0.04153     0.02525  4381.08674   5208.30484  0.11646         2940.31976     17.68342  0.00027  55246.98651   5.19347  3.80789     73075.97408  46.89981   17.6658  55308.77978    51.03359       44.16023   29.69825   52.79689   93.0    0.05666   -20.3541  0.90477 
  -21.20058  0.09181    4.3311     14.51895  2.02947  0.70507  30.24368  0.04077     0.01367  3054.77517   6215.88868  0.66562          4973.0127     17.63577  0.00024  55246.21242   1.68353  2.77676    323964.12104  45.79253   18.2517  55331.02773    50.83023       43.72273   46.19728  105.59378   97.5    0.05624  -20.29385  0.82145 
   -13.4086  0.16715   4.46833     14.58415  2.00049  1.01807  21.67765  0.07521     0.06529  3959.30917   5695.57733  2.03552         3808.70097     19.31101  0.01137   55254.0044   2.02711  3.62351    251734.34207  45.86875  17.97357  55323.61175    51.08286       44.17038   23.09864   69.29592   98.0    0.05355  -20.37062  0.76592 
  -25.78456  0.23213   4.19632     14.44062  1.69511  1.06624  22.51382  0.06981     0.31329  3531.66697   5188.31909  2.48069         2387.98891      20.3259  0.11766  55241.62844   1.67508  5.22608    364348.83584  45.69079  18.32923  55334.73572    50.96772       43.92843   39.59767   89.09475  110.0    0.04443  -20.21976  0.66662 
  -30.71282  0.11302   3.96975     14.41546  1.91249  0.98875  32.82313  0.05951     0.01966  3252.08576   5625.15664  0.41106         4819.58931     16.90146    4e-05  55236.70018   2.07077  3.70975    413058.39532  45.73691  18.22445  55334.73572    50.88674       43.78005   42.89747  105.59378  107.0    0.04234  -20.13195  0.78993 
  -16.40263  0.05686   1.24102     14.98238  1.68792  0.29141  67.35959  0.02703     0.03823  3733.07104   5476.00161  0.51694          4238.6462     16.18005    1e-05  55251.01037   5.59963  3.83017      2617.99772  48.89067  18.60069   55345.8597    50.77977       43.56405   95.69436  128.69242  103.5    0.04914  -20.18249  0.98083 
   -8.15155  0.13348   3.48419     14.83501  2.02136   0.7196  30.82255  0.04256     0.22472  4239.70158   5625.33455  1.77773          4553.8537     17.37068  0.00013  55259.26145   3.30496  4.11412     48711.85854  46.80265   18.1802  55331.02773    50.93937       43.89332   42.89747   91.48278   95.5     0.0643  -20.53476  0.83597 
  -10.21255  0.15363   1.89693     14.27072  1.58189  1.27397  23.79028  0.06686      0.1194  5757.70818   5439.89922  0.24625         4515.69428     16.36918    1e-05  55257.20045   4.70464    3.655    151931.53176  46.73027  18.61232  55349.56769    50.71725       43.49138   92.39456  131.99223   73.0    0.09502   -20.8518  0.92893 
   -3.83428   0.0816   1.18228     14.39583  1.78243  1.39466   43.4571  0.03142     0.06676  5520.53546   5483.01731  1.68884         3231.25503     19.59331  0.02178  55263.57872   7.90042  3.54616     37376.51159  47.80182  18.24488  55334.73572    51.01358       43.97586   39.59767   85.79495   70.5    0.09379  -21.04551  0.98319 
  -55.74671  0.08215   8.71989     14.63081  1.94491  0.75462  81.13981  0.02275     0.03398  2409.15805   4862.46769  0.97107          3596.3624     20.02152  0.05838  55211.66629   2.80926  6.66528    751811.38337  44.80061  17.71417  55316.19576    50.95703       43.99663    30.2134   73.71736  118.5    0.03213  -20.02719  0.30557 
  -15.32862  0.14036   8.12907     14.87974  1.82813   0.4777  29.49382  0.04326       0.323  3473.50594   5545.13081  4.82017         3821.89775     18.02468  0.00059  55252.08438   2.12273  4.13965    195175.14582  45.42035  17.95752  55327.31974    51.19281       44.32463   26.39845    59.3965  105.5    0.05139  -20.31841   0.4279 
   -6.31225  0.15345   3.20443     14.39323  1.56274  0.79041  16.58415  0.08935     0.06557  4234.46252    6605.5746  4.23331         3923.10529     19.72905  0.02977  55261.10075   1.77385  2.54476    243638.61222  46.06449  18.25944  55331.02773     50.9029       43.80916   42.89747  102.29398   79.5    0.07566  -20.81871  0.86179 
  -12.17529  0.11291   3.25594     14.18519  1.61238  1.19599  18.00043  0.12516     0.06719   5380.0164   5909.75838  2.76652         2800.86894     18.73592  0.00302  55255.23771   3.10797  2.03243    676469.99368  45.62071  17.16092  55305.07179    51.17274       44.39679   29.69825   42.89747   79.0    0.06639  -20.66658  0.88743 
  -12.12998  0.04623   0.90372     14.35494  1.21546  0.71751  70.98176  0.02603     0.03053  4301.05845   6135.37696  1.44293         2382.44336     17.03501    6e-05  55255.28302   7.83294  3.28184     17978.05056  48.18678   17.6045  55316.19576    51.05589       44.13802   23.61379   69.29592   87.0    0.06648  -20.47193  0.98479 
   -2.44609  0.06664    2.2877     14.69958  1.81788  0.87134  53.57528  0.01986     0.04693  3534.87377   5961.13892  3.82371         4010.07565     17.68863  0.00027  55264.96691   3.99337  3.57041     35238.49866  47.26259  17.65024  55312.48777    50.93814       43.99207   39.59767   65.99611   94.5    0.07807  -20.62875  0.93007 
   -3.94234  0.14157   2.63562     14.32763  1.56713  1.13435  22.81869  0.05556     0.09635  4676.79636   5733.68856  3.45961         3844.42447      19.2352  0.00955  55263.47066   2.97725   3.2304    223577.97362  46.27276  17.66757  55319.90376    51.08689        44.1913   26.39845   62.69631   76.5    0.09561  -20.96655  0.88061 
  -13.00988  0.06599   1.63135     14.94054  1.74062  0.41294  66.08724  0.03251     0.06573  4649.30918   5790.05255  1.26482         3259.90793     19.82803  0.03739  55254.40312   8.52161  4.36078      5656.32233  48.33192  17.59272  55319.90376    51.10756       44.22732   26.39845    59.3965  104.0    0.04957  -20.34329  0.96222 
   -2.07758  0.08129   2.08627     14.74453  2.02957  0.35742  23.34351  0.03994     0.03384  4734.70595    6515.0642  3.64098         3141.63396     19.59993  0.02211  55265.33542   3.12161  1.89768     26601.54523   47.5126  18.43306  55342.15171    50.84842       43.71276   62.69631  112.19339   61.5    0.11419  -21.38894  0.96735 
   -3.36582  0.10487    1.1234     14.64652  1.65775  0.75625    34.948   0.0441     0.22496  4815.93396   5483.76562   3.0013         3239.13522     17.04539    6e-05  55264.04718   4.83516  3.66486      9893.68384  48.39194  18.25987  55331.02773    50.94479       43.94051   32.99806   83.31333   83.5    0.08291  -20.76938  0.98832 
   -3.27491  0.07381   0.89545     14.44707  1.71676  1.42081  39.38437  0.04814     0.19977  4684.65712   6814.88844  3.77019         2821.26379     18.29289  0.00109  55264.13809   5.15593  2.90684      16310.4793  48.38701  18.35308  55334.73572    50.71452       43.55301   75.89553   115.4932   84.5    0.06935  -20.56752  0.99525 
  -16.58503  0.06335   1.10317     14.57162  1.95084  0.70406  59.58827  0.05287       0.045  5141.01833    6638.6028  0.70673          2516.0381     20.78992  0.34249  55250.82797   9.39477  3.77467     15851.93557   48.2737   18.3045  55338.44371    51.07588       44.01141   39.59767   95.69436   93.5     0.0489  -20.52625  0.98617 
  -18.19352  0.15016   5.85368     14.53307   1.5863  0.60155  20.57378  0.08198     0.01698   2857.3068   6436.35742  4.96617         4396.86457     16.93651    5e-05  55249.21948   1.00197  3.08931    433436.49479  45.29745  18.05311  55327.31974    50.95841       43.97117   29.69825   82.49514  108.0    0.04205  -20.30358  0.60895 
   -5.97011   0.1897   3.56889     14.29808  1.62845  0.84847  15.59451   0.0451     0.06151  4563.99915   5216.85197  4.30061         2939.23279     18.47511  0.00166  55261.44289   1.93772  2.95835    488097.77028  45.68705  18.18719  55331.02773    50.84682       43.72752   65.99611  102.29398   77.5    0.12626  -20.95857  0.82049 
  -13.33476  0.15297    1.5645     14.36821  1.88742  1.17387   15.8044  0.11541     0.09961  5014.69864   6387.91533  0.09099         5141.73033     17.25263   0.0001  55254.07824    2.3708  2.41759     78707.39165  47.25995  18.09904  55323.61175    50.90077        43.8608   46.19728   85.79495   71.5    0.08075   -20.7088  0.97564 
   -19.4352  0.17392   3.10232     14.22778  1.56933  1.37948  31.06799  0.06112     0.03231  3904.63514   5388.45052  2.81763         3282.93293     20.85775  0.40038   55247.9778   2.82554  5.40325     491306.1097  45.78983  17.77088  55319.90376    51.03809       44.11466   26.39845   69.29592  106.5    0.04613  -20.59985  0.75908 
  -13.74837  0.16137   2.65206     14.44207  1.66822  1.16944   26.6393  0.05473     0.09439  4525.47456   5626.61177  0.71182         3275.53945     17.21836    9e-05  55253.66463   3.25445  4.29874    142263.64285  46.49084  18.68643   55345.8597    50.83716       43.61813   92.39456  131.99223   97.5    0.06454  -20.43809  0.85996 
  -19.91603  0.07718   2.78227     14.50258  1.97467   0.8917  41.00046   0.0588     0.02865  4276.09613   5797.79033  0.08377         4457.58156     17.56691   0.0002  55247.49697   4.47209  3.16455    140265.97557  46.52859  18.68059  55349.56769    50.79017       43.57567   89.09475  128.69242   96.5    0.05159  -20.25527  0.90541 
   -11.3487  0.04076   1.45273     14.46023  1.91898  1.35554  83.78082  0.02013     0.03284  4876.98565   5713.83277  1.16947         2380.24664     18.85001  0.00393   55256.0643  11.88707   3.4153      45164.2146  47.57275  18.14784  55331.02773    50.88848       43.79229   39.59767  105.59378   80.5    0.07847  -20.63606  0.97579 
  -20.41816  0.08782   2.86309     14.82942  1.77545  0.36791  40.81622  0.06995     0.05566  4690.49472   5530.61983  0.38879         4445.73547     17.62142  0.00023  55246.99484    5.3567  3.58432     29645.61705  47.13253   18.0232  55327.31974    50.92218       43.89912   36.29786   88.18298  101.0    0.04816  -20.23825  0.87209 
  -13.08513  0.20838   2.87696     14.39858  1.63669   0.8497  16.97969  0.10104     0.07553   4447.7356   5605.90999  1.59698         2836.63259     18.87582  0.00417  55254.32787   2.00371  3.53826     200673.5038  46.26245  18.29765  55334.73572    50.87003       43.76044   46.19728  105.59378   91.0    0.06104  -20.52068  0.85694 
  -23.49306  0.06036   6.12856     14.70571  1.47678  0.44813  71.90399  0.02719     0.02133  2708.95608   5267.31532  4.15701         3529.39032       17.022    6e-05  55243.91994   3.14763  4.34022    199723.70555  45.56301  18.66386  55356.98367    50.80614       43.57304   92.39456  135.29203  116.0    0.03367  -20.00103  0.47672 
   -3.73883  0.10683   2.41285      14.6351  1.89172  0.82817  32.44533  0.04436     0.06448  4412.14847    5420.3615  2.87436         4026.20082     16.63493    2e-05  55263.67417   3.76773  3.46629      54895.3003  47.04111  18.59102  55334.73572    50.75007       43.54054   92.39456  128.69242   82.5    0.06628  -20.76115  0.92077 
   -4.46102  0.07839   2.20684     14.91305  1.75778  0.46296  50.81278  0.03326     0.10544  4236.02328    5263.8811  4.09409         3654.78782     16.13775    1e-05  55262.95198   5.43897  3.98339     11863.92793  47.75204  17.78591  55323.61175    51.03782       44.11387   29.69825   65.99611   96.5    0.05592  -20.50365  0.92476 
  -33.38708  0.14804  20.54248     14.23013   1.7059  1.46814  38.51392  0.05073     0.01586  3333.83749   5007.48253  4.48835         3566.67785      16.1099    1e-05  55234.02592   2.55349  5.70166  23164371.08968  42.51067  18.04849  55323.61175    50.87574       43.81379   42.89747   92.39456  113.0    0.04183  -20.15675  0.06104 
  -10.28053  0.26592   2.16524     14.56557  1.66203  1.49904  14.14807  0.12917     0.17586   3277.8825   5754.04849  2.29685         4386.81109     17.21906    9e-05  55257.13247    0.9068  3.76225     53496.81034  47.09014  18.05602  55319.90376    50.99321       44.03644   32.99806   69.29592  109.0    0.04401  -20.22706  0.92854 
   -6.69817  0.06599   0.85512     14.07255  1.69319  1.44056  36.94009  0.01683     0.01406  4280.82364   5717.87995     0.91         2112.90964     20.37303  0.13115  55260.71483   4.03812  2.43784     82313.67664  47.71803  18.55455   55345.8597    50.87996       43.72683    56.0967    118.793   75.0    0.11957  -21.13049  0.99147 
   -1.84656  0.10924   1.68525      14.3741  1.78841  1.42689  21.00552  0.02418     0.01408  2249.10661   8700.87739  2.32722         5407.62761     18.13415  0.00076  55265.56644   0.63384   2.2946     84220.08084  47.14257  18.19862  55331.02773    50.89416       43.82946   39.59767   95.69436   62.0    0.10267  -21.31457  0.97154 
  -12.10199  0.06399   1.55028     14.78302  1.91527  0.53841  56.97781  0.04256     0.22585  5345.90513   5659.91028  1.62248         2321.22853     16.16644    1e-05  55255.31101   9.71349  3.64575     11610.06833  48.10542  18.56942   55345.8597     50.7935       43.62484   75.89553    118.793   86.5     0.0632  -20.55197  0.97145 
  -15.57871  0.11678   3.94372     14.39512  1.66096  0.74207  26.12772  0.07831     0.04021  4180.58601    5774.9051  3.22178         2664.52317     19.54561  0.01951  55251.83429   2.72397  3.05109    388814.49228  45.70765  17.63041  55316.19576    51.04095       44.16429   36.29786    56.0967   95.0    0.05309  -20.37389  0.78897 
   -5.85271  0.16015   1.85514     14.32273  1.51123  1.04074  22.28525  0.07711     0.18611  5627.58955   5208.56273  2.38717         2975.13665     19.57179  0.02073  55261.56029   4.21007  3.56891    109256.03666  46.87298  18.45326  55338.44371    50.82916        43.6412   82.49514  128.69242   76.5     0.0865  -20.84215  0.92971 
  -16.49975  0.04521   1.23724     14.65969  1.81837  0.69394  76.45911   0.0365     0.05043  4777.29355   5831.00733   0.5957         3337.51546     18.48648   0.0017  55250.91325  10.40927  3.45648     12388.47449   48.2506  18.40933  55334.73572    50.83741        43.7308   62.69631   98.99417   99.5    0.04759  -20.21871  0.98465 
  -45.41625  0.11615   7.75702      14.6227   1.7134  1.25438  52.96089  0.03771     0.30895  2602.34104    5116.1227  1.61336          3637.3624     16.30506    1e-05  55221.99675   2.13949  6.15155    544085.63226  44.98765  17.79348  55316.19576    50.87706       43.89727   46.19728   70.94885  118.0    0.03271  -19.99351  0.33503 
   -3.68775   0.1634   2.13816      14.6275  1.65688  0.82822  22.45903   0.0662     0.28265  4504.40246   5937.28824  4.81358         3159.61742     18.82376   0.0037  55263.72525   2.71827  3.66989     39100.48536  47.23588  18.00166  55323.61175    50.82232       43.76425    56.0967   85.79495   97.5    0.07003  -20.49086  0.92543 
  -10.09516  0.02833   1.32347     15.01288  2.02847  0.37537  98.90033  0.02401     0.07141  3667.04861   7023.45426  0.99648          5060.9545     19.37514  0.01318  55257.31784   7.93338  2.80174       3109.1714  48.83994  18.29125  55334.73572    50.89178       43.81784    56.0967   92.39456   94.0    0.04157  -20.34562  0.98943 
  -17.69291  0.15502   3.99109     13.99474  1.58286  1.55312  11.77486  0.17512     0.09058  6444.39851   6071.01885  1.31801         2009.49135      16.7692    3e-05  55249.72009   2.91707  1.82531    2398635.1901  44.88614  18.16688  55323.61175    50.91763       43.89123    30.2134   85.79495   76.0    0.08681  -20.79507  0.84858 
   -7.51407  0.21908   3.94782     14.31601  1.61587  1.45355  17.61574  0.07231     0.12261   5171.0033   5196.70545  3.31625          3436.2747     18.56955  0.00206  55259.89893   2.80982  3.85924    545648.77656  45.54762  18.24082  55327.31974    50.90673       43.85467   32.99806   95.69436   83.0     0.0864  -20.76515  0.73979 
   -6.21367  0.17813   3.85366     14.59125  1.49249  0.34668  11.53248  0.10643     0.10337  4688.11083   7070.34651  4.90667         4033.70823     20.09865  0.06972  55261.19933   1.51198  2.05431    135196.84296  46.14004  18.27517  55334.73572    50.87709       43.79784    59.3965   92.39456   68.0    0.10309   -21.0432  0.83167 
   -8.12008   0.1145   1.88141     14.45632   1.9617  0.88507  21.27046  0.08506      0.0902  5631.10074   7133.72747  0.62854         5769.64392     20.12076  0.07337  55259.29292   4.02338  2.43552     78846.22675  47.11573  18.48744   55345.8597    50.78913        43.5873   82.49514  125.39262   64.0    0.09544  -21.10475   0.9653 
   -4.23231   0.0727   0.82116     14.59748  1.56748  0.61971  47.16249  0.05161      0.1944  6833.78477   6283.58337  1.34204         3901.16945     20.06783  0.06495  55263.18069  13.13852  3.42892      6264.83521  48.83828  17.66147  55319.90376    51.14376       44.27912   26.39845    59.3965   73.5    0.10574  -20.97097  0.99432 
  -12.47856  0.07242   1.59794     14.35858  1.65015  1.06438  50.84186  0.02741     0.02557  4666.67651   5361.23656  0.16686         2646.45132     19.52325  0.01853  55254.93444   6.60487  3.68175     75042.45151  47.20394  18.47949  55342.15171     50.8841       43.75851   52.79689  108.89359   80.5    0.07943  -20.62716  0.95377 
   -7.90526  0.19241   4.16215      14.4103  1.59878  1.08934  18.28947  0.06994     0.18201  3892.58993   5708.39566  3.04243         4194.68043     17.78129  0.00034  55259.50774   1.65312  3.51907    388729.93119  45.64435   18.4811  55338.44371    50.85145       43.69982   69.29592  112.19339   90.5    0.06752  -20.60644  0.73436 
  -14.40969  0.08711    2.3924     14.24803  1.66826  1.04173  35.97864  0.03193     0.02466  4308.23245   5467.97886  0.97598         2507.52309     16.67722    3e-05  55253.00331   3.98355   3.1342    282939.26335  46.28175  18.50371  55342.15171     50.8651       43.71525   62.69631   115.4932   85.0     0.0802  -20.66348   0.9095 
  -16.88999  0.10747   2.02926     14.27765  1.78524  1.07969  24.76165  0.05139      0.0366  4284.54385   5738.72191  0.05569         4991.07414     18.94378  0.00488  55250.52301   2.71154  2.66111    190057.41277  46.62698  18.32906  55334.73572    50.81428       43.67616   52.79689   115.4932   79.5    0.07994  -20.59665  0.94843 
   -5.18596  0.11144   1.12004     14.34655  1.64064  0.94361  25.17733  0.06064     0.12313  5786.11622   5394.76516  1.04534         3393.13653     19.19938  0.00879  55262.22704   5.02818  2.80565     38743.49446  47.79719  18.74895  55360.69166    50.79633        43.5286  112.19339  141.89164   63.0    0.11478  -21.09118   0.9841 
  -17.07468  0.03819   1.61184     14.84973  1.65353  0.22576  73.07496   0.0166     0.01098  3348.10497   5785.27345  0.21312         3651.58852     18.19119  0.00086  55250.33832   4.88645  2.79097      7969.23799   48.1712  18.07767  55323.61175     50.8733       43.79593   46.19728   95.69436   92.5    0.06394  -20.36871  0.96209 
  -33.19373  0.27848  18.89072     14.10939  1.74346  1.51095  19.78384  0.06104     0.02603  2883.75629   4880.30664  4.67955         3316.57647     16.33237    1e-05  55234.21927   0.98142  5.50943  34908868.72556  42.41483  17.96804  55323.61175    51.07714       44.16844   26.39845   62.69631  114.5    0.04378    -20.122  0.07067 
  -35.69202  0.16618   5.87477     14.81139  1.40542  0.31808  31.93197  0.05415     0.23152  2950.89712   4943.80711  4.56015         2437.76016     19.45035  0.01567  55231.72098   1.65867  5.30655    107356.90799  45.84784  18.49541  55342.15171    50.89511        43.7386   72.59573  112.19339  112.5    0.03649  -20.01648  0.42948 
   -4.29376  0.04467   1.42185     14.32083  1.32668  0.97212   76.9057  0.01381     0.01867  3953.50871   5836.00112   1.9331         3855.75385     16.32704    1e-05  55263.11924   7.17053  3.43538     56836.25536  47.33128  18.10497  55331.02773    51.06087       44.10127   36.29786   69.29592   83.5     0.0812  -20.74332  0.95515 
   -8.42707  0.11718   1.23537      14.4517  1.72717  1.01276  29.45672  0.06921     0.11433  5422.92864   6570.41182   0.7549         4376.92609     20.18618  0.08529  55258.98593   5.16749  3.45159     30573.11885  47.83725  18.19102  55331.02773    50.89814       43.84755   42.89747   89.09475   76.5    0.08271  -20.86725  0.98057 
  -10.80783   0.1368   4.55123     14.34337  1.69778  0.88328  34.52214  0.02466     0.01838  4023.36606   5187.07147  4.83424          2727.7049     20.19171  0.08639  55256.60517   3.33353  4.72279    671766.50344  45.35525  18.52617  55342.15171    50.72154       43.52068   89.09475  125.39262  106.0    0.07495  -20.70027  0.65144 
  -18.64387  0.18404   1.81814     14.42517  1.75317  1.12816  19.23842  0.07852      0.0791  3485.31069   6424.28118  0.38239         5600.18294     20.01534  0.05755  55248.76913   1.39405   3.5407     75953.38455  47.11287  18.42398  55342.15171    50.89501       43.76038   62.69631  108.89359  101.0    0.05428   -20.2581  0.94797 
   -9.03574  0.06277   1.49049     14.47115   1.6175  1.15476  59.74286   0.0447     0.47373  5189.74128   5889.24369  1.43788         3695.57068     16.22212    1e-05  55258.37726   9.59853  3.74984     38108.67186  47.55001  18.34251  55338.44371    50.93498       43.85644   39.59767   98.99417   95.5    0.06394  -20.51919  0.96603 
  -38.16399  0.07063  16.70493     14.99335  1.53841  0.28995  79.96059  0.01875     0.05169  2609.99291   4949.79494   4.6487         3418.90452     17.36154  0.00013  55229.24901   3.24924  5.64779    411031.96685  44.39635   18.1557  55323.61175    50.84987       43.76891   42.89747   98.99417  113.0    0.03937  -20.06183  0.08857 
  -14.92196  0.22493   1.98035     14.18174   1.3709  1.46715  14.35688  0.15463     0.10275  4925.07427   5967.31346  0.95134         2819.66898     17.51773  0.00018  55252.49104   2.07737  3.22934    216186.07147  46.47754  17.84059  55323.61175    51.06563       44.12383   29.69825   69.29592   87.5    0.06098  -20.47475  0.91537 
  -28.92122  0.08342   7.50697     14.33764  1.43175  0.88547  47.55129  0.03971     0.02181  2505.40531   5807.93696  4.84064         4086.40136       19.415  0.01445  55238.49178   1.78051  3.96663   1582433.35356  44.47446  17.67774  55316.19576    51.10669       44.21984   26.39845    59.3965  117.0    0.03476  -20.05038  0.38519 
  -11.99044  0.13028   1.87867     14.41897   1.8155  1.21782  31.70513  0.06471     0.10709  5061.34967   5834.21656  0.78384         2891.87387     20.52574  0.18641  55255.42256   4.84495  4.13061     86411.47322  47.04357  18.64492  55349.56769    50.88708       43.65249   98.99417  135.29203   88.5    0.06334  -20.65943  0.93842 
   -2.46287  0.04463   1.38394     14.46246  1.77815  1.16194  60.65624  0.02443     0.01956  4182.00167   6011.17424  2.86507         4061.99615     16.99002    5e-05  55264.95013   6.32807  2.70716     37591.06499   47.6615  18.37766  55331.02773     50.7644       43.61734   65.99611  112.19339   76.0    0.09248  -20.95019  0.98114 
  -11.48061  0.04043   1.22395     14.27933  1.76421  1.47354  77.94954  0.01453     0.01344  4319.84094   5938.18483  0.23468         2976.43665     19.81596  0.03636  55255.93239   8.67713  3.15182     67799.72504  47.50864  17.86994  55316.19576    50.87399       43.86418   39.59767   79.19534   76.5    0.08631  -20.74004  0.97988 
  -15.81784  0.12946   1.97769     14.54776  1.66054  0.86602  30.93824  0.08138     0.11037  5565.08395   5485.26024  0.40088         3251.24482     16.28725    1e-05  55251.59516   5.71566  4.00515     48402.72435  47.21191  18.05348  55331.02773    50.91334       43.89343   46.19728   82.49514   95.5    0.06084  -20.37191  0.92796 
     -3.517  0.11239   2.99181     14.17874  1.85529  1.23284  15.87727  0.04087     0.04191  5116.01809   5878.78809  3.87228         3078.60754     18.64386  0.00245    55263.896   2.47895  1.78452    677043.25403  45.75477  18.22364  55334.73572    50.98376       43.97131   32.99806   85.79495   59.5    0.16102  -21.44175  0.92918 
   -2.61417  0.06322    0.8761     14.70971  1.62913  0.47419  51.20938  0.04075     0.12476  6972.96949   6702.99744  1.88597         3915.80467     20.34444  0.12279  55264.79883  14.85293  3.23756      4420.22035  48.95025  18.02823  55316.19576    50.84923       43.81089   33.51321   89.09475   66.0    0.09262   -21.1867  0.99352 
   -7.20958  0.15674   4.56784      14.2027  1.67164  1.56118   18.9307   0.0385     0.02913  3808.76904    5550.2478  3.88927          3876.5019     16.57531    2e-05  55260.20342   1.63819  2.96711   1273421.45567  45.06759  17.68915  55316.19576    50.95461       43.98773   36.29786   70.41756   77.0    0.11439  -20.97768  0.74236 
   -4.70754  0.06402   1.61945     14.54777  1.66802  0.58275  48.30965  0.02905     0.05739  5495.71051   6298.77828  1.46371         3417.52356      18.9473  0.00492  55262.70546    8.7038  3.09279     32599.30253   47.5591   18.3913  55338.44371    50.88417       43.75997   46.19728  112.19339   68.5    0.09597  -20.98948   0.9599 
   -5.52153   0.0806   1.30353     14.37972  1.55207  0.75468  31.11103  0.04094     0.03167  4564.51147   8295.72814  0.86824         5887.29195     19.69412  0.02747  55261.89147   3.86661   2.5075     42612.02855  47.59998  17.23465  55308.77978    51.18756       44.38035   26.91359   49.49709   62.5    0.09647  -21.14614  0.97693 
  -19.58519  0.12401   3.49054     14.30434  1.69609   0.9753  21.37991  0.15482     0.04803  4622.14105   6133.92536  2.05941         2476.14005      19.6532    0.025  55247.82781    2.7247  2.65137    472470.14204  45.73813  18.02255  55319.90376    50.94125       43.94302   29.69825   82.49514  100.0    0.04634  -20.26562  0.85026 
   -4.77267  0.09131   0.72876     14.34627  1.56407  1.32802  35.32798  0.03942     0.06714     4553.21   5598.48743   3.8985         2259.77831     19.64772  0.02469  55262.64033   4.36899  3.22575     15656.64943  48.54323   18.5392  55342.15171    50.92283       43.77997   62.69631  112.19339   81.0    0.08036  -20.65374  0.99614 
   -7.88515  0.03337    1.5461     14.49392  1.73355  0.95997  89.77573  0.01438     0.09504  3277.46172   5812.08702  1.37368         3648.88911     18.24377  0.00097  55259.52785   5.75256  2.99615     39572.63698  47.53191  18.10123  55327.31974    50.86365       43.78124   39.59767  102.29398   91.5    0.06501  -20.41406  0.97039 
   -5.22831  0.07729   2.68944     14.76211  2.13718  0.81171  44.46769  0.04549     0.36879  4232.79379   5685.61494  4.02433          3590.2213     16.17206    1e-05  55262.18469   4.75254  3.43678     42929.18564  47.10661  18.33838  55331.02773    50.82878       43.72728   49.49709  102.29398   98.5    0.05236   -20.4442  0.92071 
  -16.07984    0.215   1.85978     14.32012  1.58108   1.2333  16.33599  0.12032     0.14535  4612.12447   5724.11356  0.23997         4239.06835     19.14726   0.0078  55251.33316   2.07288   3.5123    116265.81455  46.86342  18.21763  55334.73572    50.98538       43.93808   42.89747   89.09475   90.0    0.06237  -20.42307  0.93526 
  -14.61013  0.06247   1.28649     14.80842  1.63612  0.50221  67.04235  0.04018     0.41154  5184.55857   5372.01536  2.52011         2194.62113     16.12839    1e-05  55252.80287  10.74979  4.18819      6075.75819  48.48025  17.99503  55319.90376    50.92374       43.88812   36.29786   88.18298  102.0    0.05063  -20.25635  0.97935 
  -11.32676  0.10476    1.3521     14.55745  2.00333  1.33546   37.9319  0.05507     0.24029   5539.5422   5149.18025  0.45558         3581.68814     17.06821    7e-05  55256.08624   6.94352  3.97385     26102.74951  47.89189  18.49557   55345.8597    50.84219       43.66257   79.19534  122.09281   78.5    0.07631  -20.71896   0.9823 
  -17.21486  0.38869   9.07666     14.44677  1.50356  0.68555   13.9387  0.07559     0.11678  4722.30585     4931.223  4.36789         2673.10835     18.96462  0.00512  55250.19814    1.8542  5.41787   1469751.12499  44.36287  18.09569  55323.61175    50.88624       43.83546   36.29786   92.39456  104.5    0.06247  -20.46752  0.25092 
   -2.22406  0.20653   2.27675     15.16534  1.84549  0.31796   19.9918  0.05311     0.31588  4274.64579   5603.83474  4.76193         4027.64342     19.21306  0.00907  55265.18894   2.17911  4.12886      4148.42424  48.20244  18.12671  55327.31974    50.81443       43.72033    56.0967   98.99417   90.5    0.06965  -20.76086  0.93112 
   -6.90628  0.15386   0.91034     14.29108  1.41336  1.50012  20.86705  0.04764     0.04233  3069.04692   6817.41368   1.0949         5961.65097     16.31983    1e-05  55260.50672   1.17245  3.21052     28464.87769  48.04638  18.40165  55342.15171    50.85049       43.66122   82.49514  125.39262   81.5    0.06613  -20.83696  0.98993 
   -16.8577   0.1585   1.43284     14.18683  1.29504  1.08642  22.67789  0.06931     0.07074  4582.53646    5257.9939  0.01889         5863.80777     16.64949    2e-05   55250.5553   2.84081  3.59437    104433.77646   47.0499  18.30671  55331.02773    50.91303       43.86605   32.99806   92.39456   87.5    0.07214  -20.46733  0.94679 
  -16.10994  0.12676   6.42106     14.86791  1.76931  0.50065  31.86624   0.0349     0.10892   2470.1264   5629.64346  4.72866         3969.97241     16.96627    5e-05  55251.30306   1.15984  4.03942    124457.56704  45.80641  18.35591  55334.73572    50.90952       43.83909   39.59767   98.99417  112.0    0.04209  -20.20029  0.54048 
  -10.47693  0.19452   2.68253     14.16863  1.54591  1.31927  15.71573  0.08213     0.07023   5063.2152   5507.43089   0.8485         3728.33209     16.01802    1e-05  55256.93607   2.40334  3.05698    475147.88282  45.92411  18.41059  55338.44371    50.84892        43.6944   75.89553  112.19339   76.0    0.08896   -20.8411  0.87928 
  -20.68684  0.31436   3.84202     14.32412  1.39366  0.69711  11.72677  0.21186     0.14807  4858.47552   5201.49174  1.44388         3004.28908     19.11805  0.00729  55246.72616   1.65122  3.68639    429390.84115  45.61103  17.94811  55323.61175    51.03017       44.08728   29.69825   69.29592   96.5    0.05313  -20.37851  0.71455 
   -4.73969  0.07578   1.92543      15.0571   1.5542  0.19418  39.92834  0.05271     0.07918  5192.19136   6129.32054  4.05879         3128.30612     18.35773  0.00127  55262.67331   6.42111  3.02566      4113.27547  48.27711  18.03387  55331.02773    50.98912       43.97106   36.29786   85.79495   85.0    0.06817  -20.61777  0.93972 
  -47.14266  0.20704   7.52946     14.82131  1.72134  0.59976  30.21361  0.06919     0.08471  2708.75785   5674.18794  0.74677         2904.54872     20.03915   0.0608  55220.27034   1.32242  6.25528    206345.11559  45.43659  18.39398  55342.15171    50.85152       43.70275   65.99611  112.19339  122.0    0.03398  -19.94998  0.34602 
  -12.32914   0.0973   4.94079     14.48722  1.71933  0.69139  29.56757  0.05464     0.03628  3851.87556   6312.35623  4.79891         3203.03638     19.27451  0.01045  55255.08386    2.6169  2.87689    413350.46193  45.50029  18.34326  55331.02773    50.94052       43.88349   52.79689   91.48278   96.5    0.05666  -20.36851  0.72644 
  -15.73262   0.1588   2.49191     14.84366  1.36056  0.29572  26.65723  0.06924     0.03871  3421.00056   7604.74586  1.21498         5954.36656     19.88729  0.04286  55251.68038   1.86101  4.23315     16116.83381  47.40222  18.25751  55334.73572    50.91982       43.86895    59.3965   85.79495  106.5    0.04115  -20.42955  0.83859 
  -12.32118  0.05313   1.83925     14.57072  1.68135  0.51811  55.32889  0.02442     0.01511  3783.63651   7690.25775  0.38782         4930.13038     20.05292  0.06276  55255.09182   4.72496  2.93983      38133.2962  47.38392  18.56905  55353.27568     50.7527       43.52052   98.99417  131.99223   79.0    0.06859  -20.58648  0.94998 
   -10.6538  0.14281   1.98953      14.7755  1.75643  0.48713  22.59487  0.12622     0.16006  4691.21241   5945.21736  3.95482         2891.54773     18.35353  0.00125   55256.7592   2.96625  3.22687     18152.78859  47.65703  18.00856  55319.90376    51.13181       44.24535   29.69825    56.0967   98.5    0.04944  -20.35627  0.94478 
  -16.39046  0.08692   2.15204      14.4197  1.80963  0.81404   34.7931   0.0418     0.02663  4282.37333   5828.09941  0.04608          4872.8906     19.40194  0.01402  55251.02254   3.80618  3.02426    112644.83854  46.80902  18.30442  55334.73572    50.90714       43.86228   49.49709   85.79495   83.5    0.07164  -20.51026  0.93653 
   -9.63078  0.08414   2.72322     14.43681  1.78202  1.41287  37.54861  0.03625     0.02937   3408.4742   6793.80673  1.36151         4537.15981     17.61589  0.00023  55257.78222    2.6022  3.15936    164164.49462  46.43431  18.23856  55331.02773     50.8669       43.81596   39.59767   92.39456   93.5    0.05956  -20.43423  0.89721 
