"Time (MJD)" cyan-5182.42 cyan-5182.42_err g-4746.48 g-4746.48_err i-7829.03 i-7829.03_err orange-6629.82 orange-6629.82_err r-6366.38 r-6366.38_err "Temp./1e3 (K)" "Temp. Err." "Radius/1e15 (cm)" "Radius Err." "Log10(Bol. Lum)" "Log10(Bol. Err)"
-48.000 -20.659 -0.091 -20.627 -0.079 -20.513 -0.075 -20.486 -0.076 -20.371 -0.107 15.511 0.376 1.681 0.051 44.066 42.642
-47.600 -20.669 -0.089 -20.637 -0.077 -20.525 -0.074 -20.498 -0.075 -20.383 -0.105 15.489 0.368 1.692 0.050 44.070 42.635
-47.200 -20.679 -0.087 -20.648 -0.076 -20.536 -0.073 -20.509 -0.074 -20.394 -0.103 15.466 0.360 1.704 0.050 44.073 42.629
-46.800 -20.689 -0.085 -20.658 -0.074 -20.547 -0.072 -20.520 -0.073 -20.405 -0.102 15.443 0.352 1.716 0.049 44.077 42.622
-46.400 -20.699 -0.084 -20.669 -0.073 -20.559 -0.071 -20.532 -0.072 -20.416 -0.101 15.418 0.344 1.728 0.048 44.080 42.614
-46.000 -20.709 -0.082 -20.679 -0.072 -20.570 -0.070 -20.543 -0.071 -20.427 -0.099 15.393 0.336 1.740 0.048 44.083 42.607
-45.600 -20.719 -0.081 -20.690 -0.070 -20.581 -0.069 -20.555 -0.070 -20.438 -0.098 15.368 0.327 1.753 0.047 44.087 42.599
-45.200 -20.729 -0.079 -20.700 -0.069 -20.593 -0.068 -20.566 -0.069 -20.450 -0.097 15.341 0.319 1.765 0.046 44.090 42.591
-44.800 -20.738 -0.078 -20.710 -0.068 -20.604 -0.068 -20.578 -0.069 -20.461 -0.096 15.315 0.311 1.778 0.046 44.093 42.582
-44.400 -20.748 -0.076 -20.721 -0.067 -20.616 -0.067 -20.589 -0.068 -20.472 -0.094 15.288 0.303 1.791 0.045 44.096 42.574
-44.000 -20.758 -0.075 -20.731 -0.067 -20.627 -0.066 -20.601 -0.068 -20.483 -0.093 15.260 0.296 1.804 0.044 44.099 42.565
-43.600 -20.768 -0.074 -20.741 -0.066 -20.638 -0.066 -20.612 -0.067 -20.494 -0.092 15.233 0.288 1.817 0.044 44.103 42.556
-43.200 -20.778 -0.073 -20.751 -0.065 -20.650 -0.066 -20.623 -0.067 -20.506 -0.092 15.205 0.280 1.830 0.043 44.106 42.547
-42.800 -20.787 -0.072 -20.762 -0.064 -20.661 -0.065 -20.635 -0.066 -20.517 -0.091 15.177 0.273 1.844 0.042 44.109 42.538
-42.400 -20.797 -0.071 -20.772 -0.064 -20.672 -0.065 -20.646 -0.066 -20.528 -0.090 15.150 0.266 1.857 0.042 44.112 42.529
-42.000 -20.807 -0.070 -20.782 -0.063 -20.683 -0.065 -20.657 -0.066 -20.539 -0.089 15.122 0.259 1.871 0.041 44.115 42.520
-41.600 -20.816 -0.069 -20.792 -0.063 -20.694 -0.064 -20.668 -0.065 -20.550 -0.089 15.094 0.252 1.884 0.040 44.118 42.511
-41.200 -20.826 -0.068 -20.802 -0.062 -20.705 -0.064 -20.680 -0.065 -20.561 -0.088 15.066 0.245 1.898 0.040 44.121 42.501
-40.800 -20.835 -0.067 -20.812 -0.062 -20.716 -0.064 -20.691 -0.065 -20.572 -0.087 15.039 0.238 1.911 0.039 44.124 42.491
-40.400 -20.844 -0.067 -20.822 -0.061 -20.727 -0.064 -20.702 -0.065 -20.583 -0.087 15.011 0.231 1.925 0.038 44.127 42.481
-40.000 -20.854 -0.066 -20.832 -0.061 -20.738 -0.064 -20.713 -0.065 -20.593 -0.086 14.984 0.225 1.939 0.038 44.130 42.471
-39.600 -20.863 -0.065 -20.842 -0.061 -20.749 -0.063 -20.724 -0.064 -20.604 -0.086 14.957 0.218 1.953 0.037 44.133 42.461
-39.200 -20.872 -0.065 -20.851 -0.060 -20.759 -0.063 -20.735 -0.064 -20.615 -0.086 14.930 0.212 1.966 0.036 44.136 42.450
-38.800 -20.881 -0.064 -20.861 -0.060 -20.770 -0.063 -20.745 -0.064 -20.625 -0.085 14.903 0.206 1.980 0.036 44.139 42.440
-38.400 -20.890 -0.064 -20.871 -0.060 -20.781 -0.063 -20.756 -0.064 -20.636 -0.085 14.876 0.199 1.994 0.035 44.142 42.429
-38.000 -20.900 -0.063 -20.880 -0.059 -20.791 -0.063 -20.767 -0.064 -20.646 -0.085 14.849 0.193 2.008 0.034 44.145 42.418
-37.600 -20.908 -0.063 -20.890 -0.059 -20.802 -0.063 -20.777 -0.064 -20.657 -0.084 14.823 0.188 2.022 0.034 44.148 42.408
-37.200 -20.917 -0.062 -20.899 -0.059 -20.812 -0.063 -20.788 -0.064 -20.667 -0.084 14.797 0.182 2.036 0.033 44.151 42.397
-36.800 -20.926 -0.062 -20.908 -0.059 -20.822 -0.063 -20.798 -0.064 -20.677 -0.084 14.771 0.176 2.050 0.032 44.154 42.385
-36.400 -20.935 -0.061 -20.918 -0.059 -20.833 -0.062 -20.809 -0.064 -20.687 -0.084 14.745 0.171 2.064 0.031 44.157 42.374
-36.000 -20.943 -0.061 -20.927 -0.058 -20.843 -0.062 -20.819 -0.063 -20.698 -0.083 14.719 0.166 2.078 0.031 44.159 42.363
-35.600 -20.952 -0.061 -20.936 -0.058 -20.853 -0.062 -20.829 -0.063 -20.708 -0.083 14.693 0.160 2.091 0.030 44.162 42.351
-35.200 -20.961 -0.060 -20.945 -0.058 -20.863 -0.062 -20.839 -0.063 -20.718 -0.083 14.667 0.155 2.105 0.030 44.165 42.340
-34.800 -20.969 -0.060 -20.954 -0.058 -20.873 -0.062 -20.849 -0.063 -20.728 -0.083 14.642 0.150 2.119 0.029 44.168 42.328
-34.400 -20.977 -0.060 -20.963 -0.058 -20.883 -0.062 -20.859 -0.063 -20.737 -0.083 14.616 0.146 2.133 0.028 44.170 42.316
-34.000 -20.986 -0.059 -20.972 -0.058 -20.892 -0.062 -20.869 -0.063 -20.747 -0.083 14.591 0.141 2.147 0.028 44.173 42.303
-33.600 -20.994 -0.059 -20.980 -0.058 -20.902 -0.062 -20.879 -0.063 -20.757 -0.082 14.566 0.136 2.161 0.027 44.176 42.291
-33.200 -21.002 -0.059 -20.989 -0.058 -20.912 -0.061 -20.889 -0.063 -20.766 -0.082 14.541 0.131 2.175 0.026 44.178 42.278
-32.800 -21.010 -0.059 -20.997 -0.057 -20.921 -0.061 -20.898 -0.063 -20.776 -0.082 14.516 0.127 2.189 0.026 44.181 42.265
-32.400 -21.018 -0.059 -21.006 -0.057 -20.930 -0.061 -20.908 -0.063 -20.785 -0.082 14.490 0.123 2.203 0.025 44.183 42.252
-32.000 -21.026 -0.058 -21.014 -0.057 -20.940 -0.061 -20.917 -0.062 -20.794 -0.082 14.465 0.118 2.217 0.024 44.186 42.239
-31.600 -21.033 -0.058 -21.023 -0.057 -20.949 -0.061 -20.927 -0.062 -20.804 -0.082 14.440 0.114 2.231 0.024 44.188 42.225
-31.200 -21.041 -0.058 -21.031 -0.057 -20.958 -0.061 -20.936 -0.062 -20.813 -0.082 14.416 0.110 2.245 0.023 44.191 42.210
-30.800 -21.049 -0.058 -21.039 -0.057 -20.967 -0.061 -20.945 -0.062 -20.822 -0.082 14.391 0.105 2.259 0.022 44.193 42.195
-30.400 -21.056 -0.058 -21.047 -0.057 -20.976 -0.060 -20.954 -0.062 -20.831 -0.082 14.366 0.101 2.273 0.022 44.196 42.180
-30.000 -21.063 -0.058 -21.055 -0.057 -20.985 -0.060 -20.963 -0.062 -20.840 -0.082 14.341 0.097 2.288 0.021 44.198 42.164
-29.600 -21.071 -0.058 -21.063 -0.057 -20.994 -0.060 -20.972 -0.062 -20.849 -0.082 14.316 0.093 2.302 0.020 44.200 42.147
-29.200 -21.078 -0.058 -21.071 -0.057 -21.003 -0.060 -20.981 -0.062 -20.857 -0.082 14.291 0.089 2.316 0.019 44.202 42.130
-28.800 -21.085 -0.058 -21.078 -0.057 -21.011 -0.060 -20.990 -0.062 -20.866 -0.082 14.267 0.085 2.330 0.019 44.205 42.113
-28.400 -21.092 -0.058 -21.086 -0.057 -21.020 -0.060 -20.999 -0.061 -20.875 -0.082 14.242 0.081 2.344 0.018 44.207 42.095
-28.000 -21.099 -0.058 -21.094 -0.057 -21.029 -0.060 -21.007 -0.061 -20.883 -0.082 14.218 0.078 2.358 0.017 44.209 42.077
-27.600 -21.106 -0.058 -21.101 -0.057 -21.037 -0.060 -21.016 -0.061 -20.892 -0.082 14.193 0.074 2.372 0.017 44.211 42.059
-27.200 -21.113 -0.059 -21.109 -0.058 -21.046 -0.059 -21.024 -0.061 -20.900 -0.082 14.169 0.071 2.386 0.016 44.214 42.041
-26.800 -21.120 -0.059 -21.116 -0.058 -21.054 -0.059 -21.033 -0.061 -20.908 -0.081 14.145 0.067 2.400 0.016 44.216 42.023
-26.400 -21.127 -0.059 -21.123 -0.058 -21.062 -0.059 -21.041 -0.061 -20.916 -0.081 14.121 0.064 2.414 0.015 44.218 42.006
-26.000 -21.133 -0.059 -21.131 -0.058 -21.070 -0.059 -21.049 -0.061 -20.925 -0.081 14.098 0.062 2.428 0.014 44.220 41.989
-25.600 -21.140 -0.059 -21.138 -0.058 -21.078 -0.059 -21.057 -0.061 -20.933 -0.081 14.074 0.059 2.442 0.014 44.222 41.973
-25.200 -21.146 -0.059 -21.145 -0.058 -21.086 -0.059 -21.066 -0.061 -20.941 -0.081 14.051 0.057 2.456 0.014 44.224 41.958
-24.800 -21.153 -0.060 -21.152 -0.058 -21.094 -0.059 -21.074 -0.061 -20.949 -0.081 14.027 0.055 2.470 0.013 44.226 41.945
-24.400 -21.159 -0.060 -21.159 -0.058 -21.102 -0.059 -21.082 -0.061 -20.956 -0.081 14.004 0.053 2.484 0.013 44.228 41.934
-24.000 -21.165 -0.060 -21.166 -0.058 -21.110 -0.059 -21.089 -0.061 -20.964 -0.081 13.981 0.052 2.498 0.013 44.230 41.925
-23.600 -21.172 -0.060 -21.172 -0.059 -21.118 -0.059 -21.097 -0.060 -20.972 -0.081 13.958 0.051 2.512 0.013 44.232 41.919
-23.200 -21.178 -0.061 -21.179 -0.059 -21.125 -0.059 -21.105 -0.060 -20.979 -0.081 13.935 0.050 2.525 0.013 44.234 41.916
-22.800 -21.184 -0.061 -21.186 -0.059 -21.133 -0.059 -21.112 -0.060 -20.987 -0.081 13.912 0.050 2.539 0.013 44.236 41.915
-22.400 -21.190 -0.061 -21.192 -0.059 -21.140 -0.059 -21.120 -0.060 -20.994 -0.081 13.890 0.050 2.553 0.013 44.238 41.918
-22.000 -21.196 -0.061 -21.199 -0.059 -21.147 -0.058 -21.127 -0.060 -21.002 -0.081 13.867 0.051 2.567 0.013 44.240 41.922
-21.600 -21.201 -0.062 -21.205 -0.059 -21.155 -0.058 -21.135 -0.060 -21.009 -0.081 13.844 0.051 2.581 0.013 44.241 41.930
-21.200 -21.207 -0.062 -21.211 -0.060 -21.162 -0.058 -21.142 -0.060 -21.016 -0.081 13.821 0.052 2.595 0.013 44.243 41.939
-20.800 -21.213 -0.062 -21.218 -0.060 -21.169 -0.058 -21.149 -0.060 -21.024 -0.081 13.798 0.053 2.609 0.014 44.245 41.950
-20.400 -21.218 -0.062 -21.224 -0.060 -21.176 -0.058 -21.156 -0.060 -21.031 -0.081 13.775 0.054 2.622 0.014 44.247 41.962
-20.000 -21.224 -0.062 -21.230 -0.060 -21.183 -0.058 -21.163 -0.060 -21.038 -0.081 13.751 0.056 2.636 0.015 44.248 41.976
-19.600 -21.229 -0.063 -21.236 -0.060 -21.190 -0.058 -21.170 -0.060 -21.045 -0.081 13.728 0.058 2.650 0.015 44.250 41.991
-19.200 -21.234 -0.063 -21.241 -0.060 -21.197 -0.058 -21.177 -0.060 -21.052 -0.081 13.704 0.059 2.664 0.016 44.251 42.006
-18.800 -21.239 -0.063 -21.247 -0.060 -21.203 -0.058 -21.184 -0.059 -21.058 -0.081 13.680 0.061 2.678 0.017 44.253 42.021
-18.400 -21.244 -0.063 -21.253 -0.060 -21.210 -0.058 -21.191 -0.059 -21.065 -0.081 13.656 0.064 2.692 0.017 44.254 42.037
-18.000 -21.249 -0.063 -21.258 -0.060 -21.216 -0.058 -21.197 -0.059 -21.072 -0.081 13.631 0.066 2.706 0.018 44.256 42.053
-17.600 -21.254 -0.063 -21.264 -0.060 -21.223 -0.058 -21.204 -0.059 -21.078 -0.081 13.607 0.068 2.721 0.019 44.257 42.070
-17.200 -21.259 -0.064 -21.269 -0.061 -21.229 -0.057 -21.210 -0.059 -21.085 -0.081 13.582 0.070 2.735 0.020 44.259 42.086
-16.800 -21.263 -0.064 -21.274 -0.061 -21.235 -0.057 -21.217 -0.059 -21.091 -0.080 13.556 0.073 2.749 0.021 44.260 42.102
-16.400 -21.268 -0.064 -21.279 -0.061 -21.242 -0.057 -21.223 -0.059 -21.098 -0.080 13.530 0.075 2.764 0.021 44.261 42.118
-16.000 -21.272 -0.064 -21.284 -0.061 -21.248 -0.057 -21.229 -0.059 -21.104 -0.080 13.504 0.078 2.778 0.022 44.262 42.134
-15.600 -21.276 -0.064 -21.289 -0.061 -21.254 -0.057 -21.236 -0.059 -21.110 -0.080 13.478 0.081 2.793 0.023 44.263 42.150
-15.200 -21.280 -0.064 -21.294 -0.061 -21.260 -0.057 -21.242 -0.058 -21.116 -0.080 13.451 0.084 2.808 0.024 44.264 42.166
-14.800 -21.284 -0.064 -21.299 -0.061 -21.265 -0.057 -21.248 -0.058 -21.123 -0.080 13.423 0.086 2.823 0.025 44.266 42.181
-14.400 -21.288 -0.064 -21.303 -0.061 -21.271 -0.057 -21.254 -0.058 -21.129 -0.080 13.395 0.089 2.838 0.026 44.267 42.196
-14.000 -21.292 -0.064 -21.308 -0.061 -21.277 -0.057 -21.259 -0.058 -21.135 -0.080 13.367 0.092 2.853 0.028 44.267 42.211
-13.600 -21.296 -0.065 -21.312 -0.061 -21.283 -0.056 -21.265 -0.058 -21.140 -0.080 13.338 0.096 2.868 0.029 44.268 42.226
-13.200 -21.299 -0.065 -21.316 -0.061 -21.288 -0.056 -21.271 -0.058 -21.146 -0.080 13.309 0.099 2.883 0.030 44.269 42.241
-12.800 -21.303 -0.065 -21.321 -0.061 -21.294 -0.056 -21.276 -0.058 -21.152 -0.080 13.279 0.102 2.899 0.031 44.270 42.256
-12.400 -21.306 -0.065 -21.325 -0.061 -21.299 -0.056 -21.282 -0.058 -21.158 -0.080 13.249 0.105 2.915 0.033 44.271 42.270
-12.000 -21.309 -0.065 -21.328 -0.061 -21.304 -0.056 -21.287 -0.058 -21.163 -0.080 13.218 0.109 2.930 0.034 44.271 42.284
-11.600 -21.312 -0.065 -21.332 -0.061 -21.309 -0.056 -21.293 -0.057 -21.169 -0.080 13.187 0.112 2.946 0.035 44.272 42.298
-11.200 -21.315 -0.065 -21.336 -0.061 -21.315 -0.056 -21.298 -0.057 -21.174 -0.080 13.155 0.116 2.962 0.037 44.272 42.311
-10.800 -21.318 -0.065 -21.340 -0.061 -21.320 -0.056 -21.303 -0.057 -21.179 -0.080 13.123 0.119 2.979 0.038 44.273 42.324
-10.400 -21.321 -0.065 -21.343 -0.061 -21.325 -0.056 -21.308 -0.057 -21.185 -0.080 13.090 0.123 2.995 0.040 44.273 42.337
-10.000 -21.323 -0.065 -21.346 -0.061 -21.329 -0.056 -21.314 -0.057 -21.190 -0.080 13.057 0.127 3.012 0.042 44.274 42.350
-9.600 -21.326 -0.066 -21.349 -0.061 -21.334 -0.056 -21.318 -0.057 -21.195 -0.080 13.023 0.130 3.028 0.043 44.274 42.363
-9.200 -21.328 -0.066 -21.353 -0.061 -21.339 -0.055 -21.323 -0.057 -21.200 -0.080 12.989 0.134 3.045 0.045 44.274 42.376
-8.800 -21.330 -0.066 -21.355 -0.061 -21.344 -0.055 -21.328 -0.057 -21.205 -0.080 12.955 0.138 3.062 0.047 44.275 42.388
-8.400 -21.332 -0.066 -21.358 -0.062 -21.348 -0.055 -21.333 -0.057 -21.210 -0.080 12.920 0.142 3.079 0.049 44.275 42.400
-8.000 -21.334 -0.066 -21.361 -0.062 -21.353 -0.055 -21.338 -0.057 -21.214 -0.080 12.885 0.146 3.097 0.051 44.275 42.412
-7.600 -21.336 -0.067 -21.364 -0.062 -21.357 -0.055 -21.342 -0.057 -21.219 -0.080 12.849 0.151 3.114 0.053 44.275 42.424
-7.200 -21.337 -0.067 -21.366 -0.062 -21.361 -0.055 -21.347 -0.057 -21.224 -0.080 12.813 0.155 3.132 0.055 44.275 42.436
-6.800 -21.339 -0.067 -21.368 -0.062 -21.365 -0.055 -21.351 -0.057 -21.228 -0.080 12.777 0.159 3.150 0.057 44.275 42.447
-6.400 -21.340 -0.068 -21.371 -0.062 -21.369 -0.055 -21.355 -0.057 -21.232 -0.080 12.740 0.164 3.167 0.059 44.275 42.459
-6.000 -21.341 -0.068 -21.373 -0.063 -21.373 -0.055 -21.359 -0.057 -21.237 -0.081 12.703 0.168 3.185 0.061 44.275 42.470
-5.600 -21.342 -0.068 -21.375 -0.063 -21.377 -0.055 -21.364 -0.057 -21.241 -0.081 12.665 0.173 3.204 0.063 44.275 42.481
-5.200 -21.343 -0.069 -21.376 -0.063 -21.381 -0.055 -21.368 -0.057 -21.245 -0.081 12.627 0.177 3.222 0.066 44.274 42.491
-4.800 -21.344 -0.069 -21.378 -0.063 -21.385 -0.056 -21.371 -0.057 -21.249 -0.081 12.589 0.182 3.240 0.068 44.274 42.502
-4.400 -21.345 -0.069 -21.379 -0.064 -21.388 -0.056 -21.375 -0.057 -21.253 -0.081 12.550 0.187 3.259 0.071 44.274 42.512
-4.000 -21.345 -0.070 -21.381 -0.064 -21.392 -0.056 -21.379 -0.057 -21.257 -0.081 12.511 0.191 3.278 0.073 44.273 42.522
-3.600 -21.345 -0.070 -21.382 -0.064 -21.395 -0.056 -21.383 -0.057 -21.260 -0.081 12.472 0.196 3.297 0.076 44.273 42.532
-3.200 -21.345 -0.071 -21.383 -0.065 -21.398 -0.056 -21.386 -0.057 -21.264 -0.081 12.432 0.201 3.316 0.079 44.272 42.541
-2.800 -21.345 -0.071 -21.384 -0.065 -21.402 -0.056 -21.389 -0.057 -21.267 -0.081 12.392 0.206 3.335 0.082 44.272 42.550
-2.400 -21.345 -0.072 -21.385 -0.065 -21.405 -0.056 -21.393 -0.057 -21.271 -0.082 12.352 0.211 3.354 0.084 44.271 42.558
-2.000 -21.345 -0.072 -21.385 -0.066 -21.407 -0.056 -21.396 -0.058 -21.274 -0.082 12.311 0.215 3.373 0.087 44.270 42.567
-1.600 -21.344 -0.073 -21.386 -0.066 -21.410 -0.056 -21.399 -0.058 -21.277 -0.082 12.270 0.220 3.393 0.090 44.269 42.574
-1.200 -21.343 -0.073 -21.386 -0.066 -21.413 -0.056 -21.402 -0.058 -21.280 -0.082 12.229 0.224 3.412 0.093 44.269 42.582
-0.800 -21.342 -0.074 -21.386 -0.067 -21.415 -0.056 -21.404 -0.058 -21.283 -0.082 12.188 0.229 3.432 0.096 44.268 42.589
-0.400 -21.341 -0.074 -21.386 -0.067 -21.418 -0.057 -21.407 -0.058 -21.286 -0.082 12.147 0.233 3.452 0.099 44.267 42.595
-0.000 -21.340 -0.075 -21.386 -0.067 -21.420 -0.057 -21.410 -0.058 -21.289 -0.083 12.105 0.238 3.471 0.102 44.266 42.601
0.400 -21.339 -0.075 -21.386 -0.068 -21.422 -0.057 -21.412 -0.058 -21.292 -0.083 12.064 0.242 3.491 0.105 44.265 42.607
0.800 -21.337 -0.076 -21.385 -0.068 -21.424 -0.057 -21.414 -0.058 -21.294 -0.083 12.022 0.246 3.511 0.108 44.264 42.612
1.200 -21.335 -0.076 -21.384 -0.068 -21.426 -0.057 -21.416 -0.058 -21.296 -0.083 11.980 0.250 3.531 0.111 44.262 42.617
1.600 -21.333 -0.077 -21.383 -0.069 -21.427 -0.057 -21.418 -0.059 -21.299 -0.083 11.938 0.253 3.551 0.114 44.261 42.621
2.000 -21.331 -0.077 -21.382 -0.069 -21.429 -0.057 -21.420 -0.059 -21.301 -0.084 11.897 0.257 3.570 0.117 44.260 42.625
2.400 -21.329 -0.078 -21.381 -0.069 -21.430 -0.058 -21.422 -0.059 -21.303 -0.084 11.855 0.260 3.590 0.120 44.259 42.628
2.800 -21.327 -0.078 -21.380 -0.070 -21.431 -0.058 -21.423 -0.059 -21.305 -0.084 11.813 0.264 3.610 0.123 44.257 42.631
3.200 -21.324 -0.079 -21.378 -0.070 -21.432 -0.058 -21.424 -0.059 -21.307 -0.084 11.771 0.267 3.630 0.126 44.256 42.633
3.600 -21.321 -0.079 -21.377 -0.070 -21.433 -0.058 -21.426 -0.059 -21.308 -0.084 11.729 0.270 3.650 0.129 44.254 42.636
4.000 -21.318 -0.080 -21.375 -0.071 -21.434 -0.058 -21.427 -0.059 -21.310 -0.085 11.687 0.273 3.670 0.131 44.253 42.637
4.400 -21.315 -0.080 -21.373 -0.071 -21.435 -0.058 -21.428 -0.059 -21.311 -0.085 11.645 0.275 3.689 0.134 44.251 42.639
4.800 -21.312 -0.080 -21.371 -0.071 -21.435 -0.058 -21.428 -0.059 -21.312 -0.085 11.603 0.278 3.709 0.137 44.250 42.639
5.200 -21.309 -0.081 -21.368 -0.072 -21.435 -0.058 -21.429 -0.060 -21.314 -0.085 11.561 0.280 3.729 0.140 44.248 42.640
5.600 -21.305 -0.081 -21.366 -0.072 -21.436 -0.058 -21.430 -0.060 -21.315 -0.085 11.520 0.282 3.748 0.143 44.246 42.640
6.000 -21.302 -0.081 -21.363 -0.072 -21.436 -0.058 -21.430 -0.060 -21.316 -0.085 11.478 0.284 3.768 0.145 44.245 42.640
6.400 -21.298 -0.082 -21.361 -0.072 -21.435 -0.058 -21.430 -0.060 -21.317 -0.086 11.436 0.286 3.788 0.148 44.243 42.640
6.800 -21.294 -0.082 -21.358 -0.072 -21.435 -0.058 -21.430 -0.060 -21.317 -0.086 11.395 0.288 3.807 0.150 44.241 42.639
7.200 -21.290 -0.082 -21.355 -0.073 -21.435 -0.058 -21.430 -0.060 -21.318 -0.086 11.353 0.289 3.827 0.153 44.239 42.638
7.600 -21.285 -0.083 -21.351 -0.073 -21.434 -0.058 -21.430 -0.060 -21.318 -0.086 11.312 0.291 3.846 0.156 44.237 42.636
8.000 -21.281 -0.083 -21.348 -0.073 -21.433 -0.058 -21.430 -0.060 -21.319 -0.086 11.271 0.292 3.866 0.158 44.235 42.634
8.400 -21.276 -0.083 -21.344 -0.073 -21.433 -0.058 -21.429 -0.060 -21.319 -0.086 11.229 0.293 3.885 0.160 44.233 42.632
8.800 -21.272 -0.083 -21.341 -0.073 -21.432 -0.058 -21.429 -0.059 -21.319 -0.086 11.188 0.294 3.905 0.163 44.231 42.630
9.200 -21.267 -0.083 -21.337 -0.073 -21.430 -0.058 -21.428 -0.059 -21.319 -0.086 11.147 0.294 3.924 0.165 44.229 42.627
9.600 -21.262 -0.083 -21.333 -0.073 -21.429 -0.058 -21.427 -0.059 -21.319 -0.086 11.106 0.295 3.943 0.167 44.227 42.624
10.000 -21.257 -0.083 -21.329 -0.073 -21.428 -0.058 -21.426 -0.059 -21.319 -0.086 11.066 0.295 3.962 0.169 44.225 42.620
10.400 -21.252 -0.084 -21.325 -0.073 -21.426 -0.058 -21.425 -0.059 -21.319 -0.086 11.025 0.295 3.981 0.171 44.222 42.616
10.800 -21.246 -0.084 -21.320 -0.073 -21.424 -0.058 -21.423 -0.059 -21.319 -0.086 10.985 0.296 4.000 0.173 44.220 42.612
11.200 -21.241 -0.084 -21.316 -0.073 -21.423 -0.057 -21.422 -0.059 -21.318 -0.086 10.944 0.295 4.019 0.175 44.218 42.608
11.600 -21.235 -0.084 -21.311 -0.073 -21.421 -0.057 -21.420 -0.059 -21.318 -0.086 10.904 0.295 4.038 0.177 44.216 42.603
12.000 -21.229 -0.084 -21.306 -0.073 -21.418 -0.057 -21.419 -0.059 -21.317 -0.086 10.864 0.294 4.057 0.179 44.213 42.598
12.400 -21.223 -0.084 -21.301 -0.073 -21.416 -0.057 -21.417 -0.058 -21.317 -0.086 10.825 0.294 4.075 0.180 44.211 42.592
12.800 -21.217 -0.083 -21.296 -0.073 -21.414 -0.057 -21.415 -0.058 -21.316 -0.086 10.785 0.293 4.094 0.182 44.208 42.586
13.200 -21.211 -0.083 -21.291 -0.073 -21.411 -0.057 -21.413 -0.058 -21.315 -0.086 10.746 0.292 4.112 0.183 44.206 42.580
13.600 -21.205 -0.083 -21.286 -0.073 -21.408 -0.057 -21.411 -0.058 -21.314 -0.086 10.707 0.290 4.130 0.184 44.203 42.573
14.000 -21.199 -0.083 -21.280 -0.073 -21.406 -0.056 -21.408 -0.058 -21.313 -0.086 10.669 0.289 4.148 0.185 44.201 42.566
14.400 -21.192 -0.083 -21.275 -0.073 -21.403 -0.056 -21.406 -0.058 -21.312 -0.085 10.630 0.287 4.166 0.186 44.198 42.559
14.800 -21.186 -0.083 -21.269 -0.073 -21.400 -0.056 -21.403 -0.058 -21.310 -0.085 10.592 0.285 4.183 0.187 44.196 42.551
15.200 -21.179 -0.083 -21.263 -0.073 -21.396 -0.056 -21.400 -0.058 -21.309 -0.085 10.555 0.283 4.201 0.188 44.193 42.542
15.600 -21.172 -0.082 -21.257 -0.072 -21.393 -0.056 -21.397 -0.058 -21.308 -0.085 10.517 0.281 4.218 0.188 44.191 42.534
16.000 -21.165 -0.082 -21.251 -0.072 -21.390 -0.056 -21.394 -0.058 -21.306 -0.085 10.480 0.278 4.235 0.188 44.188 42.524
16.400 -21.158 -0.082 -21.245 -0.072 -21.386 -0.056 -21.391 -0.058 -21.305 -0.085 10.443 0.275 4.252 0.188 44.185 42.515
16.800 -21.151 -0.082 -21.239 -0.072 -21.382 -0.056 -21.388 -0.058 -21.303 -0.085 10.406 0.272 4.269 0.188 44.183 42.505
17.200 -21.144 -0.081 -21.233 -0.072 -21.379 -0.056 -21.385 -0.058 -21.301 -0.085 10.370 0.269 4.285 0.188 44.180 42.494
17.600 -21.137 -0.081 -21.227 -0.072 -21.375 -0.056 -21.381 -0.058 -21.299 -0.085 10.334 0.266 4.301 0.188 44.177 42.483
18.000 -21.129 -0.081 -21.220 -0.071 -21.371 -0.057 -21.378 -0.058 -21.298 -0.085 10.298 0.262 4.317 0.188 44.174 42.472
18.400 -21.122 -0.081 -21.213 -0.071 -21.367 -0.057 -21.374 -0.058 -21.296 -0.085 10.262 0.259 4.333 0.187 44.171 42.460
18.800 -21.114 -0.080 -21.207 -0.071 -21.362 -0.057 -21.370 -0.059 -21.294 -0.085 10.227 0.255 4.349 0.186 44.169 42.449
19.200 -21.107 -0.080 -21.200 -0.071 -21.358 -0.057 -21.367 -0.059 -21.292 -0.085 10.192 0.251 4.365 0.186 44.166 42.436
19.600 -21.099 -0.080 -21.193 -0.071 -21.354 -0.057 -21.363 -0.059 -21.290 -0.085 10.157 0.247 4.381 0.185 44.163 42.424
20.000 -21.091 -0.079 -21.186 -0.070 -21.349 -0.058 -21.359 -0.059 -21.287 -0.085 10.122 0.244 4.397 0.184 44.160 42.411
20.400 -21.084 -0.079 -21.179 -0.070 -21.345 -0.058 -21.355 -0.059 -21.285 -0.085 10.087 0.240 4.412 0.183 44.157 42.398
20.800 -21.076 -0.078 -21.172 -0.070 -21.340 -0.058 -21.351 -0.060 -21.283 -0.085 10.052 0.236 4.428 0.182 44.154 42.385
21.200 -21.068 -0.078 -21.165 -0.070 -21.335 -0.059 -21.347 -0.060 -21.281 -0.085 10.018 0.232 4.444 0.181 44.151 42.372
21.600 -21.060 -0.078 -21.158 -0.069 -21.331 -0.059 -21.342 -0.060 -21.278 -0.085 9.979 0.228 4.463 0.180 44.148 42.358
22.000 -21.051 -0.077 -21.151 -0.069 -21.326 -0.059 -21.338 -0.061 -21.276 -0.085 9.949 0.224 4.476 0.179 44.146 42.345
22.400 -21.043 -0.077 -21.144 -0.069 -21.321 -0.060 -21.334 -0.061 -21.273 -0.086 9.911 0.220 4.494 0.178 44.143 42.331
22.800 -21.035 -0.076 -21.136 -0.069 -21.316 -0.060 -21.329 -0.061 -21.271 -0.086 9.881 0.217 4.507 0.177 44.140 42.318
23.200 -21.027 -0.076 -21.129 -0.069 -21.311 -0.060 -21.325 -0.062 -21.268 -0.086 9.843 0.213 4.526 0.176 44.137 42.304
23.600 -21.018 -0.076 -21.121 -0.068 -21.306 -0.060 -21.320 -0.062 -21.266 -0.086 9.814 0.210 4.538 0.175 44.134 42.292
24.000 -21.010 -0.075 -21.114 -0.068 -21.301 -0.061 -21.316 -0.062 -21.263 -0.086 9.777 0.206 4.557 0.174 44.131 42.278
24.400 -21.002 -0.075 -21.106 -0.068 -21.296 -0.061 -21.311 -0.063 -21.260 -0.087 9.748 0.203 4.569 0.173 44.128 42.266
24.800 -20.993 -0.074 -21.099 -0.068 -21.291 -0.061 -21.307 -0.063 -21.258 -0.087 9.711 0.199 4.588 0.172 44.125 42.253
25.200 -20.985 -0.074 -21.091 -0.067 -21.286 -0.062 -21.302 -0.063 -21.255 -0.087 9.679 0.196 4.603 0.171 44.122 42.241
25.600 -20.976 -0.074 -21.084 -0.067 -21.281 -0.062 -21.297 -0.063 -21.252 -0.088 9.646 0.193 4.619 0.171 44.119 42.229
26.000 -20.968 -0.073 -21.076 -0.067 -21.276 -0.062 -21.293 -0.064 -21.249 -0.088 9.614 0.191 4.634 0.170 44.116 42.217
26.400 -20.959 -0.073 -21.068 -0.067 -21.271 -0.063 -21.288 -0.064 -21.246 -0.088 9.582 0.188 4.649 0.169 44.114 42.206
26.800 -20.950 -0.072 -21.060 -0.066 -21.265 -0.063 -21.283 -0.064 -21.243 -0.089 9.551 0.185 4.665 0.169 44.111 42.195
27.200 -20.942 -0.072 -21.053 -0.066 -21.260 -0.063 -21.279 -0.065 -21.240 -0.089 9.519 0.183 4.680 0.168 44.108 42.184
27.600 -20.933 -0.072 -21.045 -0.066 -21.255 -0.063 -21.274 -0.065 -21.237 -0.090 9.488 0.181 4.695 0.168 44.105 42.174
28.000 -20.924 -0.071 -21.037 -0.066 -21.250 -0.064 -21.269 -0.065 -21.234 -0.090 9.457 0.179 4.710 0.168 44.102 42.164
28.400 -20.916 -0.071 -21.029 -0.066 -21.244 -0.064 -21.264 -0.065 -21.231 -0.091 9.427 0.176 4.726 0.168 44.099 42.155
28.800 -20.907 -0.071 -21.021 -0.065 -21.239 -0.064 -21.259 -0.066 -21.227 -0.091 9.397 0.175 4.741 0.168 44.096 42.146
29.200 -20.898 -0.070 -21.014 -0.065 -21.234 -0.064 -21.255 -0.066 -21.224 -0.091 9.367 0.173 4.756 0.168 44.094 42.138
29.600 -20.889 -0.070 -21.006 -0.065 -21.228 -0.064 -21.250 -0.066 -21.221 -0.092 9.340 0.171 4.767 0.168 44.091 42.130
30.000 -20.881 -0.070 -20.998 -0.065 -21.223 -0.065 -21.245 -0.066 -21.217 -0.092 9.308 0.170 4.785 0.168 44.088 42.123
30.400 -20.872 -0.069 -20.990 -0.065 -21.218 -0.065 -21.240 -0.067 -21.214 -0.093 9.282 0.168 4.797 0.168 44.085 42.116
30.800 -20.863 -0.069 -20.982 -0.065 -21.213 -0.065 -21.235 -0.067 -21.211 -0.093 9.250 0.167 4.815 0.168 44.082 42.110
31.200 -20.854 -0.069 -20.974 -0.064 -21.207 -0.065 -21.230 -0.067 -21.207 -0.094 9.224 0.166 4.826 0.169 44.080 42.104
31.600 -20.845 -0.069 -20.966 -0.064 -21.202 -0.065 -21.225 -0.067 -21.204 -0.094 9.193 0.164 4.844 0.169 44.077 42.099
32.000 -20.837 -0.069 -20.958 -0.064 -21.196 -0.065 -21.220 -0.067 -21.200 -0.095 9.165 0.163 4.858 0.170 44.074 42.094
32.400 -20.828 -0.069 -20.950 -0.064 -21.191 -0.065 -21.215 -0.067 -21.197 -0.095 9.138 0.163 4.872 0.171 44.072 42.090
32.800 -20.819 -0.068 -20.943 -0.064 -21.186 -0.066 -21.210 -0.068 -21.193 -0.096 9.111 0.162 4.886 0.171 44.069 42.086
33.200 -20.810 -0.068 -20.935 -0.064 -21.180 -0.066 -21.205 -0.068 -21.189 -0.096 9.087 0.161 4.896 0.172 44.066 42.083
33.600 -20.802 -0.068 -20.927 -0.064 -21.175 -0.066 -21.200 -0.068 -21.186 -0.097 9.058 0.160 4.913 0.173 44.064 42.080
34.000 -20.793 -0.068 -20.919 -0.064 -21.170 -0.066 -21.195 -0.068 -21.182 -0.097 9.035 0.160 4.923 0.174 44.061 42.077
34.400 -20.784 -0.068 -20.911 -0.064 -21.164 -0.066 -21.190 -0.068 -21.178 -0.098 9.010 0.159 4.935 0.175 44.058 42.075
34.800 -20.776 -0.068 -20.903 -0.064 -21.159 -0.066 -21.185 -0.068 -21.174 -0.098 8.985 0.159 4.947 0.175 44.056 42.072
35.200 -20.767 -0.068 -20.895 -0.064 -21.153 -0.066 -21.180 -0.068 -21.170 -0.099 8.961 0.159 4.959 0.176 44.053 42.071
35.600 -20.758 -0.068 -20.887 -0.064 -21.148 -0.066 -21.175 -0.068 -21.166 -0.099 8.934 0.158 4.974 0.177 44.050 42.069
36.000 -20.750 -0.068 -20.879 -0.064 -21.142 -0.066 -21.170 -0.068 -21.162 -0.100 8.913 0.158 4.983 0.178 44.048 42.068
36.400 -20.741 -0.068 -20.872 -0.064 -21.137 -0.066 -21.165 -0.069 -21.158 -0.101 8.890 0.158 4.993 0.179 44.045 42.066
36.800 -20.733 -0.069 -20.864 -0.064 -21.131 -0.066 -21.159 -0.069 -21.154 -0.101 8.868 0.158 5.003 0.181 44.043 42.066
37.200 -20.724 -0.069 -20.856 -0.064 -21.125 -0.066 -21.154 -0.069 -21.150 -0.102 8.845 0.157 5.013 0.182 44.040 42.065
37.600 -20.716 -0.069 -20.848 -0.064 -21.120 -0.066 -21.149 -0.069 -21.146 -0.102 8.824 0.157 5.023 0.183 44.037 42.064
38.000 -20.707 -0.069 -20.840 -0.064 -21.114 -0.066 -21.143 -0.069 -21.141 -0.103 8.803 0.157 5.032 0.184 44.035 42.063
38.400 -20.699 -0.069 -20.832 -0.065 -21.108 -0.066 -21.138 -0.069 -21.137 -0.103 8.782 0.157 5.041 0.185 44.032 42.063
38.800 -20.690 -0.069 -20.824 -0.065 -21.102 -0.066 -21.132 -0.069 -21.133 -0.104 8.762 0.157 5.049 0.186 44.030 42.062
39.200 -20.682 -0.070 -20.816 -0.065 -21.096 -0.066 -21.127 -0.069 -21.128 -0.104 8.742 0.157 5.057 0.187 44.027 42.062
39.600 -20.673 -0.070 -20.808 -0.065 -21.091 -0.066 -21.121 -0.069 -21.123 -0.105 8.722 0.157 5.064 0.188 44.024 42.062
40.000 -20.665 -0.070 -20.800 -0.065 -21.085 -0.066 -21.116 -0.069 -21.119 -0.106 8.703 0.157 5.071 0.189 44.022 42.061
40.400 -20.656 -0.070 -20.792 -0.065 -21.079 -0.066 -21.110 -0.069 -21.114 -0.106 8.684 0.157 5.078 0.190 44.019 42.061
40.800 -20.648 -0.071 -20.784 -0.065 -21.073 -0.066 -21.104 -0.069 -21.109 -0.107 8.666 0.157 5.084 0.191 44.017 42.060
41.200 -20.639 -0.071 -20.776 -0.066 -21.066 -0.066 -21.098 -0.069 -21.104 -0.108 8.648 0.157 5.089 0.192 44.014 42.060
41.600 -20.631 -0.071 -20.768 -0.066 -21.060 -0.066 -21.092 -0.069 -21.100 -0.108 8.631 0.157 5.095 0.193 44.011 42.059
42.000 -20.622 -0.071 -20.760 -0.066 -21.054 -0.066 -21.086 -0.069 -21.095 -0.109 8.614 0.157 5.099 0.193 44.009 42.058
42.400 -20.614 -0.072 -20.752 -0.066 -21.048 -0.066 -21.080 -0.069 -21.090 -0.109 8.595 0.157 5.105 0.194 44.006 42.058
42.800 -20.605 -0.072 -20.744 -0.066 -21.041 -0.066 -21.074 -0.069 -21.084 -0.110 8.579 0.157 5.109 0.195 44.003 42.056
43.200 -20.597 -0.072 -20.736 -0.066 -21.035 -0.066 -21.068 -0.069 -21.079 -0.111 8.563 0.156 5.112 0.195 44.001 42.055
43.600 -20.588 -0.073 -20.728 -0.067 -21.028 -0.066 -21.062 -0.069 -21.074 -0.111 8.548 0.156 5.114 0.196 43.998 42.054
44.000 -20.580 -0.073 -20.719 -0.067 -21.022 -0.066 -21.056 -0.069 -21.069 -0.112 8.532 0.156 5.116 0.196 43.995 42.052
44.400 -20.571 -0.073 -20.711 -0.067 -21.015 -0.065 -21.049 -0.069 -21.063 -0.113 8.518 0.156 5.118 0.196 43.992 42.050
44.800 -20.563 -0.073 -20.703 -0.067 -21.008 -0.065 -21.043 -0.069 -21.058 -0.113 8.504 0.155 5.119 0.197 43.990 42.048
45.200 -20.554 -0.074 -20.695 -0.067 -21.001 -0.065 -21.036 -0.069 -21.052 -0.114 8.490 0.155 5.119 0.197 43.987 42.045
45.600 -20.546 -0.074 -20.686 -0.067 -20.994 -0.065 -21.029 -0.068 -21.047 -0.115 8.476 0.154 5.118 0.196 43.984 42.043
46.000 -20.537 -0.074 -20.678 -0.068 -20.987 -0.065 -21.022 -0.068 -21.041 -0.115 8.463 0.154 5.117 0.196 43.981 42.040
46.400 -20.529 -0.075 -20.669 -0.068 -20.980 -0.065 -21.016 -0.068 -21.035 -0.116 8.451 0.153 5.115 0.196 43.978 42.036
46.800 -20.520 -0.075 -20.661 -0.068 -20.973 -0.065 -21.008 -0.068 -21.029 -0.117 8.439 0.152 5.113 0.195 43.975 42.032
47.200 -20.511 -0.075 -20.653 -0.068 -20.966 -0.064 -21.001 -0.068 -21.023 -0.117 8.427 0.152 5.110 0.194 43.972 42.028
47.600 -20.503 -0.076 -20.644 -0.068 -20.958 -0.064 -20.994 -0.068 -21.018 -0.118 8.416 0.151 5.106 0.194 43.969 42.024
48.000 -20.494 -0.076 -20.635 -0.068 -20.951 -0.064 -20.987 -0.068 -21.012 -0.119 8.405 0.150 5.101 0.193 43.966 42.019
48.400 -20.485 -0.076 -20.627 -0.069 -20.943 -0.064 -20.979 -0.068 -21.005 -0.120 8.395 0.149 5.095 0.191 43.963 42.014
48.800 -20.477 -0.076 -20.618 -0.069 -20.935 -0.064 -20.972 -0.068 -20.999 -0.120 8.386 0.148 5.089 0.190 43.960 42.008
49.200 -20.468 -0.077 -20.610 -0.069 -20.927 -0.064 -20.964 -0.068 -20.993 -0.121 8.377 0.146 5.082 0.189 43.957 42.002
49.600 -20.459 -0.077 -20.601 -0.069 -20.919 -0.064 -20.956 -0.068 -20.987 -0.122 8.368 0.145 5.074 0.187 43.954 41.996
50.000 -20.451 -0.078 -20.592 -0.070 -20.911 -0.063 -20.948 -0.068 -20.981 -0.122 8.360 0.144 5.065 0.185 43.951 41.989
50.400 -20.442 -0.078 -20.583 -0.070 -20.903 -0.063 -20.940 -0.068 -20.974 -0.123 8.353 0.142 5.056 0.183 43.948 41.982
50.800 -20.433 -0.078 -20.575 -0.070 -20.894 -0.063 -20.932 -0.068 -20.968 -0.124 8.346 0.141 5.045 0.181 43.944 41.974
51.200 -20.424 -0.079 -20.566 -0.070 -20.886 -0.063 -20.924 -0.068 -20.961 -0.125 8.340 0.139 5.034 0.179 43.941 41.966
51.600 -20.416 -0.079 -20.557 -0.071 -20.877 -0.063 -20.916 -0.068 -20.955 -0.126 8.334 0.138 5.022 0.176 43.938 41.957
52.000 -20.407 -0.080 -20.548 -0.071 -20.869 -0.063 -20.907 -0.068 -20.948 -0.126 8.329 0.136 5.008 0.174 43.935 41.949
52.400 -20.398 -0.080 -20.539 -0.071 -20.860 -0.063 -20.899 -0.068 -20.941 -0.127 8.325 0.134 4.994 0.171 43.931 41.939
52.800 -20.390 -0.081 -20.530 -0.072 -20.851 -0.063 -20.890 -0.068 -20.935 -0.128 8.321 0.132 4.979 0.168 43.928 41.930
53.200 -20.381 -0.081 -20.521 -0.072 -20.842 -0.064 -20.881 -0.069 -20.928 -0.129 8.317 0.130 4.963 0.166 43.924 41.920
53.600 -20.372 -0.082 -20.512 -0.073 -20.832 -0.064 -20.872 -0.069 -20.921 -0.130 8.315 0.129 4.947 0.163 43.921 41.910
54.000 -20.363 -0.082 -20.503 -0.073 -20.823 -0.064 -20.863 -0.069 -20.914 -0.131 8.313 0.127 4.929 0.160 43.917 41.900
54.400 -20.355 -0.083 -20.494 -0.074 -20.814 -0.064 -20.854 -0.070 -20.907 -0.131 8.311 0.125 4.911 0.157 43.914 41.890
54.800 -20.346 -0.084 -20.485 -0.074 -20.804 -0.064 -20.845 -0.070 -20.900 -0.132 8.310 0.124 4.892 0.155 43.910 41.880
55.200 -20.337 -0.084 -20.476 -0.075 -20.795 -0.065 -20.836 -0.070 -20.893 -0.133 8.309 0.122 4.872 0.152 43.907 41.870
55.600 -20.329 -0.085 -20.467 -0.075 -20.785 -0.065 -20.826 -0.071 -20.886 -0.134 8.309 0.121 4.852 0.150 43.903 41.861
56.000 -20.320 -0.086 -20.458 -0.076 -20.775 -0.065 -20.817 -0.071 -20.879 -0.135 8.309 0.119 4.832 0.147 43.899 41.852
56.400 -20.311 -0.087 -20.449 -0.076 -20.765 -0.066 -20.807 -0.072 -20.872 -0.136 8.310 0.118 4.811 0.145 43.896 41.844
56.800 -20.303 -0.087 -20.440 -0.077 -20.756 -0.066 -20.798 -0.072 -20.865 -0.137 8.311 0.117 4.789 0.143 43.892 41.836
57.200 -20.294 -0.088 -20.431 -0.078 -20.746 -0.067 -20.788 -0.073 -20.858 -0.138 8.312 0.117 4.767 0.142 43.888 41.829
57.600 -20.285 -0.089 -20.422 -0.078 -20.736 -0.068 -20.779 -0.073 -20.851 -0.139 8.314 0.116 4.745 0.141 43.884 41.823
58.000 -20.277 -0.090 -20.413 -0.079 -20.726 -0.068 -20.769 -0.074 -20.843 -0.140 8.316 0.116 4.722 0.140 43.881 41.818
58.400 -20.268 -0.091 -20.404 -0.080 -20.716 -0.069 -20.759 -0.075 -20.836 -0.141 8.318 0.116 4.699 0.139 43.877 41.814
58.800 -20.259 -0.092 -20.395 -0.081 -20.706 -0.069 -20.750 -0.076 -20.829 -0.142 8.320 0.116 4.677 0.138 43.873 41.810
59.200 -20.251 -0.092 -20.386 -0.081 -20.696 -0.070 -20.740 -0.076 -20.821 -0.143 8.323 0.117 4.653 0.138 43.870 41.808
59.600 -20.242 -0.093 -20.377 -0.082 -20.686 -0.071 -20.730 -0.077 -20.814 -0.144 8.326 0.118 4.630 0.139 43.866 41.807
60.000 -20.234 -0.094 -20.368 -0.083 -20.676 -0.072 -20.720 -0.078 -20.806 -0.145 8.329 0.119 4.607 0.139 43.862 41.807
60.400 -20.225 -0.095 -20.359 -0.084 -20.666 -0.073 -20.711 -0.079 -20.799 -0.146 8.332 0.120 4.584 0.140 43.858 41.807
60.800 -20.217 -0.096 -20.349 -0.085 -20.656 -0.074 -20.701 -0.080 -20.791 -0.147 8.335 0.121 4.561 0.141 43.855 41.809
61.200 -20.208 -0.097 -20.340 -0.086 -20.646 -0.075 -20.691 -0.081 -20.784 -0.148 8.338 0.123 4.538 0.142 43.851 41.811
61.600 -20.200 -0.098 -20.331 -0.086 -20.636 -0.076 -20.681 -0.082 -20.776 -0.149 8.341 0.125 4.515 0.143 43.847 41.814
62.000 -20.192 -0.099 -20.322 -0.087 -20.626 -0.077 -20.672 -0.083 -20.769 -0.150 8.345 0.127 4.492 0.145 43.843 41.817
62.400 -20.183 -0.100 -20.313 -0.088 -20.616 -0.078 -20.662 -0.084 -20.761 -0.151 8.348 0.130 4.469 0.147 43.840 41.821
62.800 -20.175 -0.101 -20.305 -0.089 -20.606 -0.079 -20.652 -0.085 -20.754 -0.152 8.351 0.132 4.446 0.149 43.836 41.826
63.200 -20.166 -0.102 -20.296 -0.090 -20.596 -0.080 -20.642 -0.086 -20.746 -0.153 8.355 0.135 4.424 0.151 43.832 41.831
63.600 -20.158 -0.103 -20.287 -0.091 -20.586 -0.081 -20.633 -0.087 -20.738 -0.154 8.358 0.138 4.401 0.153 43.828 41.836
64.000 -20.150 -0.104 -20.278 -0.092 -20.577 -0.083 -20.623 -0.089 -20.731 -0.155 8.362 0.140 4.379 0.155 43.825 41.841
64.400 -20.141 -0.105 -20.269 -0.093 -20.567 -0.084 -20.613 -0.090 -20.723 -0.156 8.365 0.143 4.357 0.158 43.821 41.846
64.800 -20.133 -0.107 -20.260 -0.094 -20.557 -0.085 -20.604 -0.091 -20.715 -0.157 8.369 0.146 4.335 0.160 43.817 41.852
65.200 -20.125 -0.108 -20.251 -0.095 -20.547 -0.086 -20.594 -0.092 -20.708 -0.158 8.372 0.150 4.313 0.163 43.814 41.857
65.600 -20.117 -0.109 -20.242 -0.096 -20.537 -0.087 -20.585 -0.094 -20.700 -0.159 8.375 0.153 4.292 0.165 43.810 41.863
66.000 -20.108 -0.110 -20.234 -0.097 -20.528 -0.089 -20.575 -0.095 -20.692 -0.160 8.379 0.156 4.270 0.168 43.806 41.869
66.400 -20.100 -0.111 -20.225 -0.098 -20.518 -0.090 -20.565 -0.096 -20.685 -0.161 8.382 0.159 4.249 0.171 43.803 41.874
66.800 -20.092 -0.112 -20.216 -0.099 -20.508 -0.091 -20.556 -0.097 -20.677 -0.162 8.385 0.163 4.228 0.173 43.799 41.880
67.200 -20.084 -0.113 -20.207 -0.100 -20.499 -0.092 -20.546 -0.098 -20.669 -0.163 8.389 0.166 4.207 0.176 43.796 41.885
67.600 -20.076 -0.114 -20.199 -0.101 -20.489 -0.094 -20.537 -0.100 -20.661 -0.164 8.392 0.170 4.186 0.179 43.792 41.891
68.000 -20.067 -0.115 -20.190 -0.102 -20.480 -0.095 -20.527 -0.101 -20.654 -0.165 8.395 0.173 4.166 0.181 43.788 41.896
68.400 -20.059 -0.116 -20.181 -0.103 -20.470 -0.096 -20.518 -0.102 -20.646 -0.166 8.399 0.177 4.146 0.184 43.785 41.901
68.800 -20.051 -0.117 -20.173 -0.104 -20.461 -0.098 -20.509 -0.103 -20.638 -0.167 8.402 0.180 4.126 0.187 43.781 41.906
69.200 -20.043 -0.118 -20.164 -0.105 -20.451 -0.099 -20.499 -0.105 -20.631 -0.168 8.405 0.184 4.106 0.189 43.778 41.910
69.600 -20.035 -0.119 -20.155 -0.106 -20.442 -0.100 -20.490 -0.106 -20.623 -0.169 8.408 0.187 4.086 0.192 43.774 41.915
70.000 -20.027 -0.120 -20.147 -0.107 -20.432 -0.101 -20.481 -0.107 -20.615 -0.170 8.411 0.190 4.067 0.194 43.771 41.920
70.400 -20.019 -0.121 -20.138 -0.108 -20.423 -0.103 -20.472 -0.108 -20.607 -0.171 8.414 0.194 4.048 0.197 43.767 41.924
70.800 -20.011 -0.122 -20.130 -0.109 -20.414 -0.104 -20.462 -0.110 -20.600 -0.172 8.417 0.197 4.029 0.199 43.764 41.928
71.200 -20.003 -0.123 -20.121 -0.110 -20.404 -0.105 -20.453 -0.111 -20.592 -0.172 8.420 0.201 4.010 0.202 43.760 41.932
71.600 -19.995 -0.124 -20.113 -0.111 -20.395 -0.106 -20.444 -0.112 -20.584 -0.173 8.423 0.204 3.991 0.204 43.757 41.936
72.000 -19.987 -0.125 -20.105 -0.112 -20.386 -0.107 -20.435 -0.113 -20.577 -0.174 8.425 0.208 3.973 0.206 43.753 41.939
72.400 -19.980 -0.126 -20.096 -0.113 -20.377 -0.109 -20.426 -0.114 -20.569 -0.175 8.428 0.211 3.955 0.208 43.750 41.943
72.800 -19.972 -0.127 -20.088 -0.114 -20.368 -0.110 -20.417 -0.116 -20.561 -0.176 8.431 0.214 3.937 0.211 43.747 41.946
73.200 -19.964 -0.128 -20.080 -0.115 -20.359 -0.111 -20.408 -0.117 -20.554 -0.177 8.433 0.217 3.919 0.213 43.743 41.949
73.600 -19.956 -0.129 -20.071 -0.116 -20.350 -0.112 -20.399 -0.118 -20.546 -0.177 8.436 0.221 3.902 0.215 43.740 41.952
74.000 -19.948 -0.130 -20.063 -0.117 -20.341 -0.113 -20.390 -0.119 -20.538 -0.178 8.438 0.224 3.884 0.217 43.736 41.954
74.400 -19.940 -0.131 -20.055 -0.118 -20.332 -0.114 -20.381 -0.120 -20.531 -0.179 8.440 0.227 3.867 0.219 43.733 41.957
74.800 -19.933 -0.132 -20.047 -0.119 -20.323 -0.115 -20.373 -0.121 -20.523 -0.180 8.442 0.230 3.851 0.221 43.730 41.959
75.200 -19.925 -0.133 -20.039 -0.120 -20.314 -0.116 -20.364 -0.122 -20.516 -0.180 8.444 0.233 3.834 0.223 43.726 41.962
75.600 -19.917 -0.134 -20.030 -0.121 -20.305 -0.118 -20.355 -0.123 -20.508 -0.181 8.446 0.236 3.818 0.224 43.723 41.964
76.000 -19.910 -0.135 -20.022 -0.122 -20.297 -0.119 -20.346 -0.124 -20.501 -0.182 8.448 0.239 3.802 0.226 43.720 41.966
76.400 -19.902 -0.136 -20.014 -0.123 -20.288 -0.120 -20.338 -0.125 -20.493 -0.182 8.450 0.242 3.786 0.228 43.717 41.968
76.800 -19.894 -0.137 -20.006 -0.124 -20.279 -0.121 -20.329 -0.126 -20.486 -0.183 8.451 0.245 3.770 0.229 43.713 41.969
77.200 -19.887 -0.138 -19.998 -0.125 -20.271 -0.122 -20.321 -0.127 -20.478 -0.184 8.453 0.248 3.755 0.231 43.710 41.971
77.600 -19.879 -0.139 -19.990 -0.125 -20.262 -0.123 -20.312 -0.128 -20.471 -0.184 8.454 0.250 3.740 0.232 43.707 41.972
78.000 -19.872 -0.140 -19.982 -0.126 -20.254 -0.124 -20.304 -0.129 -20.463 -0.185 8.455 0.253 3.725 0.234 43.704 41.973
78.400 -19.864 -0.141 -19.974 -0.127 -20.246 -0.125 -20.296 -0.130 -20.456 -0.185 8.457 0.256 3.710 0.235 43.700 41.974
78.800 -19.857 -0.142 -19.967 -0.128 -20.237 -0.125 -20.287 -0.131 -20.448 -0.186 8.458 0.258 3.696 0.237 43.697 41.975
79.200 -19.849 -0.143 -19.959 -0.129 -20.229 -0.126 -20.279 -0.132 -20.441 -0.187 8.459 0.261 3.681 0.238 43.694 41.976
79.600 -19.842 -0.144 -19.951 -0.130 -20.221 -0.127 -20.271 -0.132 -20.434 -0.187 8.459 0.263 3.667 0.239 43.691 41.977
80.000 -19.834 -0.145 -19.943 -0.131 -20.212 -0.128 -20.263 -0.133 -20.426 -0.188 8.460 0.266 3.653 0.240 43.688 41.978
80.400 -19.827 -0.146 -19.935 -0.132 -20.204 -0.129 -20.254 -0.134 -20.419 -0.188 8.461 0.268 3.640 0.241 43.685 41.978
80.800 -19.819 -0.147 -19.928 -0.133 -20.196 -0.130 -20.246 -0.135 -20.412 -0.188 8.461 0.270 3.626 0.243 43.681 41.979
81.200 -19.812 -0.148 -19.920 -0.134 -20.188 -0.131 -20.238 -0.136 -20.404 -0.189 8.462 0.273 3.613 0.244 43.678 41.979
81.600 -19.805 -0.149 -19.912 -0.135 -20.180 -0.131 -20.230 -0.136 -20.397 -0.189 8.462 0.275 3.600 0.245 43.675 41.979
82.000 -19.797 -0.150 -19.905 -0.136 -20.172 -0.132 -20.222 -0.137 -20.390 -0.190 8.462 0.277 3.587 0.246 43.672 41.979
82.400 -19.790 -0.151 -19.897 -0.136 -20.164 -0.133 -20.214 -0.138 -20.383 -0.190 8.462 0.279 3.574 0.247 43.669 41.980
82.800 -19.783 -0.152 -19.889 -0.137 -20.156 -0.134 -20.206 -0.138 -20.375 -0.190 8.462 0.281 3.562 0.247 43.666 41.980
83.200 -19.775 -0.153 -19.882 -0.138 -20.148 -0.134 -20.199 -0.139 -20.368 -0.191 8.462 0.283 3.549 0.248 43.663 41.979
83.600 -19.768 -0.154 -19.874 -0.139 -20.140 -0.135 -20.191 -0.139 -20.361 -0.191 8.462 0.286 3.537 0.249 43.660 41.979
84.000 -19.761 -0.155 -19.867 -0.140 -20.132 -0.135 -20.183 -0.140 -20.354 -0.191 8.462 0.288 3.525 0.250 43.657 41.979
84.400 -19.754 -0.156 -19.859 -0.141 -20.125 -0.136 -20.175 -0.141 -20.347 -0.191 8.462 0.290 3.513 0.251 43.654 41.979
84.800 -19.747 -0.157 -19.852 -0.142 -20.117 -0.137 -20.168 -0.141 -20.340 -0.192 8.462 0.292 3.501 0.251 43.651 41.978
85.200 -19.740 -0.158 -19.845 -0.143 -20.109 -0.137 -20.160 -0.141 -20.333 -0.192 8.461 0.293 3.489 0.252 43.648 41.978
85.600 -19.732 -0.159 -19.837 -0.143 -20.102 -0.138 -20.152 -0.142 -20.326 -0.192 8.461 0.295 3.478 0.253 43.645 41.977
86.000 -19.725 -0.160 -19.830 -0.144 -20.094 -0.138 -20.145 -0.142 -20.319 -0.192 8.461 0.297 3.466 0.254 43.642 41.977
86.400 -19.718 -0.161 -19.823 -0.145 -20.086 -0.139 -20.137 -0.143 -20.312 -0.192 8.460 0.299 3.455 0.254 43.639 41.976
86.800 -19.711 -0.162 -19.815 -0.146 -20.079 -0.139 -20.130 -0.143 -20.305 -0.192 8.460 0.301 3.444 0.255 43.636 41.976
87.200 -19.704 -0.163 -19.808 -0.147 -20.071 -0.139 -20.122 -0.143 -20.298 -0.192 8.459 0.303 3.433 0.255 43.633 41.975
87.600 -19.697 -0.164 -19.801 -0.147 -20.064 -0.140 -20.115 -0.144 -20.291 -0.192 8.459 0.304 3.422 0.256 43.631 41.974
88.000 -19.690 -0.165 -19.794 -0.148 -20.056 -0.140 -20.107 -0.144 -20.284 -0.192 8.458 0.306 3.411 0.256 43.628 41.973
88.400 -19.683 -0.165 -19.787 -0.149 -20.049 -0.140 -20.100 -0.144 -20.277 -0.193 8.457 0.308 3.400 0.257 43.625 41.972
88.800 -19.677 -0.166 -19.779 -0.150 -20.042 -0.141 -20.093 -0.144 -20.270 -0.193 8.457 0.310 3.390 0.257 43.622 41.971
89.200 -19.670 -0.167 -19.772 -0.150 -20.034 -0.141 -20.085 -0.145 -20.264 -0.193 8.456 0.311 3.379 0.258 43.619 41.970
89.600 -19.663 -0.168 -19.765 -0.151 -20.027 -0.141 -20.078 -0.145 -20.257 -0.192 8.455 0.313 3.369 0.258 43.616 41.969
90.000 -19.656 -0.169 -19.758 -0.152 -20.020 -0.142 -20.071 -0.145 -20.250 -0.192 8.454 0.315 3.359 0.259 43.613 41.968
90.400 -19.649 -0.170 -19.751 -0.153 -20.013 -0.142 -20.064 -0.145 -20.243 -0.192 8.453 0.316 3.348 0.259 43.611 41.967
90.800 -19.642 -0.171 -19.744 -0.153 -20.006 -0.142 -20.057 -0.145 -20.236 -0.192 8.453 0.318 3.338 0.260 43.608 41.966
91.200 -19.636 -0.172 -19.737 -0.154 -19.998 -0.142 -20.050 -0.145 -20.230 -0.192 8.452 0.319 3.328 0.260 43.605 41.965
91.600 -19.629 -0.173 -19.730 -0.155 -19.991 -0.142 -20.043 -0.145 -20.223 -0.192 8.451 0.321 3.318 0.260 43.602 41.964
92.000 -19.622 -0.174 -19.724 -0.155 -19.984 -0.142 -20.035 -0.145 -20.216 -0.192 8.450 0.322 3.308 0.261 43.600 41.963
92.400 -19.616 -0.175 -19.717 -0.156 -19.977 -0.143 -20.028 -0.145 -20.210 -0.192 8.449 0.324 3.299 0.261 43.597 41.961
92.800 -19.609 -0.176 -19.710 -0.157 -19.970 -0.143 -20.022 -0.145 -20.203 -0.192 8.448 0.325 3.289 0.261 43.594 41.960
93.200 -19.603 -0.177 -19.703 -0.157 -19.963 -0.143 -20.015 -0.145 -20.197 -0.192 8.448 0.327 3.279 0.262 43.591 41.959
93.600 -19.596 -0.177 -19.696 -0.158 -19.956 -0.143 -20.008 -0.145 -20.190 -0.191 8.447 0.328 3.270 0.262 43.589 41.957
94.000 -19.589 -0.178 -19.690 -0.159 -19.949 -0.143 -20.001 -0.145 -20.183 -0.191 8.446 0.330 3.260 0.262 43.586 41.956
94.400 -19.583 -0.179 -19.683 -0.159 -19.943 -0.143 -19.994 -0.145 -20.177 -0.191 8.445 0.331 3.251 0.262 43.583 41.954
94.800 -19.576 -0.180 -19.676 -0.160 -19.936 -0.143 -19.987 -0.145 -20.170 -0.191 8.444 0.333 3.241 0.263 43.580 41.953
95.200 -19.570 -0.181 -19.670 -0.161 -19.929 -0.143 -19.980 -0.145 -20.164 -0.191 8.443 0.334 3.232 0.263 43.578 41.951
95.600 -19.564 -0.182 -19.663 -0.161 -19.922 -0.143 -19.974 -0.145 -20.157 -0.191 8.442 0.336 3.223 0.263 43.575 41.950
96.000 -19.557 -0.183 -19.657 -0.162 -19.915 -0.143 -19.967 -0.145 -20.151 -0.190 8.442 0.337 3.214 0.263 43.572 41.948
96.400 -19.551 -0.184 -19.650 -0.163 -19.909 -0.143 -19.960 -0.145 -20.145 -0.190 8.441 0.338 3.204 0.264 43.570 41.947
96.800 -19.545 -0.185 -19.643 -0.163 -19.902 -0.143 -19.953 -0.145 -20.138 -0.190 8.440 0.340 3.195 0.264 43.567 41.945
97.200 -19.538 -0.186 -19.637 -0.164 -19.895 -0.143 -19.947 -0.145 -20.132 -0.190 8.439 0.341 3.186 0.264 43.565 41.944
97.600 -19.532 -0.187 -19.631 -0.165 -19.889 -0.143 -19.940 -0.145 -20.125 -0.190 8.438 0.343 3.177 0.264 43.562 41.942
98.000 -19.526 -0.188 -19.624 -0.165 -19.882 -0.143 -19.934 -0.145 -20.119 -0.189 8.438 0.344 3.168 0.264 43.559 41.940
98.400 -19.520 -0.188 -19.618 -0.166 -19.876 -0.143 -19.927 -0.144 -20.113 -0.189 8.437 0.345 3.159 0.264 43.557 41.939
98.800 -19.513 -0.189 -19.611 -0.167 -19.869 -0.143 -19.921 -0.144 -20.106 -0.189 8.436 0.347 3.150 0.264 43.554 41.937
99.200 -19.507 -0.190 -19.605 -0.168 -19.863 -0.143 -19.914 -0.144 -20.100 -0.189 8.436 0.348 3.141 0.265 43.552 41.935
99.600 -19.501 -0.191 -19.599 -0.168 -19.856 -0.143 -19.908 -0.144 -20.094 -0.189 8.435 0.349 3.133 0.265 43.549 41.934
100.000 -19.495 -0.192 -19.592 -0.169 -19.850 -0.143 -19.901 -0.144 -20.087 -0.189 8.435 0.350 3.124 0.265 43.546 41.932
100.400 -19.489 -0.193 -19.586 -0.170 -19.843 -0.143 -19.895 -0.144 -20.081 -0.189 8.434 0.352 3.115 0.265 43.544 41.930
100.800 -19.483 -0.194 -19.580 -0.171 -19.837 -0.143 -19.888 -0.144 -20.075 -0.189 8.434 0.353 3.106 0.265 43.541 41.929
101.200 -19.477 -0.196 -19.574 -0.171 -19.831 -0.143 -19.882 -0.144 -20.069 -0.189 8.433 0.354 3.098 0.265 43.539 41.927
101.600 -19.471 -0.197 -19.568 -0.172 -19.824 -0.144 -19.876 -0.144 -20.062 -0.189 8.433 0.356 3.089 0.265 43.536 41.925
102.000 -19.465 -0.198 -19.562 -0.173 -19.818 -0.144 -19.869 -0.144 -20.056 -0.189 8.433 0.357 3.080 0.265 43.534 41.924
102.400 -19.459 -0.199 -19.556 -0.174 -19.812 -0.144 -19.863 -0.144 -20.050 -0.189 8.433 0.358 3.071 0.265 43.531 41.922
102.800 -19.453 -0.200 -19.549 -0.175 -19.805 -0.144 -19.857 -0.144 -20.044 -0.189 8.433 0.359 3.063 0.265 43.529 41.920
103.200 -19.447 -0.201 -19.543 -0.176 -19.799 -0.144 -19.850 -0.145 -20.038 -0.189 8.433 0.360 3.054 0.265 43.526 41.919
103.600 -19.442 -0.202 -19.537 -0.177 -19.793 -0.145 -19.844 -0.145 -20.031 -0.189 8.433 0.362 3.045 0.265 43.524 41.917
104.000 -19.436 -0.204 -19.532 -0.178 -19.787 -0.145 -19.838 -0.145 -20.025 -0.189 8.433 0.363 3.037 0.265 43.522 41.915
104.400 -19.430 -0.205 -19.526 -0.179 -19.780 -0.145 -19.832 -0.145 -20.019 -0.190 8.433 0.364 3.028 0.265 43.519 41.914
104.800 -19.424 -0.206 -19.520 -0.180 -19.774 -0.146 -19.826 -0.146 -20.013 -0.190 8.434 0.365 3.019 0.265 43.517 41.912
105.200 -19.419 -0.207 -19.514 -0.181 -19.768 -0.146 -19.819 -0.146 -20.007 -0.190 8.434 0.366 3.010 0.265 43.514 41.911
105.600 -19.413 -0.209 -19.508 -0.182 -19.762 -0.147 -19.813 -0.147 -20.001 -0.191 8.435 0.367 3.002 0.264 43.512 41.909
106.000 -19.407 -0.210 -19.502 -0.183 -19.756 -0.148 -19.807 -0.147 -19.995 -0.191 8.435 0.368 2.993 0.264 43.509 41.907
106.400 -19.402 -0.211 -19.496 -0.184 -19.750 -0.148 -19.801 -0.148 -19.989 -0.192 8.436 0.369 2.984 0.264 43.507 41.906
106.800 -19.396 -0.213 -19.491 -0.186 -19.744 -0.149 -19.795 -0.148 -19.983 -0.192 8.437 0.370 2.975 0.264 43.505 41.904
107.200 -19.391 -0.214 -19.485 -0.187 -19.738 -0.150 -19.789 -0.149 -19.977 -0.193 8.438 0.371 2.967 0.264 43.502 41.903
107.600 -19.385 -0.216 -19.479 -0.188 -19.732 -0.151 -19.783 -0.150 -19.971 -0.194 8.440 0.372 2.958 0.263 43.500 41.901
108.000 -19.380 -0.217 -19.474 -0.190 -19.726 -0.152 -19.777 -0.151 -19.965 -0.194 8.441 0.373 2.949 0.263 43.498 41.900
108.400 -19.374 -0.219 -19.468 -0.191 -19.720 -0.153 -19.771 -0.151 -19.958 -0.195 8.442 0.374 2.940 0.263 43.495 41.898
108.800 -19.369 -0.221 -19.462 -0.193 -19.714 -0.154 -19.765 -0.152 -19.952 -0.196 8.444 0.375 2.931 0.263 43.493 41.897
109.200 -19.364 -0.222 -19.457 -0.194 -19.708 -0.155 -19.759 -0.154 -19.946 -0.197 8.446 0.376 2.922 0.262 43.491 41.896
109.600 -19.358 -0.224 -19.451 -0.196 -19.702 -0.156 -19.753 -0.155 -19.940 -0.198 8.448 0.377 2.913 0.262 43.488 41.894
110.000 -19.353 -0.226 -19.446 -0.197 -19.696 -0.157 -19.747 -0.156 -19.934 -0.199 8.450 0.378 2.903 0.262 43.486 41.893
110.400 -19.348 -0.228 -19.440 -0.199 -19.690 -0.159 -19.741 -0.157 -19.929 -0.200 8.452 0.379 2.894 0.261 43.484 41.892
110.800 -19.343 -0.230 -19.435 -0.201 -19.684 -0.160 -19.735 -0.159 -19.923 -0.202 8.455 0.380 2.885 0.261 43.482 41.890
