"Time (MJD)" cyan-5182.42 cyan-5182.42_err g-4746.48 g-4746.48_err i-7829.03 i-7829.03_err orange-6629.82 orange-6629.82_err r-6366.38 r-6366.38_err "Temp./1e3 (K)" "Temp. Err." "Radius/1e15 (cm)" "Radius Err." "Log10(Bol. Lum)" "Log10(Bol. Err)"
-19.000 -21.295 -0.129 -21.240 -0.115 -21.076 -0.112 -21.038 -0.116 -20.876 -0.156 20.491 0.363 1.513 0.030 44.459 42.955
-18.600 -21.333 -0.123 -21.279 -0.108 -21.114 -0.106 -21.076 -0.110 -20.913 -0.151 20.502 0.342 1.539 0.029 44.474 42.944
-18.200 -21.372 -0.117 -21.318 -0.103 -21.154 -0.101 -21.116 -0.105 -20.951 -0.146 20.499 0.322 1.567 0.028 44.490 42.933
-17.800 -21.410 -0.114 -21.357 -0.100 -21.194 -0.098 -21.155 -0.102 -20.990 -0.143 20.479 0.302 1.597 0.027 44.505 42.921
-17.400 -21.449 -0.111 -21.396 -0.098 -21.234 -0.096 -21.196 -0.100 -21.029 -0.140 20.443 0.283 1.630 0.026 44.519 42.906
-17.000 -21.488 -0.110 -21.436 -0.097 -21.274 -0.095 -21.236 -0.099 -21.069 -0.139 20.389 0.263 1.665 0.024 44.533 42.888
-16.600 -21.526 -0.109 -21.475 -0.096 -21.315 -0.096 -21.278 -0.099 -21.110 -0.138 20.322 0.242 1.703 0.023 44.547 42.866
-16.200 -21.565 -0.110 -21.515 -0.097 -21.357 -0.096 -21.319 -0.100 -21.151 -0.139 20.244 0.219 1.742 0.022 44.560 42.837
-15.800 -21.603 -0.110 -21.554 -0.098 -21.398 -0.098 -21.360 -0.101 -21.191 -0.140 20.158 0.195 1.783 0.020 44.573 42.799
-15.400 -21.641 -0.112 -21.593 -0.100 -21.439 -0.099 -21.402 -0.103 -21.232 -0.141 20.066 0.170 1.826 0.018 44.586 42.753
-15.000 -21.678 -0.113 -21.632 -0.101 -21.480 -0.101 -21.443 -0.105 -21.273 -0.142 19.970 0.145 1.870 0.016 44.598 42.696
-14.600 -21.715 -0.114 -21.671 -0.103 -21.521 -0.103 -21.484 -0.107 -21.313 -0.144 19.870 0.120 1.916 0.013 44.610 42.628
-14.200 -21.752 -0.116 -21.709 -0.105 -21.562 -0.105 -21.525 -0.109 -21.353 -0.146 19.768 0.097 1.962 0.011 44.622 42.547
-13.800 -21.789 -0.117 -21.747 -0.106 -21.602 -0.106 -21.565 -0.111 -21.393 -0.148 19.663 0.076 2.010 0.009 44.634 42.454
-13.400 -21.824 -0.118 -21.784 -0.107 -21.641 -0.108 -21.605 -0.112 -21.432 -0.150 19.557 0.060 2.059 0.007 44.645 42.358
-13.000 -21.860 -0.118 -21.821 -0.108 -21.681 -0.109 -21.645 -0.114 -21.471 -0.152 19.450 0.050 2.109 0.006 44.656 42.288
-12.600 -21.894 -0.119 -21.856 -0.109 -21.719 -0.110 -21.683 -0.115 -21.510 -0.153 19.341 0.048 2.159 0.006 44.667 42.286
-12.200 -21.928 -0.119 -21.892 -0.109 -21.757 -0.112 -21.721 -0.116 -21.547 -0.155 19.232 0.054 2.210 0.007 44.678 42.348
-11.800 -21.961 -0.119 -21.926 -0.109 -21.794 -0.112 -21.759 -0.117 -21.585 -0.156 19.121 0.065 2.262 0.009 44.688 42.433
-11.400 -21.993 -0.119 -21.959 -0.109 -21.830 -0.113 -21.795 -0.118 -21.621 -0.157 19.009 0.076 2.315 0.011 44.698 42.514
-11.000 -22.024 -0.119 -21.992 -0.109 -21.865 -0.113 -21.831 -0.118 -21.657 -0.157 18.896 0.088 2.368 0.013 44.707 42.585
-10.600 -22.054 -0.118 -22.023 -0.109 -21.899 -0.113 -21.865 -0.119 -21.691 -0.158 18.782 0.099 2.422 0.015 44.716 42.645
-10.200 -22.083 -0.118 -22.054 -0.108 -21.932 -0.113 -21.899 -0.119 -21.725 -0.158 18.665 0.109 2.476 0.018 44.724 42.695
-9.800 -22.111 -0.117 -22.083 -0.107 -21.964 -0.113 -21.931 -0.119 -21.758 -0.158 18.547 0.118 2.530 0.020 44.732 42.737
-9.400 -22.137 -0.116 -22.111 -0.107 -21.995 -0.113 -21.962 -0.118 -21.790 -0.157 18.427 0.126 2.585 0.022 44.740 42.772
-9.000 -22.163 -0.116 -22.138 -0.106 -22.025 -0.112 -21.992 -0.118 -21.821 -0.156 18.305 0.132 2.641 0.024 44.746 42.801
-8.600 -22.187 -0.115 -22.163 -0.105 -22.053 -0.112 -22.021 -0.117 -21.851 -0.155 18.181 0.138 2.696 0.025 44.753 42.824
-8.200 -22.209 -0.114 -22.187 -0.105 -22.081 -0.111 -22.049 -0.116 -21.879 -0.154 18.055 0.142 2.752 0.027 44.758 42.843
-7.800 -22.231 -0.114 -22.210 -0.104 -22.106 -0.110 -22.075 -0.115 -21.907 -0.153 17.928 0.145 2.807 0.029 44.764 42.858
-7.400 -22.251 -0.113 -22.231 -0.103 -22.131 -0.109 -22.100 -0.114 -21.933 -0.151 17.801 0.147 2.863 0.030 44.768 42.868
-7.000 -22.269 -0.113 -22.251 -0.103 -22.154 -0.108 -22.124 -0.113 -21.958 -0.150 17.673 0.148 2.918 0.031 44.772 42.875
-6.600 -22.286 -0.112 -22.269 -0.102 -22.176 -0.108 -22.146 -0.112 -21.982 -0.148 17.545 0.148 2.972 0.032 44.776 42.878
-6.200 -22.302 -0.112 -22.286 -0.102 -22.196 -0.107 -22.167 -0.111 -22.005 -0.146 17.416 0.147 3.026 0.033 44.778 42.878
-5.800 -22.316 -0.112 -22.302 -0.102 -22.215 -0.106 -22.186 -0.110 -22.027 -0.144 17.288 0.144 3.080 0.033 44.781 42.873
-5.400 -22.329 -0.112 -22.316 -0.102 -22.232 -0.106 -22.204 -0.109 -22.047 -0.142 17.160 0.141 3.132 0.033 44.783 42.864
-5.000 -22.340 -0.112 -22.328 -0.103 -22.248 -0.105 -22.221 -0.109 -22.066 -0.140 17.032 0.136 3.184 0.033 44.784 42.849
-4.600 -22.350 -0.113 -22.339 -0.104 -22.262 -0.105 -22.236 -0.108 -22.084 -0.138 16.905 0.129 3.234 0.032 44.784 42.828
-4.200 -22.358 -0.113 -22.349 -0.104 -22.275 -0.105 -22.249 -0.108 -22.100 -0.136 16.778 0.121 3.284 0.031 44.785 42.801
-3.800 -22.365 -0.114 -22.357 -0.105 -22.286 -0.105 -22.261 -0.108 -22.115 -0.135 16.651 0.112 3.333 0.030 44.784 42.769
-3.400 -22.371 -0.115 -22.364 -0.106 -22.296 -0.106 -22.272 -0.108 -22.130 -0.134 16.523 0.104 3.381 0.028 44.783 42.734
-3.000 -22.375 -0.115 -22.369 -0.107 -22.305 -0.106 -22.282 -0.108 -22.143 -0.132 16.395 0.096 3.428 0.027 44.782 42.698
-2.600 -22.379 -0.115 -22.373 -0.107 -22.313 -0.106 -22.290 -0.108 -22.155 -0.131 16.267 0.090 3.474 0.026 44.780 42.666
-2.200 -22.380 -0.116 -22.376 -0.107 -22.319 -0.106 -22.297 -0.108 -22.165 -0.130 16.139 0.086 3.520 0.025 44.777 42.644
-1.800 -22.381 -0.115 -22.378 -0.108 -22.324 -0.106 -22.303 -0.108 -22.175 -0.130 16.011 0.085 3.565 0.025 44.775 42.634
-1.400 -22.381 -0.115 -22.378 -0.107 -22.328 -0.107 -22.308 -0.108 -22.184 -0.129 15.884 0.086 3.609 0.027 44.771 42.638
-1.000 -22.379 -0.114 -22.378 -0.107 -22.331 -0.106 -22.312 -0.108 -22.192 -0.128 15.758 0.091 3.652 0.029 44.768 42.654
-0.600 -22.376 -0.114 -22.376 -0.106 -22.333 -0.106 -22.315 -0.107 -22.198 -0.127 15.633 0.097 3.693 0.031 44.764 42.677
-0.200 -22.372 -0.112 -22.374 -0.106 -22.334 -0.106 -22.316 -0.107 -22.204 -0.126 15.509 0.104 3.734 0.035 44.759 42.703
0.200 -22.368 -0.111 -22.370 -0.104 -22.334 -0.105 -22.317 -0.106 -22.208 -0.124 15.394 0.113 3.770 0.039 44.755 42.732
0.600 -22.362 -0.109 -22.365 -0.103 -22.332 -0.104 -22.317 -0.105 -22.212 -0.123 15.268 0.122 3.810 0.043 44.750 42.758
1.000 -22.355 -0.107 -22.359 -0.101 -22.330 -0.103 -22.316 -0.104 -22.215 -0.122 15.150 0.132 3.846 0.047 44.745 42.784
1.400 -22.347 -0.105 -22.353 -0.099 -22.327 -0.102 -22.313 -0.103 -22.217 -0.121 15.052 0.143 3.875 0.052 44.740 42.810
1.800 -22.339 -0.103 -22.345 -0.097 -22.323 -0.101 -22.310 -0.102 -22.218 -0.120 14.945 0.154 3.906 0.058 44.734 42.833
2.200 -22.329 -0.101 -22.337 -0.095 -22.318 -0.100 -22.306 -0.101 -22.218 -0.119 14.814 0.163 3.945 0.063 44.727 42.849
2.600 -22.319 -0.098 -22.327 -0.093 -22.313 -0.098 -22.301 -0.100 -22.217 -0.118 14.707 0.174 3.974 0.068 44.721 42.867
3.000 -22.308 -0.096 -22.317 -0.091 -22.306 -0.097 -22.296 -0.099 -22.215 -0.118 14.604 0.185 4.000 0.074 44.715 42.883
3.400 -22.296 -0.095 -22.307 -0.089 -22.299 -0.096 -22.289 -0.097 -22.213 -0.118 14.504 0.197 4.025 0.081 44.708 42.899
3.800 -22.284 -0.093 -22.295 -0.088 -22.290 -0.095 -22.282 -0.096 -22.210 -0.118 14.406 0.208 4.049 0.087 44.702 42.912
4.200 -22.271 -0.093 -22.283 -0.087 -22.282 -0.093 -22.274 -0.095 -22.207 -0.119 14.311 0.219 4.070 0.093 44.695 42.924
4.600 -22.257 -0.092 -22.271 -0.086 -22.272 -0.092 -22.265 -0.094 -22.203 -0.120 14.239 0.231 4.081 0.099 44.688 42.938
5.000 -22.243 -0.092 -22.257 -0.085 -22.262 -0.091 -22.256 -0.093 -22.198 -0.121 14.155 0.242 4.096 0.106 44.681 42.949
5.400 -22.229 -0.092 -22.244 -0.084 -22.252 -0.089 -22.246 -0.092 -22.193 -0.122 14.069 0.252 4.112 0.112 44.674 42.957
5.800 -22.213 -0.092 -22.230 -0.084 -22.241 -0.088 -22.236 -0.091 -22.187 -0.123 13.951 0.260 4.142 0.118 44.666 42.959
6.200 -22.198 -0.093 -22.215 -0.084 -22.229 -0.087 -22.226 -0.090 -22.181 -0.124 13.866 0.270 4.157 0.124 44.658 42.964
6.600 -22.182 -0.093 -22.200 -0.084 -22.218 -0.086 -22.215 -0.089 -22.174 -0.125 13.782 0.279 4.170 0.130 44.650 42.969
7.000 -22.166 -0.094 -22.185 -0.084 -22.206 -0.084 -22.204 -0.088 -22.167 -0.126 13.701 0.287 4.183 0.135 44.643 42.973
7.400 -22.150 -0.095 -22.170 -0.084 -22.193 -0.083 -22.192 -0.088 -22.160 -0.127 13.620 0.295 4.195 0.141 44.635 42.975
7.800 -22.133 -0.096 -22.154 -0.085 -22.181 -0.083 -22.180 -0.087 -22.153 -0.128 13.541 0.304 4.207 0.147 44.627 42.978
8.200 -22.116 -0.098 -22.138 -0.085 -22.168 -0.082 -22.168 -0.087 -22.145 -0.130 13.462 0.312 4.218 0.152 44.620 42.980
8.600 -22.099 -0.099 -22.122 -0.086 -22.155 -0.082 -22.156 -0.086 -22.137 -0.131 13.384 0.320 4.229 0.158 44.612 42.982
9.000 -22.082 -0.101 -22.106 -0.088 -22.142 -0.082 -22.144 -0.086 -22.129 -0.132 13.305 0.328 4.241 0.164 44.604 42.984
9.400 -22.065 -0.103 -22.090 -0.089 -22.129 -0.082 -22.132 -0.086 -22.120 -0.133 13.225 0.335 4.253 0.170 44.596 42.984
9.800 -22.047 -0.105 -22.073 -0.091 -22.116 -0.082 -22.119 -0.087 -22.112 -0.134 13.144 0.343 4.267 0.176 44.588 42.984
10.200 -22.029 -0.107 -22.056 -0.093 -22.102 -0.083 -22.107 -0.087 -22.104 -0.135 13.061 0.350 4.281 0.182 44.580 42.983
10.600 -22.011 -0.109 -22.039 -0.095 -22.089 -0.084 -22.094 -0.088 -22.095 -0.136 12.976 0.356 4.297 0.188 44.572 42.981
11.000 -21.992 -0.112 -22.022 -0.097 -22.075 -0.085 -22.082 -0.090 -22.087 -0.138 12.889 0.362 4.314 0.194 44.564 42.977
11.400 -21.974 -0.114 -22.005 -0.099 -22.062 -0.087 -22.069 -0.091 -22.079 -0.139 12.800 0.368 4.334 0.200 44.555 42.973
11.800 -21.955 -0.116 -21.987 -0.101 -22.048 -0.089 -22.057 -0.093 -22.071 -0.141 12.708 0.373 4.355 0.207 44.547 42.966
12.200 -21.935 -0.119 -21.969 -0.104 -22.035 -0.092 -22.044 -0.096 -22.062 -0.143 12.614 0.377 4.378 0.213 44.539 42.959
12.600 -21.916 -0.122 -21.951 -0.107 -22.021 -0.095 -22.031 -0.099 -22.054 -0.145 12.518 0.382 4.404 0.220 44.531 42.951
13.000 -21.896 -0.124 -21.933 -0.110 -22.007 -0.098 -22.019 -0.102 -22.047 -0.148 12.446 0.387 4.415 0.227 44.523 42.946
13.400 -21.876 -0.127 -21.914 -0.113 -21.994 -0.101 -22.006 -0.105 -22.039 -0.150 12.318 0.388 4.461 0.234 44.514 42.932
13.800 -21.855 -0.130 -21.895 -0.116 -21.980 -0.105 -21.993 -0.109 -22.031 -0.153 12.216 0.391 4.492 0.241 44.505 42.921
14.200 -21.834 -0.133 -21.876 -0.119 -21.966 -0.108 -21.981 -0.112 -22.023 -0.155 12.141 0.396 4.507 0.248 44.498 42.914
14.600 -21.813 -0.136 -21.856 -0.122 -21.952 -0.112 -21.968 -0.115 -22.015 -0.157 12.008 0.395 4.559 0.256 44.489 42.898
15.000 -21.792 -0.139 -21.837 -0.126 -21.938 -0.115 -21.955 -0.119 -22.007 -0.160 11.904 0.397 4.594 0.263 44.480 42.886
15.400 -21.770 -0.142 -21.816 -0.129 -21.923 -0.118 -21.942 -0.122 -21.999 -0.162 11.800 0.398 4.630 0.270 44.472 42.874
15.800 -21.748 -0.145 -21.796 -0.132 -21.909 -0.121 -21.929 -0.125 -21.990 -0.164 11.725 0.401 4.647 0.276 44.464 42.865
16.200 -21.725 -0.148 -21.776 -0.134 -21.894 -0.124 -21.915 -0.127 -21.982 -0.165 11.594 0.399 4.704 0.284 44.455 42.848
16.600 -21.702 -0.150 -21.755 -0.137 -21.879 -0.126 -21.902 -0.129 -21.973 -0.167 11.493 0.399 4.741 0.291 44.446 42.834
17.000 -21.679 -0.152 -21.734 -0.139 -21.864 -0.128 -21.888 -0.131 -21.964 -0.168 11.393 0.399 4.777 0.298 44.438 42.821
17.400 -21.656 -0.154 -21.712 -0.141 -21.849 -0.130 -21.874 -0.133 -21.955 -0.169 11.295 0.398 4.814 0.304 44.429 42.807
17.800 -21.633 -0.156 -21.690 -0.142 -21.833 -0.131 -21.859 -0.134 -21.945 -0.169 11.200 0.397 4.849 0.311 44.421 42.794
18.200 -21.609 -0.157 -21.668 -0.143 -21.817 -0.132 -21.845 -0.135 -21.935 -0.169 11.106 0.396 4.884 0.317 44.413 42.781
18.600 -21.585 -0.158 -21.646 -0.144 -21.801 -0.133 -21.830 -0.135 -21.925 -0.169 11.039 0.397 4.897 0.322 44.404 42.771
19.000 -21.560 -0.158 -21.624 -0.145 -21.785 -0.132 -21.815 -0.135 -21.914 -0.169 10.926 0.394 4.949 0.329 44.396 42.755
19.400 -21.536 -0.158 -21.601 -0.145 -21.768 -0.132 -21.799 -0.134 -21.903 -0.168 10.840 0.393 4.979 0.335 44.387 42.742
19.800 -21.511 -0.158 -21.578 -0.144 -21.751 -0.131 -21.784 -0.133 -21.891 -0.166 10.757 0.391 5.007 0.340 44.379 42.730
20.200 -21.486 -0.157 -21.554 -0.143 -21.733 -0.130 -21.767 -0.132 -21.879 -0.165 10.677 0.390 5.032 0.345 44.370 42.718
20.600 -21.461 -0.156 -21.531 -0.142 -21.715 -0.128 -21.750 -0.130 -21.866 -0.163 10.601 0.389 5.055 0.350 44.362 42.706
21.000 -21.435 -0.155 -21.507 -0.141 -21.697 -0.126 -21.733 -0.127 -21.853 -0.160 10.529 0.388 5.073 0.355 44.353 42.695
21.400 -21.410 -0.154 -21.482 -0.139 -21.678 -0.123 -21.716 -0.125 -21.838 -0.158 10.460 0.387 5.088 0.359 44.344 42.685
21.800 -21.384 -0.152 -21.458 -0.137 -21.658 -0.120 -21.697 -0.122 -21.824 -0.155 10.397 0.386 5.099 0.363 44.335 42.675
22.200 -21.358 -0.150 -21.433 -0.135 -21.638 -0.117 -21.678 -0.119 -21.808 -0.152 10.338 0.386 5.104 0.367 44.326 42.665
22.600 -21.332 -0.148 -21.409 -0.132 -21.618 -0.114 -21.659 -0.115 -21.792 -0.148 10.285 0.387 5.104 0.371 44.317 42.656
23.000 -21.307 -0.146 -21.384 -0.130 -21.597 -0.111 -21.638 -0.112 -21.774 -0.145 10.237 0.389 5.097 0.375 44.308 42.649
23.400 -21.281 -0.143 -21.359 -0.127 -21.575 -0.107 -21.617 -0.109 -21.756 -0.142 10.197 0.392 5.082 0.379 44.299 42.642
23.800 -21.256 -0.141 -21.334 -0.124 -21.552 -0.104 -21.595 -0.105 -21.737 -0.138 10.164 0.396 5.060 0.383 44.289 42.637
24.200 -21.231 -0.139 -21.309 -0.122 -21.528 -0.101 -21.572 -0.102 -21.717 -0.135 10.138 0.403 5.030 0.389 44.280 42.634
24.600 -21.206 -0.136 -21.285 -0.119 -21.504 -0.098 -21.548 -0.098 -21.697 -0.131 10.119 0.411 4.992 0.394 44.270 42.631
25.000 -21.182 -0.134 -21.260 -0.117 -21.479 -0.095 -21.524 -0.095 -21.676 -0.128 10.107 0.420 4.947 0.399 44.260 42.629
25.400 -21.157 -0.132 -21.235 -0.114 -21.454 -0.092 -21.499 -0.092 -21.653 -0.125 10.101 0.430 4.896 0.404 44.250 42.627
25.800 -21.133 -0.131 -21.211 -0.112 -21.429 -0.089 -21.473 -0.090 -21.631 -0.123 10.101 0.440 4.840 0.409 44.240 42.625
26.200 -21.109 -0.129 -21.186 -0.110 -21.403 -0.087 -21.448 -0.087 -21.608 -0.121 10.105 0.450 4.779 0.412 44.230 42.622
26.600 -21.086 -0.128 -21.162 -0.109 -21.377 -0.085 -21.422 -0.085 -21.584 -0.120 10.115 0.459 4.715 0.414 44.220 42.619
27.000 -21.062 -0.128 -21.138 -0.108 -21.351 -0.083 -21.396 -0.084 -21.560 -0.119 10.128 0.469 4.649 0.415 44.210 42.616
27.400 -21.039 -0.128 -21.114 -0.108 -21.326 -0.083 -21.370 -0.083 -21.535 -0.120 10.143 0.477 4.582 0.415 44.200 42.612
27.800 -21.017 -0.129 -21.091 -0.108 -21.300 -0.083 -21.345 -0.084 -21.511 -0.121 10.161 0.484 4.514 0.414 44.190 42.608
28.200 -20.994 -0.131 -21.068 -0.110 -21.275 -0.085 -21.319 -0.086 -21.486 -0.123 10.180 0.490 4.448 0.412 44.180 42.604
28.600 -20.972 -0.134 -21.045 -0.113 -21.250 -0.088 -21.294 -0.089 -21.462 -0.127 10.199 0.495 4.384 0.409 44.171 42.600
29.000 -20.951 -0.139 -21.023 -0.118 -21.226 -0.093 -21.269 -0.094 -21.437 -0.132 10.219 0.499 4.321 0.405 44.162 42.596
29.400 -20.929 -0.144 -21.001 -0.123 -21.202 -0.099 -21.245 -0.100 -21.412 -0.138 10.239 0.502 4.260 0.401 44.153 42.593
29.800 -20.909 -0.151 -20.979 -0.130 -21.178 -0.107 -21.221 -0.108 -21.388 -0.145 10.260 0.505 4.200 0.397 44.144 42.590
