 texplosion  fnickel    Pspin  log(Bfield)      Mns  thetaPB   mejecta    kappa  kappagamma     vejecta  temperature    alpha  cutoff_wavelength  log(nhhost)      A_V         MJD0  kenergy  mnickel            TSD   log(L0)  Peak_mag     Peak_MJD  log(E_rad)  log(Peak_lum)  Rise_Time    E_fold  tau_1  delta_m15     r_peak     frac 
   -6.62081  0.01479  5.41486     14.74866  1.95019  1.21338   8.81374  0.12275     0.38155  3638.44161   5544.00376  4.63415          4405.0032     16.54082    2e-05  55922.90919  0.69601  0.13039   168949.24145  45.86399  18.06527   55961.6825     50.2103       43.34026   31.12744  60.03149   54.0    0.12364  -19.74235  0.98378 
   -5.78854  0.00564  3.56917     14.58043  1.65038   1.3158   17.6926  0.04759     0.05786  3032.53915   7281.31325  3.19943         5042.09635     20.70319  0.28049  55923.74146  0.97058  0.09978   134797.55805  46.25161  17.93835  55959.27457    50.56085       43.75447   24.45727  53.36133   51.5    0.12651  -20.13082  0.99318 
    -4.0392  0.01253  2.72068     14.66322  1.20445  0.75199  18.74794  0.05819     0.45327  3428.65274   5780.21615  4.67608         4595.97062     17.30104  0.00011   55925.4908   1.3147  0.23495     39041.5961  46.88875  17.98148   55961.6825    50.25232       43.39133   28.90405  53.36133   56.5    0.13174  -19.73458  0.98674 
  -10.84876  0.00195  7.84099     14.78307  1.97962  0.84199  61.54988  0.01036      0.1101  2303.28177   6171.45482  4.23269         4765.78873     17.57524  0.00021  55918.68124  1.94782  0.12006   306896.12579  45.28969  18.02478   55961.6825    50.21864       43.37094   28.90405   57.8081   56.0    0.12349  -19.59888  0.96913 
   -5.51003  0.00698  3.52193     14.69669   1.6982  1.42843  20.93712  0.03486     0.09569  2322.08869   7576.26452  3.26504         5109.89953      18.2693  0.00103  55924.01997  0.67344  0.14609    79064.80405  46.50729  18.06786  55964.09043    50.18038       43.29819     40.021   57.8081   57.5    0.10082   -19.7026  0.99143 
   -5.94855  0.02183   5.6464     14.63987  1.59304  1.54062  15.72916  0.03175     0.28348  2394.68612   6688.70159  4.36944         4905.10219     16.51758    2e-05  55923.58145  0.53806  0.34342   247648.67188  45.57369  18.09606  55964.09043      50.244       43.36674   31.12744  60.03149   51.5    0.15206  -19.86309  0.93954 
   -5.01046  0.00632  5.61532     14.62583  1.60353  1.18063   37.5961  0.02001     0.28205  2964.37159   5675.65789  3.79226         4823.45667     18.26444  0.00102  55924.51954  1.97077  0.23747   263019.92957  45.55519  18.03058   55961.6825     50.2074        43.3476   33.35083   57.8081   53.0    0.11921  -19.77147  0.95795 
   -7.19917  0.00528  5.15916     14.94594  1.57334  0.38822   11.3805  0.06885      0.0161  2950.34321    6371.9075  4.69589         4611.21338     20.08438  0.06747  55922.33083  0.59093  0.06003     49879.3841  46.34259  18.04707  55964.09043     50.2099       43.33675   35.57422  60.03149   52.0    0.13163   -19.9129  0.99043 
   -13.9141  0.00549  6.06495     14.49333  1.38311  0.87104  14.61973  0.06018      0.3246  2803.07698   5960.46676  3.61515         4663.60379     16.58056    2e-05   55915.6159  0.68523  0.08032   487143.32478  45.15639  17.92851   55961.6825    50.27025       43.42096   33.35083  53.36133   58.5    0.11721  -19.45176  0.97859 
   -6.96694  0.00637  3.82289      14.8178  1.71717  0.81429  35.83459  0.02191     0.06808  2742.67308   6788.27693  4.19829          4805.5389     20.22542  0.09336  55922.56306  1.60797  0.22843    53926.79398  46.60707  17.92388  55959.27457    50.19489       43.36473   28.90405  53.36133   56.0    0.12349  -19.87991  0.98391 
   -3.03819  0.00376  2.76211     14.75574   1.6806  1.29924  56.97115  0.01303     0.04008  2698.65616    6306.6645  4.47489         4750.48051     19.40272  0.01404  55926.49181  2.47501  0.21413    36667.38875  47.04755   18.1178   55961.6825    50.15345       43.27831   26.68066  64.47827   55.0    0.11973  -19.95432  0.99389 
   -6.79201  0.00453  6.63755     14.49121   1.4795  1.48907  35.24441  0.01525     0.10073  2200.97744   6414.92847  4.56113         4953.80612     17.97645  0.00053  55922.73799  1.01847  0.15952   630271.18879  44.99542  18.06779  55959.27457    50.19187       43.33357   26.68066  59.67801   53.5    0.13132  -19.78474  0.95511 
  -12.78044  0.00104  9.12644     14.50012  1.82604  1.44668   15.7188  0.04148      0.0393  2821.91084   5891.96368  4.87169         4733.46689     16.66186    3e-05  55916.74956  0.74668  0.01631  1411529.24699  44.46006  18.04145   55961.6825    50.17893       43.30666   28.90405  62.25488   52.0    0.14254  -19.71199  0.99335 
   -9.27205   0.0028  7.39805     14.80169  1.67274  0.58857   43.2869  0.01029     0.41089   1773.5922   7112.87374  4.26431         4926.60377     19.19167  0.00864  55920.25795  0.81225  0.12102    211885.8971  45.42794  18.10282  55964.09043    50.18301       43.29871   37.79761   57.8081   55.5    0.12644  -19.67932  0.96439 
  -14.15906  0.00548  6.24362     14.87954  1.47506  0.34459  17.05856  0.03257     0.03329  2343.28196   7117.81486  2.86637         5134.21094     19.49807  0.01749  55915.37094  0.55875  0.09348    92987.72986  45.87836  18.06682   55961.6825    50.16053        43.2981   31.12744   57.8081   54.0    0.13254  -19.65008  0.97607 
   -3.67018  0.00223  2.68318     14.72837  1.60502  1.15467  53.54626  0.01669     0.20376  2736.98961   6224.00739  3.33278         5015.13585     18.21035   0.0009  55925.85982  2.39278  0.11952    37484.26106  47.04318  18.02042  55959.27457    50.19152       43.32076   28.90405  57.45462   56.5    0.12652   -19.7526  0.99638 
    -7.6881  0.00179  6.51061     14.73113  1.59864  0.61615  17.04505  0.03958     0.18082   2669.6215   7018.67041  3.78104         4916.13456     20.06814  0.06499   55921.8419  0.72464  0.03048   217046.37734   45.5088  18.04248  55959.27457    50.22137       43.35071   33.35083   57.8081   52.0    0.13561  -19.82602  0.99236 
  -10.09407  0.00179   7.2345     14.80421  1.94539  0.80241  42.36121  0.01647      0.2036  2431.37108   6502.99538  4.45414         4734.43475     17.27955  0.00011  55919.43593  1.49382  0.07568   232922.35552  45.47182  17.95692   55961.6825    50.20047       43.36375   33.35083  48.91455   55.0     0.1197  -19.61866  0.98276 
  -12.73815  0.00335  6.69587      14.5258  1.63927  1.51903  54.44185  0.01105     0.05179  2418.43188   6281.20656  3.15814         4938.44638     17.25445   0.0001  55916.79185  1.89945  0.18223    606001.0172  45.04941  17.99097  55964.09043    50.22246       43.37548   33.35083  53.36133   56.0    0.13001  -19.57798  0.95525 
   -7.01561  0.01022  5.85894     14.71863  2.02231  1.40664   9.16378  0.12394     0.06404  3721.36875   5680.63961  3.09019         4783.10962      18.1945  0.00087  55922.51439  0.75702  0.09363   235523.86326  45.66702  18.09692   55961.6825    50.25856       43.39735   31.12744   57.8081   52.5    0.12975    -19.737  0.98692 
  -13.48984  0.00136  7.59103     14.40934  1.43146  1.01393   6.94537  0.07757     0.03696  2247.66284   6018.75095  4.99529         4693.94117     16.03143    1e-05  55916.04016  0.20931  0.00943   1162819.4795  44.59851  18.04244  55959.27457    50.28378       43.41234   35.08411  58.29821   54.5    0.13413   -19.6399  0.99616 
   -6.71408  0.00355  3.58846     14.60596  1.46241  1.12207  27.21307  0.03074      0.3978  2472.12108   6194.70514  3.26314          5227.8206     18.18259  0.00085  55922.81592  0.99207  0.09665   107342.64802  46.29333  18.00672   55961.6825    50.18302       43.32735   26.68066   57.8081   57.0    0.10269  -19.74563  0.99212 
   -9.65421  0.00316  7.09893     14.63333  1.70063  0.89603  10.51508  0.08971     0.14805  3244.89532   6550.55509  4.75049          4666.1211     17.15159    8e-05  55919.87579  0.66045   0.0332   430667.84353  45.16293  18.04227   55961.6825    50.17415       43.30264   33.35083  55.58472   54.0    0.13063   -19.7031  0.99099 
   -6.71052  0.00222  6.00486     15.16436  1.69066  0.28654  57.07865  0.01255     0.01998  2298.16287   6319.40848  4.86841         4780.39045     16.25037    1e-05  55922.81948   1.7983   0.1265    26555.62134  46.51574  18.03001  55956.86664    50.56975       43.72504   28.90405  55.02045   57.0    0.11949  -19.66197  0.97582 
   -7.50865  0.00172  4.22091     14.94445  2.11814  0.82267  47.50514  0.01229     0.13289  1908.14022   8106.28539  3.00701         5463.96647     16.57827    2e-05  55922.02135  1.03178  0.08162    45257.71737   46.6883  17.99272   55961.6825    50.27447       43.39974   35.57422   57.8081   56.0    0.10116  -19.80458  0.99489 
   -6.71532   0.0014  5.32663     15.13874  1.88116  0.35715  53.17471  0.01591     0.02692  3109.27312   6407.87586  4.75709         4654.65599     16.39268    1e-05  55922.81468  3.06655  0.07463    26162.24331  46.67269  17.99311   55961.6825    50.30708       43.42789   33.35083   57.8081   51.5    0.14308   -19.9009  0.99044 
   -9.15632  0.00139  8.62047     14.79315  1.71944  0.52263  33.27148  0.01614     0.13339  2503.18499   7192.11359   4.8683         4731.02095     17.91535  0.00046  55920.37368  1.24361  0.04617    307586.9548   45.1452  17.98914  55959.27457    50.18971       43.32853   26.68066  62.25488   51.5    0.14205  -19.78288  0.98187 
  -19.18171  0.00152  7.97563     14.58611  1.76202  0.93864  19.34266  0.03067      0.0218  2330.80945   6363.26917  4.85259         4729.49059     18.67151  0.00261  55910.34829  0.62684  0.02947   700057.46107  44.86619  17.94892   55961.6825    50.19408       43.33291   33.35083  55.58472   55.0    0.13973   -19.5254  0.99042 
   -8.18039  0.00496  8.16654     14.98283  1.64313  0.33753  22.94089  0.02755     0.02205  2805.53967   6734.34729   3.4969         5134.02191     16.26055    1e-05  55921.34961  1.07714  0.11386   110130.25142  45.61853  18.02696   55961.6825    50.18942       43.30716   37.79761  55.58472   51.5    0.14257  -19.75456  0.95828 
   -8.57427  0.00944  7.29912     14.62473  1.75297  1.22235  21.23198  0.03399     0.01142  2684.61024   5786.57357  4.55602         4711.89122      19.4202  0.01462  55920.95573  0.91281  0.20041   488287.50057   45.0974  18.08447  55964.09043    50.20576       43.31678   37.79761   57.8081   56.0     0.1271  -19.68946  0.94761 
   -5.57461  0.00592   3.7545     14.87151  1.60989  0.72802  40.06971  0.01394     0.32023  1926.40724   7744.86703   4.8234         4908.82082     19.22065  0.00923  55923.95539  0.88703  0.23716    38078.94035  46.74585  17.95151   55961.6825    50.19872       43.33661   35.57422  55.23123   57.5    0.12532  -19.77364  0.98288 
  -16.23138  0.00254   6.7861       14.736  1.98548  0.89091  23.16247  0.04315     0.02081  2916.44118   5767.88488  3.73505         4876.21275     19.18317  0.00847  55913.29862  1.17522  0.05883   286365.25959  45.44655  18.03303   55961.6825    50.20373       43.32849   31.12744  60.03149   57.5    0.11229  -19.43654  0.98851 
   -6.87139  0.00107  4.71429     14.58923  1.65317  1.55395  29.28417  0.02945     0.01696  2680.89039   6611.32531  4.15669         4720.83001     20.12173  0.07353  55922.65861   1.2555  0.03145   226207.57761  45.78582  17.97061   55961.6825    50.25959        43.4137   26.68066   57.8081   55.5    0.11553  -19.75352  0.99615 
  -13.05521  0.00217  6.50243     14.40757  1.38363  1.08004  20.28523  0.02603     0.32232  2329.06402   6375.38929  4.12945         4650.45313     16.44501    2e-05  55916.47479   0.6564  0.04394   831456.14595  44.86387  17.96301   55961.6825     50.2094       43.35715   31.12744  55.58472   53.0    0.14101  -19.66958  0.98637 
  -13.61903  0.00415  7.41047     14.83874  1.41413  0.33638  17.41148  0.03947     0.21133  2735.96488   6023.56435  4.10673         4795.44395     17.17616    8e-05  55915.91097  0.77747  0.07221   151537.67149  45.49912  18.03411   55961.6825    50.20096       43.32351   37.79761   57.8081   54.5    0.13114  -19.58709  0.97221 
    -6.5877   0.0019  4.88415      14.5382  1.43056  1.15749  23.16644    0.038     0.12709   2859.0075   6780.01061  4.79168         4742.18593     17.01852    6e-05   55922.9423  1.12958  0.04411   265767.23286  45.62227  18.10696  55964.09043    50.17937       43.30006   31.12744  62.25488   54.5    0.11955  -19.74098  0.99276 
   -9.29782  0.00145  8.12413     14.61421  1.90884  1.26819   32.6348  0.01969     0.09524  2522.81425   6128.01731   4.0067         4865.76997     18.54451  0.00195  55920.23218  1.23902  0.04724   691381.80859  44.89034  18.05666   55961.6825    50.21048       43.34639   28.90405   57.8081   53.5    0.13181   -19.7363  0.98592 
   -4.96739  0.00179  2.52332     14.73406  1.56503  1.08529  63.20042  0.01849     0.02922   3217.8466   6204.62485  3.88022         4732.43467     16.49905    2e-05  55924.56261  3.90371  0.11313    31489.90682  47.16125  18.03314  55964.09043    50.24241       43.36458   35.57422  55.23123   55.0    0.12208  -19.59716  0.99702 
   -6.36347  0.00464  5.77892      14.7448  1.87261  0.99874  17.75108  0.03378     0.02773   2098.6156   6957.16657  3.53286         5195.79824     16.19328    1e-05  55923.16653  0.46636  0.08236   188087.53282  45.74324  18.10549   55961.6825    50.21178       43.33124   28.90405  62.25488   54.5    0.11556  -19.80997  0.98741 
   -5.27744  0.00229  3.39213     14.77973  1.78319  1.18862  62.57508  0.01148     0.47043  2314.79662   6918.43723  4.42478         4919.21446     19.36445  0.01286  55924.25256  2.00011   0.1436    52541.83659  46.73859  18.03725   55961.6825     50.3029       43.44002   33.35083  55.58472   57.0    0.11379  -19.81384  0.99321 
    -2.6319  0.00648   3.3572     14.96553  1.66557  0.60339  29.34945  0.02119     0.01798  2174.71814    8086.8033  3.97826         5045.54177     19.79234  0.03444   55926.8981  0.82801  0.19012    20430.49673  47.12817  17.96155   55961.6825    50.19936       43.32843   37.79761  55.58472   55.0    0.14046  -19.81019  0.99023 
   -9.97074  0.00245   8.3339     14.54749  1.77273  1.41601  26.39859  0.02912     0.05159   3087.1489   6258.40231  4.96595         4742.14396     16.50998    2e-05  55919.55926   1.5008  0.06456   918689.01977  44.71262  17.99774   55961.6825     50.1993       43.32416   31.12744   57.8081   51.5    0.14174  -19.72889  0.97752 
  -12.54054  0.00527  7.07963     14.91593  1.92991  0.61662  43.75592   0.0121     0.40032  1864.18225   6383.52938  4.42211         4895.44444     19.34965  0.01243  55916.98946  0.90707  0.23052   132286.96093  45.73284  17.94325  55964.09043    50.26414       43.39522   35.57422  55.23123   60.0     0.1117  -19.53039  0.95092 
    -3.9208  0.00411  3.03097     15.13012  2.18972  0.69691  87.98807  0.01123     0.01583  3252.18877    5941.3716   3.4604         4896.19468     17.74907  0.00031   55925.6092   5.5514  0.36154    10259.71563  47.63494  18.04938  55964.09043    50.18088       43.31561   35.57422  55.58472   59.0    0.12713  -19.69961   0.9931 
  -10.26631  0.00153  7.06578     14.59627  1.59914   0.8663   7.92402  0.09078     0.02107  2700.01679   6501.95361  4.19959          4824.0432     16.84316    4e-05  55919.26369  0.34459  0.01209   475860.47219  45.09693  18.05981  55959.27457    50.25024       43.37819   28.41395   60.5216   53.0     0.1337  -19.69399   0.9964 
   -2.09027  0.00804  3.24068     14.61026  1.31546  1.02841  25.71285  0.03735     0.12716  3384.58311   6593.82035  4.82576         4720.94936     17.92344  0.00047  55927.43973  1.75706  0.20661    77204.07562  46.47901  18.16106  55959.27457    50.26274       43.32499     40.021  68.92505   53.0    0.12963  -19.83524  0.98463 
   -8.07981  0.00121  7.85342     14.61696  1.74023  1.11377  28.51755  0.02201     0.49809  2361.29326    6805.4851   4.9102         4896.27634      16.7108    3e-05  55921.45019   0.9485  0.03464   581593.50875  44.95471  17.98874   55961.6825    50.16772       43.30078   33.35083  55.58472   53.0    0.13143  -19.70552  0.98895 
   -5.41049    0.005  4.57703      14.5811  1.44474   1.3306  38.01439  0.01395     0.02747  1933.86997   7373.75777  4.41779         4982.32854     19.29474  0.01095  55924.11951  0.84807  0.18998   193451.25459   45.8209  17.88386  55959.27457    50.22108       43.36173   28.90405  59.67801   55.5    0.12047  -19.74905  0.97388 
   -7.56025  0.00155  6.96721     15.03167  2.03536   0.4663   19.9639  0.04883     0.04623  2953.40647   5576.82898  3.99305         4757.49697     16.85046    4e-05  55921.96975  1.03877  0.03094     79293.0478  45.99213  18.02298  55959.27457    50.23397       43.33857   35.57422   57.8081   56.0    0.11486  -19.66519  0.99384 
   -3.74673  0.01704  3.88575     14.92091  2.03034  1.15665  19.85965  0.03686     0.36175   2814.2772   6217.05625  4.51981         4719.38935     16.95589    5e-05  55925.78327  0.93828  0.33831    40975.06066  46.78495  18.03343  55959.27457    50.18615       43.31861   31.12744   57.8081   56.0    0.14515  -19.78111  0.98373 
   -7.37784  0.00123  5.48427      14.6161  1.74022  1.33161  36.40069  0.02509     0.31996  3095.39641   6551.02004  3.50238         4850.95644     18.10822  0.00071  55922.15216  2.08051  0.04485   284749.23286  45.57675  18.03748   55961.6825    50.18632         43.315   33.35083  55.58472   53.0    0.12606   -19.7772  0.99307 
   -7.85426  0.00491  7.82866     14.72119  1.68475  0.65571   5.08576  0.13517     0.09126  2958.88058   7170.67928  4.64241         4760.05516     17.60776  0.00023  55921.67574  0.26561  0.02495   346209.10237  45.16867  17.97448  55959.27457     50.2051       43.35905   24.45727   57.8081   51.0    0.14511  -19.80793  0.99162 
   -7.39088  0.00427  8.07713     14.61939   1.8979  1.24014  32.27873  0.01826     0.21453  2637.71042    6035.9089  3.89603         4786.81474     17.28306  0.00011  55922.13912  1.33967  0.13778   663471.65694  44.91078  17.99604  55959.27457    50.17996       43.32459   31.12744  57.45462   52.5    0.13531  -19.82891  0.96018 
   -7.36612  0.00239  8.53032     14.62143  1.66842  0.85292  28.26231  0.01709     0.01049   2446.9151    6886.3116  4.60489         4807.56671     18.75941  0.00319  55922.16388  1.00942  0.06743   644449.75672  44.82003  17.97654   55961.6825    50.20129        43.3334   35.57422  53.36133   50.0    0.15106   -19.7994  0.97314 
   -3.33373   0.0046  4.47585     14.75709  1.77386  1.17125  51.34765   0.0139     0.02224  2697.15705   6925.37365  4.27665         4838.97058     19.96243  0.05095  55926.19627  2.22823  0.23604   100996.52499  46.21171  18.07619   55961.6825    50.17485       43.30063   28.90405  62.25488   54.5    0.12023  -19.82652   0.9779 
    -5.1649  0.00665  4.22334     15.07288  1.50689  0.30015  35.59708  0.02254     0.03087  2868.08774   6274.31281  3.37866         4983.58014     20.57108  0.20692   55924.3651  1.74673  0.23656    17842.03286  46.94417  17.98912   55961.6825    50.18693       43.33037   26.68066  60.03149   55.0    0.11539  -19.89256  0.97398 
  -12.38696  0.00251  4.76002     14.49138  1.53616  1.04809  17.96394  0.04409      0.0537  2689.99439   7067.74177  4.38271         4707.45497     20.74191  0.30665  55917.14304  0.77541  0.04516   336280.52926  45.57336  17.87225  55964.09043    50.17553       43.32102   35.57422  53.00784   55.5    0.12119  -19.88029  0.99362 
   -4.81136  0.00387  4.38053      14.9582  1.86159  0.62509  39.92005  0.01935     0.02817  2702.15856   6967.82059  3.76924         4934.05349     19.93722  0.04808  55924.71864  1.73876  0.15434    40211.45757  46.65133  17.96247   55961.6825     50.2268       43.37101   33.35083  57.45462   54.0    0.13471     -19.84  0.98699 
   -9.96916  0.00105  5.16709     14.66149  1.40363  0.63203   28.5933  0.02744     0.02548  2512.44226   6679.72701  3.79818          4889.1927     18.98079  0.00532  55919.56084  1.07667  0.02997   165413.67647  45.77103  18.15919  55964.09043    50.19561       43.31597   35.57422  60.03149   56.0    0.11704  -19.65576  0.99426 
  -11.99674  0.00127  6.78001     14.40436  1.34504  0.95594  17.92882  0.03893     0.12261  2897.65617   5719.19449  4.95503          4654.0805     16.84848    4e-05  55917.53326  0.89799  0.02285   891838.75775  44.78483  18.05909  55964.09043    50.20266        43.3006   35.57422  60.03149   52.5    0.14105  -19.73572  0.99194 
   -6.50387   0.0014  2.29656     14.84143  1.78553  0.86547  55.86298  0.02067     0.49078  2932.88439   6290.16856  3.65571         4756.04405     20.13906  0.07652  55923.02613  2.86643  0.07821     18150.0313  47.53958  18.00404  55959.27457    50.21381       43.34227   31.12744  60.03149   58.0    0.09644  -19.70983  0.99873 
   -5.72787  0.00225  6.92674     14.61391  1.73488  1.30301  43.24791   0.0108     0.06705  2084.71578   7836.29994  4.35159         4865.45752     19.96071  0.05075  55923.80213  1.12121  0.09718   457432.63169  45.16673  18.02935  55959.27457    50.16441       43.29987   28.90405  62.25488   51.0    0.14271  -19.82147  0.97607 
  -11.50142  0.00203  7.33292     14.62638   1.6523  0.77345  27.99928  0.02573     0.36331  3014.30681   6284.11735  3.52872         4817.38437     19.16171  0.00806  55918.02858  1.51757  0.05673   460996.80259  45.09268  18.14477  55964.09043    50.18311       43.31305   28.90405  62.25488   52.0    0.14219  -19.73679  0.98292 
   -9.37662  0.00263  6.67566     14.67754  2.06375  1.51563  14.80508  0.05917     0.15431   2775.9629    7167.7512  4.72511         4760.74483     20.29611  0.10986  55920.15338  0.68056  0.03893   377038.83344  45.35813  18.00823  55964.09043    50.24357       43.38347   28.90405  57.45462   56.0    0.11573  -19.78785  0.99304 
   -8.65989  0.00138  5.18072     14.82285  2.00979  0.91075  15.44872  0.07249     0.04312  3219.80958   6614.77471  3.10227         4934.35888     17.13924    8e-05  55920.87011  0.95539  0.02133    113251.3158  46.08917  18.10262   55961.6825    50.17031       43.29165   35.57422   57.8081   55.5    0.11653   -19.6381  0.99765 
   -6.57749  0.00344  5.35769     14.69035  1.80286  1.25825  21.82152  0.03066     0.36109  2336.75683   7101.15034  3.61817         5036.69276     17.79246  0.00034  55922.95251  0.71079  0.07496   200004.74516  45.76581  18.01537  55959.27457    50.19813       43.34949   26.68066   57.8081   54.5    0.11194   -19.7571  0.98961 
  -11.41969  0.00336   7.6466     14.59957  1.80569  1.38098  53.21119  0.01221     0.11921  2594.12813   6062.85239  3.52573         4955.39823     18.52194  0.00185  55918.11031  2.13606  0.17881   619800.62104   44.9663  18.04498   55961.6825    50.21907        43.3257   37.79761  55.58472   55.0    0.12972  -19.64032  0.95069 
   -2.54749  0.00891  3.99096     14.85742  1.84856  1.00671  23.93047  0.02729     0.26122  2435.36077   6825.11655  4.54209         4765.64712      19.7077  0.02834  55926.98251  0.84665  0.21321    52718.30305  46.61156  17.87376   55961.6825    50.25433       43.42912   33.35083  48.35028   53.5    0.11604  -19.79802  0.98608 
  -16.29584  0.00457  6.06832     14.43228  1.49915   1.3925  19.50149  0.04646     0.33174  3585.92855   7021.93853  2.75144         5067.54521     18.26985  0.00103  55913.23416  1.49589  0.08918   700238.47338  45.03331  18.00594   55961.6825     50.2789       43.40387   31.12744   57.8081   53.5     0.1471  -19.61043  0.97893 
   -12.2219  0.00285  7.60026     14.56782  1.79174   1.5556  29.03462  0.02175      0.0946  2351.70304   6931.68951  4.90793         4819.17502     18.41571  0.00145   55917.3081  0.95787  0.08264   703243.01526  44.91336  18.02822   55961.6825    50.19879       43.32571   28.90405  60.03149   55.0    0.12621  -19.66253  0.97655 
  -12.08046  0.00296  7.95464     14.47306  1.46645  0.89543  17.45595  0.03536     0.26679  2670.19744   5855.31026  4.82872         4706.36475     19.14395  0.00774  55917.44954  0.74243  0.05174   975455.58398  44.64466  18.08853  55964.09043    50.31422       43.47213   33.35083  53.36133   53.5    0.13576  -19.66747  0.97814 
   -8.17501  0.00174  6.33092     14.70681  1.60403  0.76191   51.7711   0.0113     0.02371  2003.56623   7196.97294  4.28698         5055.57107     16.20598    1e-05  55921.35499  1.23972  0.09012   230326.03021  45.50878  18.05811  55964.09043    50.18339       43.32565   31.12744  55.58472   56.0    0.11601  -19.72285  0.97913 
   -3.61029  0.00373  3.65197     14.89196  1.59497  0.62129  31.38821  0.01814     0.18159  1904.49259   7231.83356  3.82024         5123.55774     16.84577    4e-05  55925.91971  0.67913  0.11722    32486.70085  46.83484  18.09206   55961.6825    50.33959         43.488   33.35083  51.13794   56.0    0.10535  -19.77025  0.99166 
   -4.35992  0.01886  4.61681     14.94083  1.75594   0.6034  12.47867   0.0632     0.01681  3090.22513   6554.65975  3.20252         4918.47078     19.81275   0.0361  55925.17008  0.71085  0.23529    45641.11686  46.52532   17.8736  55959.27457    50.22363       43.38782   24.45727   57.8081   52.0    0.13414  -19.79181  0.97585 
   -8.28225  0.00156  6.49557     14.64759  1.85361  1.29381  12.94645  0.05692     0.06957  2298.69874   6584.72813  4.80718         4816.17821     17.17565    8e-05  55921.24775  0.40808  0.02021    368032.7688  45.34574  18.06121   55961.6825    50.17031       43.28425   35.57422  60.03149   56.5    0.11623  -19.71173  0.99597 
   -1.98553  0.01084  3.13298     14.85467  1.74434  0.90628  21.36749   0.0378     0.01647  3052.87301   6173.78747  4.82161         4672.58139     17.20482    9e-05  55927.54447  1.18795   0.2317    31047.58851  47.02653  18.03259   55961.6825    50.22198       43.37728   28.90405  55.58472   53.5    0.13281  -19.87382  0.99102 
   -5.26577   0.0031  3.81375     14.92783  1.81219  0.66429  22.75976  0.04046     0.02355  2573.18719   6481.10785  3.65301         5055.68726     17.27954  0.00011  55924.26423  0.89895  0.07049    34124.90883  46.83127  18.05786   55961.6825    50.19241       43.29573     40.021   57.8081   58.0     0.1089   -19.7188  0.99546 
   -6.96887  0.00233  5.10712     15.16478  1.86538  0.31213  41.23964  0.01172      0.0493  1654.03759   8412.48919  3.80137         4950.13617     20.50788   0.1789  55922.56113  0.67303   0.0959    21153.41252  46.79788  18.04873   55961.6825    50.19404       43.31851   31.12744  60.03149   56.5    0.10963  -19.83573  0.98852 
  -17.51596  0.00176  4.68404     14.42343   1.3383  0.98878   11.1223  0.10644     0.03097  3909.69316   5767.37071  2.00768         4856.16164     16.85212    4e-05  55912.01404  1.01416  0.01959   387930.95311   45.4654  18.06584  55964.09043    50.18924       43.29567   37.79761  60.03149   54.0     0.1393  -19.43576  0.99668 
   -3.74817   0.0031   3.9225     14.79999  1.41876  0.63325  56.09581  0.01175     0.32967  2406.88347   6502.10017  4.46317           4821.664     17.50123  0.00018  55925.78183  1.93851  0.17363     50918.2931  46.52676  18.12402  55964.09043    50.15878       43.26255   35.57422  60.03149   53.5    0.13908  -19.77481  0.98228 
   -6.99503  0.00431  7.10498     14.88273  1.73784  0.57723  38.03602  0.01301     0.04354  2033.43867   7673.25271  4.41355         4899.58552     16.19016    1e-05  55922.53497  0.93818  0.16387   139795.21838  45.66024  17.98077  55959.27457    50.22119       43.37556   26.68066   57.8081   54.0     0.1294   -19.7322  0.95848 
  -12.38269  0.00467  2.68337     14.79289  1.53119   0.4356  69.17518   0.0109     0.05999  2791.39258   8787.21059  2.80183         4930.95624     21.12138  0.73469  55917.14731  3.21528  0.32276    26571.91767  47.17209  17.88893  55959.27457    50.22163       43.37918   31.12744  55.58472   56.5    0.11807  -20.10225  0.98613 
  -13.94623  0.00122  5.14629     14.65961  1.67292  0.81643  14.28831  0.07363     0.09847   3360.2373   5688.35375  2.54559         4973.18439     18.57244  0.00208  55915.58377  0.96238  0.01749   197266.53832  45.77428   17.9953  55964.09043    50.19629       43.31908   37.79761  55.58472   53.5    0.12536  -19.54009  0.99746 
  -15.22426  0.00687  4.86431     14.41008  1.38683  1.23051  17.65343  0.04593     0.11193  2911.53499   5998.17109  2.10301         5266.78203     18.88236  0.00424  55914.30574  0.89269   0.1212   461014.60269  45.37311  17.97004  55954.45871    50.22419       43.33235     40.021   57.8081   55.0    0.12443  -19.55314  0.97936 
   -4.08561   0.0057   2.3257     14.65823  1.52176  1.53585   20.1525   0.0472     0.06118  2740.53054   6581.20411  3.83473         5054.51988     16.00834    1e-05  55925.44439  0.90287  0.11479    36882.12554  47.15127  18.04403  55964.09043    50.17875       43.29915   35.57422  55.58472   56.5    0.11091  -19.88806  0.99746 
   -7.54959  0.00131    6.555      14.7383  1.95454  1.05917  42.93048  0.01422     0.01725  2192.12464   6910.01281  3.89023         5126.19921     18.59465  0.00218  55921.98041  1.23062  0.05603   260258.67233  45.51134  18.10569  55964.09043    50.18728       43.29219   35.57422  60.03149   53.5    0.12861  -19.83349  0.98955 
  -10.66234  0.00119   8.5211     14.55861   1.8342  1.37354  29.01901  0.02131     0.10953  2568.68968   6843.78076  4.22732         4900.86889     19.12983  0.00749  55918.86766  1.14218  0.03456    944146.1146  44.69626  18.02327  55956.86664    50.17514       43.30006   26.68066  60.03149   52.5    0.13553   -19.7249  0.98795 
  -11.82926   0.0019  9.32093     14.64291  2.06409  1.20234  23.95024  0.03039     0.11082  3007.67435   6343.49321  3.82317         4768.89291     19.48707  0.01705  55917.70074  1.29241   0.0456   862251.73985  44.70902  18.04687  55959.27457    50.22952       43.31957   37.79761  64.47827   52.0    0.14294  -19.66423  0.98413 
   -9.21742  0.00135  5.73041     14.61023  1.38454  0.68768  17.69601  0.03024     0.04091  2039.22668   7443.55791  4.71321         4861.54291     19.41053   0.0143  55920.31258  0.43897  0.02384   254112.56243  45.48875  18.10549   55961.6825     50.2015       43.33659   31.12744  60.03149   53.5    0.12672  -19.79953  0.99425 
   -7.31034  0.00324  4.62061     14.58559  1.47945  1.06688  34.28349   0.0242     0.24791  2732.98252   6879.24879  3.71882         4918.43947      16.4008    1e-05  55922.21966  1.52752  0.11102    197755.0189  45.81342  17.99456  55959.27457    50.23702       43.36836   35.57422  53.36133   55.5    0.11282  -19.75881  0.98466 
   -6.20794  0.00431   3.5696     15.03532  1.70638  0.43276  33.71637  0.02771     0.02007  3203.63866   6775.45232  3.08956         5025.87216     20.15255  0.07894  55923.32206  2.06422  0.14535    17158.62487   47.1612  18.11146  55964.09043    50.19541       43.28463   42.24438   57.8081   53.0    0.13188  -19.90734  0.99099 
   -7.26208  0.00165  5.17808     14.64129  1.43818  0.77781  58.22577  0.01095     0.03396  2481.51477   7036.41713  3.85149         4921.92507      18.6103  0.00226  55922.26792  2.13883  0.09582   186803.30074  45.72694  18.07312  55964.09043     50.2157       43.34573   33.35083   57.8081   52.5    0.12942  -19.82265  0.98249 
   -7.16109  0.00299  6.53204     14.88202  2.01765  0.68662  12.46742  0.06067     0.07485  2860.49667   6474.52207  3.15164         4955.31536     17.58068  0.00021  55922.36891  0.60854  0.03727   137632.96902  45.80487  18.05312   55961.6825    50.16588        43.2955   33.35083  60.03149   51.5    0.14008  -19.80218  0.99341 
   -8.26792  0.00175  7.77725     15.11329  1.60012  0.23094  20.50141  0.01859     0.03575  2014.97685   7313.69095  3.52987         5092.59853     17.36008  0.00013  55921.26208  0.49654  0.03581    53338.36902  45.96431  18.05849   55961.6825    50.23956       43.35536   35.57422  55.58472   49.0    0.15636  -19.81436  0.98721 
    -9.0229  0.00528   5.5106     14.52383  1.54939  1.51396  22.69521  0.02716     0.07753  2257.18924   7049.73855  4.36476         4827.16108       20.222  0.09263   55920.5071  0.68976  0.11992    391476.1324   45.3839  18.02832  55964.09043    50.21367       43.35145   35.57422  53.36133   55.0    0.12951  -19.77831  0.97795 
   -8.88035  0.00208   4.9221     14.49607  1.47421  1.29557  18.87792  0.04982      0.0179  2984.82775   6354.41855  3.37851         4900.45397     16.27803    1e-05  55920.64965  1.00327  0.03929   337697.39179  45.52458  17.92582   55961.6825    50.34417       43.51069   26.68066  55.58472   54.5    0.11636  -19.70905   0.9937 
  -10.69459  0.00349  2.60378       14.586  1.91086  1.48987  29.55833  0.02186     0.38452  2445.23478   7160.54254  2.55426         4999.62393     21.02621  0.59011  55918.83541  1.05426  0.10307    80955.67922  46.81062  18.09487   55961.6825    50.19007       43.30373   28.90405  62.25488   54.0    0.12187  -20.07618  0.99717 
   -6.26327  0.00705  5.81719     14.52088  1.46431  1.48325  46.15868  0.01084     0.03031  2418.30423   6339.73268  4.15964         4621.28066     19.48508  0.01697  55923.26673  1.61028  0.32519   417948.55183  45.28393   18.0986   55961.6825     50.1948       43.30068   35.57422  60.03149   53.5    0.14797  -19.81313  0.93081 
   -7.13764  0.00572  4.14345     14.64219  1.43081  0.86999  20.43239  0.03354     0.06898  2505.43152   6947.85781  3.30858         4919.43046     16.62625    2e-05  55922.39236  0.76509  0.11689   118505.36324  46.11597  18.05912   55961.6825    50.20302       43.33938   26.68066  60.03149   53.5    0.11866  -19.76059  0.98649 
  -11.70469  0.00119  8.25443     14.82862  1.51834   0.3516   8.70456  0.06907     0.01641  2716.62643   6316.71528  4.43638         4737.86463     16.76662    3e-05  55917.82531  0.38321  0.01038   211500.79279  45.29153  17.91004  55959.27457    50.21663       43.35829   26.68066  55.05197   52.5    0.14692  -19.68818  0.99543 
   -8.07188  0.00447  3.66889     14.49817  1.40727  1.39711  23.56556  0.04774     0.05211  3399.91164   5925.53794  2.69454         4814.54202     17.69995  0.00028  55921.45812  1.62495  0.10529   177387.31331  46.03923  18.02035  55964.09043    50.21601       43.34102   31.12744   57.8081   55.0    0.11209  -19.69098  0.99024 
   -7.18755  0.00197  4.97805     14.62221  1.56596  0.96793   17.7792  0.05221     0.05722  3123.33551   6214.49378  3.50003         4941.03158     19.85664  0.03994  55922.34245  1.03461  0.03499   205252.50199  45.75722  17.94249   55961.6825    50.23328       43.39403   31.12744  55.58472   53.0    0.12383  -19.80739  0.99476 
   -10.5885   0.0012  6.55066     14.56621  1.49435  0.72401  12.45659  0.05999     0.08961  3494.21898   6179.33146  3.13067         4883.73677     20.07732  0.06638   55918.9415  0.90725  0.01501    438953.2895  45.16831  18.18874  55964.09043    50.21098       43.29108     40.021  62.25488   49.0    0.15727  -19.88965  0.99578 
   -6.32997  0.01147  5.80461     14.87465  1.72103  0.67742  21.74593  0.02853     0.07059   2498.5671   6094.96089  4.74756          4726.9102     17.71914  0.00029  55923.20003  0.80982  0.24943    95904.90209  45.99525  17.98228  55956.86664     50.2504       43.38627   28.90405   57.8081   53.5    0.13478  -19.76076  0.95783 
   -4.06011  0.00272  4.32758     14.92589  1.64614  0.54775  30.44437   0.0183     0.04939  2083.62453   7363.06191  3.97461         5049.19216     19.33749  0.01208  55925.46989  0.78845  0.08282    40270.16623  46.60784  17.93488  55956.86664    50.21668       43.37576   24.45727  55.58472   52.5     0.1231  -19.86274  0.99163 
   -3.76099  0.00136  3.68073     14.92755  2.09147  0.95494  41.00955  0.02389     0.17237  2596.46783   6495.73912  4.77843         4732.70549     17.68096  0.00027  55925.76901  1.64922  0.05589    36731.73116  46.89239  17.99692  55964.09043    50.18121       43.30109   35.57422  55.58472   58.5     0.0913    -19.682  0.99756 
   -5.79418  0.01717  3.70329     14.80922  1.66362  0.88403  12.34435   0.0722     0.02155  3086.83672   6522.19907   3.9555         4710.52259     16.12583    1e-05  55923.73582  0.70165  0.21197    51004.41008  46.64512  18.01298   55961.6825    50.20061       43.30602     40.021  55.58472   54.0    0.11272  -19.72921  0.98577 
   -3.83434   0.0046  3.82203     14.81063   1.6905  0.76527   9.06509  0.14306     0.06125  3573.65868   6429.39549  4.68986         4755.69298     19.62158  0.02324  55925.69566   0.6906  0.04173     54847.8963  46.59311  18.07252   55961.6825    50.18362        43.2999   35.57422   57.8081   55.5    0.10801   -19.7861  0.99691 
   -9.06525  0.00149  6.67022     14.43548  1.45035  1.34296  35.09628  0.02041      0.0235   2718.4112   6348.19225  3.63115         4909.73714      17.8666  0.00041  55920.46475   1.5471  0.05244   806510.00502  44.87543  17.98046  55959.27457    50.26507       43.39688   35.57422  55.58472   53.5    0.13065  -19.67717  0.98419 
   -5.63079  0.00117  6.95731     14.73301  2.01092  1.34264  60.77725  0.01253     0.24944  2770.91007   6381.15767    4.554         4755.41612     16.05429    1e-05  55923.89921  2.78364  0.07096   309075.83048  45.39729  18.07631   55961.6825    50.18706       43.33242   24.45727  60.03149   52.5    0.12891  -19.72715  0.98579 
  -11.44686  0.00193  6.79416     14.83171  1.51493  0.40727  17.90223   0.0353     0.01104  2409.10361   6646.92379  4.22795         4841.60245     19.68026  0.02661  55918.08314  0.61979  0.03452    140946.4055  45.63591   18.0904   55961.6825    50.18102       43.29792   35.57422   57.8081   54.5    0.13291  -19.69643  0.98978 
      -5.23  0.00142  3.98848     14.94687  1.49571  0.41794  35.50172   0.0286      0.0517  2897.52318   6051.52646  4.26541         4708.42915     18.22126  0.00092      55924.3  1.77799  0.05031    28219.02207  46.79154  18.05314  55966.49836    50.18549       43.31677   37.79761  53.36133   57.5    0.11398  -19.69274  0.99495 
    -6.2861  0.01371  4.95884     14.70958  1.62205  0.95148  16.18916   0.0539     0.02347  3275.58306   5938.13888  4.52129         4457.10112      17.4564  0.00016   55923.2439  1.03616    0.222   141084.83571  45.93867  18.03197  55964.09043    50.19996        43.3201   37.79761  55.58472   53.0    0.13838  -19.74201  0.96989 
  -10.81242  0.00442  6.94702     14.51856  1.46005  0.84855  25.10683  0.02497     0.39498  2823.58609   5738.33997  3.32721         4784.88411       18.987  0.00539  55918.71758  1.19405  0.11108   600703.47605  44.97096  17.96799  55964.09043    50.20431       43.34352   31.12744   57.8081   53.0    0.14113  -19.71904  0.96461 
   -9.55318  0.00146  6.30008      14.7246  1.75042   0.7492   7.36952  0.11797     0.09001  3229.43603   5929.06583  3.33952         4897.25749     16.55773    2e-05  55919.97682  0.45848  0.01077   229319.58369  45.55285  18.05855   55961.6825    50.20291       43.31973   35.57422  60.03149   51.0    0.13839  -19.78526  0.99779 
  -10.48764  0.00416  7.20981     14.69047  1.84418  0.89566  11.37768  0.07281     0.01642   2860.1316    6130.4116  3.95022         4637.83586     19.96027   0.0507  55919.04236   0.5552  0.04728    370278.5776  45.25027   17.9898   55961.6825    50.21471       43.32477     40.021  55.58472   55.0    0.12023   -19.6198  0.98832 
    -8.6772   0.0135  7.26596     15.09506  1.80617  0.33418  13.75009  0.06088     0.37483  3043.59632   6069.92121  3.79204         4936.55262     17.67875  0.00027   55920.8528  0.75981  0.18567    57153.60861  46.04597  18.09807  55959.27457    50.23976        43.3649   26.68066  66.70166   54.5    0.13011  -19.72671  0.95374 
   -6.59687  0.00305  4.36764     14.75413  1.65837  0.87321  55.42534  0.01627     0.02445  3010.42423   5947.07515  4.00691         4796.07411     17.35705  0.00013  55922.93313  2.99634  0.16893    91145.95548   46.2483   18.0014   55961.6825    50.19243       43.35015   31.12744  53.36133   55.0     0.1275  -19.79352  0.98288 
   -4.58025  0.00337  3.47061     14.81686  1.67022  0.79456  13.03159  0.09074      0.0394  3301.96871    6519.0061  4.36722         4879.39142      16.9886    5e-05  55924.94975  0.84756  0.04386    43418.63826  46.77313  17.99688   55961.6825    50.23797       43.36005   37.79761  55.58472   55.5    0.12294  -19.78832  0.99739 
   -4.11583  0.00215  2.86491     14.73604  1.59688  1.05594  59.18867  0.01783     0.11703  3069.81692   6617.05088  3.11215         4989.89713     19.07351  0.00658  55925.41417  3.32729   0.1274    41041.10134  46.94468   18.0516   55961.6825    50.22473       43.33847   35.57422  60.03149   56.5    0.10182  -19.69794  0.99521 
   -5.67352   0.0042  4.43076     14.71245  1.82348  1.35688  47.55001  0.01567     0.04253  2670.88725   6111.34852   2.9276         5071.73655     17.62503  0.00023  55923.85648  2.02343  0.19954   124959.07225  46.14002  18.10716   55961.6825    50.19557        43.3212   31.12744  62.25488   54.5    0.11667  -19.78398  0.98215 
   -10.8442  0.00234  7.71039     14.63625  1.92843  1.49998  17.37463  0.04244     0.03869  2653.62534   6419.73368  4.93231         4609.05762     18.45426  0.00158   55918.6858  0.72983  0.04066   568426.97536  45.02522   18.0248   55961.6825    50.18665       43.33201   31.12744  57.45462   54.0     0.1281  -19.60046  0.98926 
   -4.33056  0.00438  3.64569     14.88638  1.88426  0.93013   41.7219  0.02028     0.05902  2974.31111   6034.85476  4.45304         4633.12113     16.54048    2e-05  55925.19944  2.20173  0.18255    39241.91587  46.82668  18.05591   55961.6825    50.21433       43.32287   35.57422  60.03149   55.5    0.13346  -19.77063  0.99073 
  -12.77105  0.00223  9.96551     14.64397  1.98785  0.96182  37.24989  0.01386     0.05285  2475.01633   6684.42319  3.75066         4870.05764     18.21986  0.00092  55916.75895  1.36116  0.08308     944607.449  44.59498  18.02947  55959.27457     50.1879       43.33742   26.68066  55.58472   53.5     0.1439  -19.67938  0.96549 
  -10.01849  0.00198  8.53963     14.55573  1.91151  1.49156  15.55828  0.02899      0.0301  2561.00957   6852.47091  3.07486         5036.24821     16.66186    3e-05  55919.51151  0.60871   0.0308   1001385.2612  44.68674  17.93208  55956.86664    50.26638       43.39143   35.57422  57.27536   48.0    0.16967  -19.87833  0.98982 
  -10.18524  0.00648  5.01907     14.64353  1.53631  0.92453   47.6578  0.01225     0.33987  2356.47112   6485.33309  2.62869         5459.21841     20.00002  0.05556  55919.34476  1.57865  0.30866   185555.18386   45.7856  17.99631  55959.27457    50.19604       43.30546   37.79761   57.8081   56.0    0.12754  -19.73649  0.95374 
   -5.19975  0.02541  4.48245     14.68801  1.65203  1.23218   9.93323  0.09552     0.02598   3329.7692   5614.36973  3.95509         4823.04053     16.68371    3e-05  55924.33025  0.65697  0.25244   129669.49979  46.07099  18.08003  55964.09043    50.19281        43.2883     40.021   57.8081   54.0    0.13175  -19.77597  0.97333 
  -10.28899  0.00108  5.48858     14.55265  1.70477  1.10794  16.82926  0.03854      0.0117  2508.81466   6553.63641  2.62622         4934.87677     20.52404  0.18568  55919.24101  0.63187  0.01825   374203.47014  45.44848  18.04844  55964.09043    50.16774       43.27893   35.57422   57.8081   53.5    0.12823  -19.79431  0.99706 
   -5.05653  0.00243  5.05482     14.58401  1.36264  0.87608  42.03799   0.0151      0.1088  2413.16956   7174.63705  3.75958         4903.42405     17.37795  0.00013  55924.47347  1.46031  0.10225   219578.29559  45.65422  18.01289   55961.6825    50.17676       43.32549   26.68066   57.8081   53.0    0.13498  -19.72639  0.98081 
   -6.66244   0.0038  8.60365     14.97814  1.86192  0.42087  10.54584  0.04209     0.22756  2060.48018   7189.71517  4.96699         5043.87555     16.79326    3e-05  55922.86756  0.26708  0.04008   141533.68716  45.51858  17.99174   55961.6825     50.2213       43.36759   28.90405  57.45462   50.0     0.1489  -19.90441   0.9861 
   -9.42391  0.01464  7.79739     14.89379  2.08165  0.59404  18.71999  0.02398     0.38065    2328.763   8022.97668    2.688         5178.24853     20.71842   0.2905  55920.10609   0.6056  0.27412   191665.89222  45.52081  18.16368  55959.27457    50.16534       43.29116   26.68066  64.47827   53.0    0.14705  -19.93688  0.93738 
   -3.90949  0.00546  4.06047     14.73926  1.85202  1.56792  21.59451  0.03985     0.01332  2746.27014   6394.88937  4.27076         4874.59498      18.5965  0.00219  55925.62051  0.97153  0.11793    94207.19672  46.34525  17.99552  55959.27457    50.33937       43.46684   33.35083  59.67801   56.5    0.11338  -19.79159  0.99162 
   -9.70752  0.00244  8.07492     15.05832   1.8276  0.35032  51.88108  0.01056     0.11211  2448.44228   6314.40047  4.65851         4770.67221     18.90933  0.00451  55919.82248  1.85531  0.12659     84592.9134  45.78912  18.00478   55961.6825    50.21005       43.35077   26.68066   57.8081   52.0    0.14863   -19.7735   0.9613 
   -3.53208  0.00913  2.93005      14.7407  1.30457  0.60952  14.64534  0.06992      0.4124  2973.56463   6051.54202  4.46373           4708.886     20.22132  0.09248  55925.99792  0.77247  0.13373    34326.40806  46.91493  17.98298  55956.86664    50.18841       43.33127   26.68066  59.67801   57.5    0.11719  -19.79325  0.99173 
   -8.79775  0.00918  7.18064     15.05809  1.86246  0.33852  24.26737  0.02009     0.02214  2259.85549   6970.56941  3.76528         4885.74281     20.64436  0.24495  55920.73225  0.73928  0.22288    68240.57311  45.99256   18.0239   55961.6825    50.18479       43.33201   26.68066  57.45462   53.5    0.13504  -19.95746  0.94842 
   -9.51811  0.00173  7.05665     14.85105  1.67494  0.46724  11.50828   0.0718     0.02772  3106.34651   6375.90818   4.2912         4869.97786     18.66218  0.00255  55920.01189  0.66243  0.01988   153783.83182  45.60874  18.04124   55961.6825    50.17854        43.2896   37.79761   57.8081   51.5    0.14181  -19.80934  0.99452 
   -5.50306  0.00406  4.95235      14.7305  1.41908  0.68837  58.37609  0.01146     0.02237  2589.46943   6075.34334  3.95087         4991.51182     18.51831  0.00183  55924.02694  2.33498   0.2372    111802.1719  45.98278  18.05489  55959.27457    50.21021       43.30376   35.57422  60.03149   54.0    0.12775  -19.78595  0.96088 
  -10.47844  0.00112  5.58917     14.30184  1.24952  1.28978  41.21866  0.01653     0.07851  2858.75831   5733.12132  3.35338         4817.02577     17.86494  0.00041  55919.05156  2.00944  0.04612   902748.50227  44.91533  18.06078   55961.6825    50.22664       43.33616   24.45727  62.25488   52.5    0.14112  -19.80032   0.9877 
   -8.63545  0.00269  7.89077     14.77026  1.82505  0.69072  15.16713  0.04055     0.01386  2467.62047   6491.39218  4.28326         4768.58979     16.21432    1e-05  55920.89455  0.55092  0.04078   303958.73681  45.25307  18.05047  55964.09043    50.17496       43.30542   37.79761  55.58472   53.0    0.13831  -19.72891  0.98773 
  -10.97132  0.00179  4.29335     14.81961  1.89096  0.87751  82.09909  0.01105     0.03467  2864.77285    6427.5619  2.91036         4923.16025     19.37554  0.01319  55918.55868  4.01926  0.14734    74278.53508  46.40907  17.97405   55961.6825    50.19252       43.33032   28.90405   57.8081   56.5    0.11698  -19.46764  0.98828 
  -22.63493  0.00301  6.26481      14.6536  1.82897  0.86014  18.64312  0.06595     0.02618    3158.646   5165.54662  2.57365          4911.5666      19.4102  0.01429  55906.89507  1.10955  0.05606   328571.39305  45.42061  18.08128  55964.09043    50.13878       43.25773   35.57422   57.8081   58.5    0.11498  -19.19866  0.98941 
   -8.06505  0.00149  6.64756     15.01583  1.81036  0.43001  42.92568  0.01132     0.17101   1760.9694   7548.17177  4.75654         4967.07165     16.73183    3e-05  55921.46495  0.79405  0.06412    69062.47453  46.04204  18.02962   55961.6825    50.17343       43.30353   28.90405   57.8081   54.5    0.12089  -19.77263   0.9863 
   -7.99056  0.00222  4.47045      14.6771  1.71977  1.11377  28.72446  0.02582     0.04967  2393.81922   7515.41205  4.22417         5000.55056     19.13128  0.00752  55921.53944  0.98189  0.06391   141184.18901  46.05383  18.14089  55966.49836    50.17726        43.2833   35.57422  62.25488   55.5    0.11719  -19.88429  0.99346 
  -13.57514  0.00959  6.98916     14.52411  1.64439   1.4715  21.47217  0.02781     0.02605  2354.16297    6559.1281  3.90021         4829.69011      16.6643    3e-05  55915.95486  0.70987  0.20602   667491.28379  44.97155  18.01917  55959.27457    50.20333       43.33369   24.45727  59.67801   56.5    0.12483   -19.5885   0.9457 
   -7.47952  0.00564  6.17991     14.82622  1.83888  0.78245  27.85996  0.03031     0.01293  3101.15956   6199.16334  4.81768         4630.04348     17.69492  0.00028  55922.05048  1.59829  0.15724   145173.92489  45.78955  18.02237   55961.6825    50.21119       43.34775   33.35083   57.8081   53.0    0.13238   -19.7616  0.97216 
   -7.96152  0.00401   5.5629     14.94345  1.33377  0.30892  28.00612  0.01933     0.07041  2084.74882    6810.8828  3.73092         5073.06184     16.36464    1e-05  55921.56848  0.72609  0.11225    49727.10378  46.20673  17.99146  55964.09043    50.18258       43.31984   35.57422  55.58472   54.0    0.12785  -19.73846  0.97365 
   -2.62071  0.01719  2.88906     14.70849  1.55158  1.28987   14.3865  0.05381     0.03024  2888.25269   6342.24885  4.11285         4801.94463     17.42191  0.00015  55926.90929   0.7159  0.24726    46038.18103  46.87499  17.96109  55964.09043    50.23767       43.36737   35.57422  53.36133   53.5     0.1098  -19.85444  0.99053 
   -6.72331  0.01001    5.796     14.77749   1.7456  0.85787  15.83625  0.03827     0.01024  2314.04089   7107.55634  4.86684          4754.5572      18.7473   0.0031  55922.80669  0.50585  0.15854   151717.62629   45.8035  17.99122  55964.09043    50.17663       43.32223   35.57422  53.00784   54.0    0.13766  -19.78505  0.97334 
   -6.45884  0.00212  9.06238     14.65306  2.03972  1.26786  18.42918  0.04406     0.05377  3469.27134   6060.89801  4.19322         4720.84459     19.43186  0.01502  55923.07116  1.32315  0.03905   768679.19315  44.77819  18.09945  55964.09043    50.27115        43.3978   31.12744   57.8081   49.5    0.15079  -19.77259  0.98687 
  -16.83849  0.00437  8.17398     14.53658  1.78759  1.08038  11.14416  0.06472     0.01414   2763.1277   5775.96646  2.94595         4945.44354     19.28309  0.01066  55912.69151  0.50755  0.04874   937130.06684  44.72445  18.10331   55961.6825     50.2278        43.3331     40.021  60.03149   55.5    0.13203  -19.53264  0.98378 
