 texplosion  fnickel     Pspin  log(Bfield)      Mns  thetaPB   mejecta    kappa  kappagamma      vejecta  temperature    alpha  cutoff_wavelength  log(nhhost)      A_V         MJD0   kenergy  mnickel            TSD   log(L0)  Peak_mag     Peak_MJD  log(E_rad)  log(Peak_lum)  Rise_Time    E_fold  tau_1  delta_m15     r_peak     frac 
   -0.63956  0.40855   1.96246     14.94347  2.07661  1.52617    7.0141  0.01273     0.01336   4358.19069   7063.88834  4.54424         2582.96135     20.82642  0.37252  58428.84872   0.79471  2.86559     9634.35396  48.01678  18.81822  58441.48763    50.86917       44.40687    8.10396  18.19608   24.0    0.72979  -20.98073  0.98866 
   -0.15885  0.32197   0.89292     14.99417  1.99714  1.00356  10.74083  0.01156     0.23798   4752.00863   7497.55155  4.79068         2894.90438     21.07299  0.65722  58429.32943   1.44684  3.45817     1518.84645  49.48612  18.83974  58446.18863    50.56413       43.89624   10.68629  25.08274   23.0    0.69671  -21.47888  0.99931 
   -0.93734  0.25433   1.91511     15.02935  1.44512  0.47278   7.54495  0.01078     0.01308   4964.55248   7806.21486   4.8788         2185.48888     20.01004  0.05685  58428.55094   1.10929  1.91888     4299.32449  48.23096  18.73022  58446.18863    50.54092       43.98344    8.10396  21.35289   54.5    0.73669    -20.388  0.97968 
   -2.74165  0.21333   1.97119     15.16621  1.59293  1.18651  11.26173  0.01187     0.09909   8239.91071   5694.11289   2.7577         3311.51144     18.02009  0.00058  58426.74663   4.56118  2.40245     2673.28833  48.45454  18.70748  58441.29458    50.59668       44.13457   10.31143  15.04071   82.0     0.5199  -20.26955  0.99576 
   -6.37108  0.19156   6.48756     14.81138  1.79772  0.77411   8.09033  0.01518     0.10234   5275.94951   8360.71922  3.18555         2382.91062     18.36577  0.00129   58423.1172   1.34337  1.54981   167474.23584  45.67546   18.8112   58443.7416    50.69585       44.19934    7.26762   17.9811   65.5    0.40238  -20.00012  0.75582 
   -0.39782  0.27623   1.26046     15.03321  1.53295  1.14031    6.1898  0.03126     0.42881   6239.28492   7397.92751  3.75771         3426.31109     17.32285  0.00012  58429.09046   1.43739  1.70979     1940.79772  48.96533  18.74567  58441.48763    51.14483       44.78847    7.26762  15.87704   53.0    0.49648  -20.23668  0.99903 
   -2.78993  0.49621    9.2121     14.85518  1.56372  1.06476   3.81109  0.02294     0.10688   6891.26525   6554.31874  4.42999         3236.32796     19.52214  0.01849  58426.69835   1.07963  1.89108   240071.39103  45.15395  18.69306   58443.7416    50.80192       44.22947    8.04753   21.0406   48.0    0.73523   -20.5297  0.50595 
   -0.66969  0.20112   2.75686     15.02804  1.63929   1.3652   9.06418   0.0143     0.05316    7284.1613   8461.67452  2.55411         4109.51794     20.21437  0.09101  58428.81859    2.8689  1.82301    10167.78914  47.59545  18.52495  58441.29458    50.53331       43.99417   10.62371  19.46328   27.5    0.74487  -20.80176  0.98031 
   -3.49375  0.19643   5.17846     14.89306  1.51413  0.81756   7.87861  0.01172     0.03382   5547.78785   9725.17131  4.06247         2847.33613     16.46611    2e-05  58425.99453   1.44649  1.54762    61696.99904  46.23034  18.76037   58443.7416    50.58361        43.9931   10.62371   21.0406   38.5    0.65412  -20.22667  0.80127 
   -7.20247  0.24998    6.6081     14.45032  1.63646   1.5077   4.12027   0.0166      0.1218   6553.60003   7702.28358  2.26602         2328.92734     19.38827  0.01358  58422.28581   1.05563  1.02997   834135.51639  44.92136  18.84856   58443.7416    50.90252       44.45325    8.51965  18.93654   56.5    0.47934  -20.18157  0.79418 
   -0.96915   0.3898   2.50708     14.83044  1.62172  0.93479   7.04948  0.01456     0.01335   5555.24086   7750.93479  3.68628         2965.15474     20.87471  0.41633  58428.51913   1.29775  2.74791    20665.68718  47.36523  18.81807  58438.84756    50.60648       44.13564   11.47574   17.9811   40.5    0.68148  -20.89057  0.94316 
   -1.89312  0.44355   4.09734     14.70441  1.77474  0.72182   6.80764  0.01027      0.1545   5595.21778   5439.29433  4.77335         2497.55139     21.04353  0.61413  58427.59516   1.27133  3.01952   107926.36734  46.25985  18.79056  58441.48763    50.73651       44.33145    6.31218  16.83248   29.0    0.83523  -21.22514  0.79754 
   -0.92915  0.23201   1.54323     14.71569  1.67014  1.04584  14.39541   0.0119     0.07106   7000.88623   7397.46559  4.87643         2810.63566     21.19252  0.86546  58428.55914   4.20879  3.33991    13678.66585  47.97869  18.76466   58443.7416    51.22738       44.91089    6.41559  14.72842   29.0    0.62586  -21.36589  0.98225 
   -1.91222  0.29048   3.78509       14.584  1.40935  1.22421   4.35442   0.0153     0.46922   6453.23051   8859.66913  3.91866          2053.8828      19.5168  0.01826  58427.57606   1.08171  1.26485    127348.8336  46.15672   18.6573  58446.18863    50.57797       44.02099    8.04753  22.09171   36.5    0.82443  -20.38913   0.8903 
   -2.39372  0.34143   3.48427     14.74443  1.52979   0.6252   4.40925   0.0138     0.02931   5103.38482   9727.48257  3.06232           2042.756     19.94299  0.04872  58427.09456   0.68503  1.50547    55952.17884  46.62144  18.79034   58443.7416    50.53951       43.94159   12.72777   21.0406   44.5     0.6881  -20.35472  0.89967 
   -1.11405  0.41134   1.34081      15.0713  1.41938  0.75853   5.20313  0.04207     0.05203   9601.26667   9333.11455   2.7943         3245.46316     20.40582  0.14143  58428.37423    2.8612  2.14028     1706.28427  48.93416  18.80244   58443.7416    50.64226       44.13085    8.41624  19.59997   23.5    0.81736  -21.15737  0.99772 
   -2.73968  0.25126   4.31147     14.69843  1.64263  1.24067   8.41597  0.01299     0.17572   6879.87856   6189.01621   3.1526         2627.22667     20.54836  0.19637   58426.7486   2.37625  2.11462   113698.34627  46.15938   18.6727   58443.7416    50.53511       43.93741   15.30395  23.14466   57.0    0.65205  -20.58827  0.82555 
   -4.90092  0.38457    7.1635     14.91201  1.49203  0.63338   4.73751  0.01649     0.04841   5871.79908    7315.7546  1.63891         4014.21014      19.4009  0.01398  58424.58736   0.97436  1.82191   106614.10397  45.70456  18.63005  58441.48763    50.74577       44.37973    8.41624  14.72842   64.5    0.58014  -20.27723   0.6213 
   -1.07518  0.14641    2.2334     14.73492  1.59553  1.47421  10.73294  0.01115     0.08753   6876.97762   9702.77718    4.834         2000.09357     19.13844  0.00764   58428.4131    3.0279  1.57145    25050.46716    47.375  18.84861   58443.7416    50.92312       44.53864    6.41559  14.72842   29.0    0.76578  -20.59889  0.97662 
   -0.37941  0.35021   1.54904     14.99718  1.54089  1.40399   6.90422  0.01612     0.03159   8049.98989   8716.63913   3.9801         2893.52754     20.45002  0.15659  58429.10887    2.6689  2.41794     3478.14143  48.53514  18.73129   58443.7416    50.89907       44.45648    8.41624  17.88379   49.0    0.66975   -20.5297  0.99687 
   -0.26844    0.303    0.7531     14.92296  1.91996   0.6853  10.69653  0.01361      0.0209   6427.45394   6565.60686   4.7954         2103.40308     21.05985  0.63765  58429.21984   2.63602  3.24104     1441.72592  49.63955  18.65719   58443.7416    50.67987       44.29728    5.94347  16.83248   33.0    0.63515  -21.14911   0.9992 
   -0.70813  0.31803   1.24397     14.84894  1.68453  0.97932   6.21416  0.01368     0.18446   5352.50559    4224.6108  2.65149          2082.9321     19.49663  0.01743  58428.78015     1.062   1.9763     4853.19359  48.61968  18.56513  58441.48763    51.08072       44.69547    8.41624  16.83248   63.5    0.71631  -20.40974  0.99707 
   -2.89055  0.37211    6.6537     14.50308  1.58717  1.55391   3.13221  0.01879     0.28401   5757.81961   8333.41743  3.84858         2500.99193     17.30736  0.00011  58426.59773   0.61943  1.16553   643283.16421  45.01494  18.77183  58441.48763    50.98334        44.5538    7.26762  15.87704   43.0    0.70659  -20.43626   0.7631 
   -5.57409  0.21828  10.11772     15.16924  1.81413  0.25697   5.78646  0.01712     0.06327   6762.11622   7898.09549  3.31186         3176.37225     19.52744  0.01871   58423.9142   1.57836  1.26309    79097.93415  45.61918  18.61953  58441.48763    50.64837        44.0665    10.5203   17.4959   45.5    0.58968  -20.41081  0.60934 
    -0.4606  0.23295   2.12701     15.16189   1.5309  1.39015   7.68488  0.01136     0.11468   5116.46466   5541.94289  3.94466         3803.02948     18.76944  0.00327  58429.02768   1.20006  1.79023      3051.6058  48.31372  18.69221  58441.29458    50.62702       44.11023    7.26762  15.87704   60.0     0.5642  -20.26919  0.99612 
   -5.48185  0.42966   2.41702     14.64056  1.56385  1.14972   4.36562  0.03772     0.05017   9041.54511   9645.17557  0.89892         2641.32201     20.36854   0.1298  58424.00644   2.12891  1.87572    44407.49657  47.04902  18.63471  58441.48763    50.73906       44.23934    8.10732  18.19272   36.0    0.54921  -20.40316  0.95092 
   -2.66832  0.18075   4.81373     14.93611   2.1457   1.1466   8.18757  0.01293     0.01537   4281.30103   8291.56503   4.4288         2658.13772      19.2784  0.01055  58426.81996   0.89523  1.47992    61960.87542  46.44333  18.77185   58443.7416    50.98109       44.58732    7.26762   17.9811   46.0    0.54314  -20.26852  0.89598 
   -1.53706  0.35218   3.95437     14.83971  1.60993  0.96398   5.27038  0.02239     0.04298   8524.69633   9290.75805  4.66339         2260.53411     19.85126  0.03944  58427.95122   2.28469  1.85614    48906.07507  46.59214  18.71904  58446.18863    50.69197       44.15572    8.10396  19.77556   33.5    0.69438  -20.53153  0.87319 
   -1.09332  0.32346   1.77172     14.92493  1.78392  1.09372   5.19335   0.0239     0.01562   5462.13541   8009.93578   4.6936         2380.49996     17.63158  0.00024  58428.39496   0.92427  1.67986     7347.02888  48.15732  18.79054   58443.7416    50.89297       44.53458    4.20812  16.83248   21.0    0.75209  -21.00162  0.99383 
   -1.86036   0.2459   1.74997     14.67201  1.42972  0.58592  10.03385  0.01123     0.39564    5218.5911   8974.96763  3.53279         2369.09864     20.99452  0.54859  58427.62792   1.63005   2.4673    18412.31445  47.67292  18.69925  58441.29458    50.76556       44.23389   10.62371  18.93654   31.5    0.63977  -21.03185  0.95979 
   -6.02159  0.14427  12.14977     15.03328  1.73282  0.43973   7.69773  0.01292     0.41568   6940.05802   9826.87133  3.57361         4305.73774     16.64486    2e-05  58423.46669   2.21165  1.11052   203777.02992  45.02931  18.59953   58443.7416    50.84172       44.45976    6.31218  16.83248   28.0    0.73561  -20.63248  0.53484 
   -0.58943  0.26298   1.58102     15.03866  1.71274  1.19045   8.27509  0.02344     0.04506  11518.31673   9746.56719  4.43851         2322.09739     20.18286  0.08464  58428.89885   6.54905  2.17622     3326.98418  48.58261  18.67712   58443.7416    50.93682       44.52374    9.47509  15.87704   19.0    0.93228  -21.49792  0.99715 
   -1.19267  0.35497   2.88256     14.57579  1.50679  1.20331   6.22814  0.01653     0.27741   4719.99016   9399.30891  4.00437         2797.56809     20.88467  0.42599  58428.29561   0.82769  2.21082    82006.46624  46.61349  18.70043  58441.48763    50.69579       44.20546    7.26762  15.87704   28.5    0.64863  -20.93187  0.90345 
   -0.89497  0.28588   3.30188     14.91417  1.90382  0.85823   4.91265  0.02078     0.12291   5852.54151     8104.233  4.33677          2179.0535      19.2679   0.0103  58428.59331   1.00376  1.40442     28617.0185  47.05432  18.66129   58443.7416    51.11098       44.67224    7.73525  19.24883   39.0    0.68689   -20.4238  0.94842 
   -4.39092  0.22699   6.98524     14.69173  1.96618  0.99268   5.61503  0.01381     0.11094   5677.75801   9429.75611  4.08477         2476.51234     20.63585   0.2402  58425.09737   1.07977  1.27458   368417.27188  45.30776  18.66703   58443.7416    50.68378       44.18013    9.47509  19.03241   40.5    0.63023  -20.46708  0.78673 
   -4.01208  0.22488   6.04706     14.87767  2.05614  0.82927   7.56827  0.01138     0.27639   6748.11001   6024.13036  3.99137          2005.4875     19.59766    0.022   58425.4762   2.05583  1.70193    122634.8471   45.9302  18.60779   58443.7416    50.69212       44.27384    7.26762  15.87704   70.0    0.56316  -20.27454  0.80015 
   -2.98672  0.26985   5.19232     14.92526  1.64015  0.61784   9.13796  0.01418     0.13215   7038.95583   9200.06638  4.51434         3195.20055     20.89108  0.43232  58426.50156    2.7008  2.46583    57930.77415   46.2901  18.52749  58441.29458    51.01934       44.67829    5.94347  14.72842   34.0    0.69478  -20.97123  0.73112 
   -1.90809  0.34108   2.92967     14.70818  1.67813  1.08761   5.22012  0.01109     0.17696   4439.86876   5267.85465   3.2515         2202.85842     20.03073  0.05963  58427.58019   0.61383  1.78046    51277.72222  46.85011  18.80089  58441.29458    50.58886       44.04447    9.47509  20.08516   54.0    0.77187  -20.41165  0.93438 
   -7.18331  0.35829    9.8821      14.3843  1.50505  1.56692   3.37671   0.0561     0.44111   9782.35342   8216.47774   4.6671         3561.36615     20.29174  0.10876  58422.30497   1.92756  1.20986  2325217.79253  44.09023  18.83232  58441.48763    50.66088        44.2071    6.89891   17.9811   37.5    0.59626  -20.63203  0.56141 
   -0.31285  0.46869    1.0227     14.98656  1.58257  0.81625   6.58333   0.0154     0.03926   5793.89524   4273.40225  4.34135         2464.85035     20.77238  0.32893  58429.17543    1.3183  3.08552     1635.16778  49.23515  18.70737   58443.7416     51.0863        44.6419    8.41624  16.83248   83.5    0.57146  -20.59659  0.99853 
   -1.10177  0.36013   2.55011     15.06971  1.68996  1.35375   5.61424  0.02528     0.04029   9868.32148   9488.21527  4.68087         2470.92076     17.01329    6e-05  58428.38651   3.26141  2.02183     7402.79752  47.81421  18.68871   58443.7416    50.68904       44.25646    8.41624  16.83248   24.0    0.80166  -20.83283  0.98639 
   -4.31718  0.33572   6.50139     14.83416  1.75539  0.87092   4.69338  0.03009     0.09176   9262.60413    9408.6208  2.01908         3635.63932     20.28753  0.10771  58425.17111   2.40203  1.57568   147873.77218  45.71732  18.79387   58443.7416    50.54599       43.94909   13.19989  25.24872   28.0    0.75238  -20.69645   0.7467 
   -0.99533  0.25484   1.40078      15.0239  1.53855  1.14683   6.62626  0.01444     0.02371   6256.08185   9652.21547  1.89125         4539.38999     16.55435    2e-05  58428.49295   1.54704  1.68866     2511.12416  48.76335  18.75918  58441.29458    50.65445       44.14302    9.47509   17.9811   35.0    0.73016  -20.45544  0.99848 
   -3.37317  0.33694   7.38389     14.80226  1.92531  1.11821   6.59931  0.01354     0.17507   7304.67151   7715.74769  4.61967         2528.49314     20.65866  0.25315  58426.11511   2.10052  2.22354   242306.65543  45.43241  18.72801  58441.48763    50.56242       43.95014   12.62436  22.09171   53.5    0.66712  -20.60208  0.64907 
   -0.43225  0.29796   1.28346     14.86201  1.96936  1.06596  12.23839  0.01655     0.09635   9054.53762   7474.19013   4.7661         2555.38753     21.16593  0.81406  58429.05603   5.98527  3.64657     5687.04922  48.59152  18.65049   58443.7416    50.83734       44.47414    6.31218  14.72842   42.5    0.59076  -21.25733  0.99486 
   -1.02846  0.22379    4.2728     15.03732  1.70738  0.80025   7.09662  0.01708     0.21896   5977.70038   7183.12758  3.55679         3314.20191     18.89363  0.00435  58428.45982   1.51268  1.58812    24373.95024  46.85282  18.74507  58441.48763    50.65509       44.13802    6.89891  19.03241   36.5    0.68075  -20.48649  0.89595 
   -0.82923  0.32737   3.56423     14.95876  1.79061  0.97297   5.20965  0.01892     0.03641   6909.25503   9960.21215   4.6609         2285.49198      17.1417    8e-05  58428.65905   1.48354  1.70548    25540.80816  47.01068   18.7242  58441.48763    50.48374       43.89048   13.19989  25.24872   31.0    0.73102   -20.4057  0.93182 
   -3.92729  0.42801   7.82755     14.87227   1.5114  1.35057    4.3295  0.02915     0.03807    7614.8167   7772.82452  4.21033         3233.21095     17.28738  0.00011  58425.56099   1.49756  1.85308   154850.81566  45.47106  18.54734  58441.29458    50.75135       44.26398   10.37393  17.08226   50.0    0.63995  -20.34281  0.58654 
   -6.01008  0.15507   9.43219     14.88875  1.67528  0.49341   7.64295  0.01348     0.06841   7686.85989   8424.24888  3.10114         3089.48354     18.57358  0.00208   58423.4782   2.69393   1.1852   231007.38763  45.18008  18.53981  58441.48763    50.93845       44.37362   12.72777  19.96824   39.0    0.63796  -20.38421  0.62979 
   -3.88131   0.2412   5.98195     14.64233  1.70804  1.19114   5.19006  0.01752     0.04145   5804.44053   7398.01844  3.85358         2570.05506     18.54359  0.00194  58425.60697   1.04309  1.25185   294670.55266  45.47832   18.7959  58446.18863    50.73636       44.18696    7.26762  20.08516   45.0    0.66578  -20.40543  0.80682 
   -0.57271  0.34049   1.91569     15.08933  1.72045  0.75181   9.28667  0.01274     0.01417   6116.94812   6014.66949  4.52401          2936.3337     20.86619  0.40824  58428.91557    2.0728  3.16204     3885.53328  48.35039  18.75913   58443.7416    50.60723       44.13309    8.10396  18.19608   19.5    0.87711  -21.73566  0.98738 
   -1.37361  0.21236   3.67489      14.7871  1.69477  1.17066   8.37708  0.01089     0.08236   6534.58582   8263.85762  3.17933         3025.65693      20.6967  0.27633  58428.11467   2.13381    1.779    56653.05994  46.61424  18.70902  58441.29458    50.62184        44.2094    7.26762  13.77298   25.5    0.85837  -20.84881  0.90122 
   -4.49643  0.23315   9.71751     15.07718  1.80892  0.91252   7.63117  0.01195     0.43269   6715.01296   9215.72306  4.34862         3001.62684     19.03374    0.006  58424.99185   2.05264  1.77924   111171.61581  45.50516  18.64628  58441.48763    50.52318       43.94682   12.62436   21.0406   50.0    0.63344  -20.17959  0.55364 
   -8.52195  0.27236   7.49008     14.87588  1.79888  0.56981   5.20843  0.01816     0.39195   6003.83954   8209.48889  4.66618         2029.93265     17.18797    9e-05  58420.96633   1.11993  1.41856   165973.02191  45.55484  18.70399  58441.29458    50.56317       43.93394   10.62371   22.0723   65.5    0.42869  -19.98846  0.71604 
   -4.49711  0.28444   8.92297     14.55061  1.45047   0.8962   4.30058  0.01303      0.3393   5417.92158    8793.9047  4.30515         2957.87218      19.5591  0.02013  58424.99117   0.75304  1.22325   849428.09643  44.60021  18.60871   58443.7416    50.68781       44.09576    8.04753   23.0358   44.5    0.63319  -20.34461   0.5968 
   -1.33413  0.37155   0.83197     14.65439  1.35596   0.6919    9.9893  0.01602      0.0201   7340.58267   9632.26516  4.07886         2128.85362     21.08459  0.67502  58428.15415   3.21088  3.71153     4280.41146   48.9294  18.74662   58443.7416      50.627       43.88305   15.46993  31.39492   39.5    0.59475  -21.16142  0.99552 
   -2.95997  0.38927   7.13777     14.90749  1.60203   1.3816   5.50789  0.01442     0.22158     6572.971   8358.57236  4.04738         3250.58183     20.47378  0.16539  58426.52832    1.4195  2.14406   116044.49763  45.70177  18.90941  58441.48763    50.52941       43.98069   12.62436  23.14466   48.0    0.71601   -20.5275  0.62308 
   -3.54741  0.41837   5.26539     14.82902  1.67893  0.69305   3.23263  0.02846       0.143   7314.06794   7855.09761  3.02168         2106.48217     16.20756    1e-05  58425.94087   1.03158  1.35244    94987.12305  46.07335  18.59979  58441.48763    50.66062       44.17405    8.16647  17.08226   48.5    0.62512  -20.25964  0.83096 
     -1.429  0.36838   2.17522     14.91873  1.89331  0.46569   9.08016  0.01244     0.01987   4938.77207   8551.58095  4.17562         2358.85175     21.12052  0.73324  58428.05928   1.32117  3.34492    12094.60134  47.78847  18.81197   58443.7416    50.50499       43.85485   10.68629  24.20224   33.0    0.63285  -21.15994  0.94319 
    -3.7954  0.28727   7.09423     14.85104  1.77767  1.51417   5.63964  0.02378     0.04052   8727.35537   9326.56805  2.97956         3220.59415     19.81381  0.03619  58425.69288   2.56238  1.62012   164969.77425  45.59948  18.84657   58443.7416    51.06269       44.63385    7.26762   17.9811   31.0    0.71139  -20.47762  0.71445 
   -0.89815  0.18821   2.26962     15.04386  1.68683  1.00855  10.60161  0.01166     0.02354   6383.12576   9619.00068  4.70751          2593.5451     19.88347  0.04248  58428.59013   2.57671  1.99535     6592.87627  47.96494   18.8018  58441.48763    50.63774        44.1106    7.26762  19.03241   45.5    0.60935  -20.27057  0.98747 
   -5.59952  0.15528   9.39719     15.01969  1.95323  0.48361   8.72154  0.01081     0.04095   5604.50572   9693.81169  3.72899         2912.01918     18.30408  0.00112  58423.88876   1.63416  1.35432   146278.52873  45.44842   18.8011   58443.7416    50.65402       44.16079   10.37393  17.08226   41.0    0.55251  -20.28055  0.65452 
   -3.51121  0.17782   1.07257     15.10399  1.65689  0.79839  12.88557  0.01008     0.01174   7060.26506   6772.23505  2.55521         2531.20393     18.87254  0.00414  58425.97707   3.83153  2.29126     1096.44292   49.3873  18.58797  58441.48763    50.88972       44.35394    8.41624  17.88379   81.0      0.429  -20.00894   0.9992 
   -5.96476  0.21781  11.16473     14.36581  1.71446  1.28771   3.47512  0.01693     0.27905   6337.54012   9432.60925  3.93599         3667.55004     19.26168  0.01015  58423.52353    0.8326  0.75693  3681419.93579  43.84126  18.55288   58443.7416    50.45708       43.82702   10.68629  24.20224   44.5    0.54753  -20.40485  0.65766 
   -3.53897  0.25493    4.4322     14.65674   1.7531  0.76192    8.5129  0.01068     0.04478   7369.12086   9643.93712  4.97578         2213.55434     20.95215  0.49759  58425.94931   2.75763  2.17021   155372.17607  46.02804  18.79922   58443.7416    50.63037       44.04843   10.31143  19.91225   37.5    0.70561  -20.97091  0.82035 
   -0.15251  0.41629    0.8511     14.98024  1.82539  1.06328   8.13897   0.0148     0.02683      4650.22   7918.39675  4.89551         3133.06453     21.08317  0.67282  58429.33577   1.04989  3.38813     1344.77522  49.54159  18.72163  58441.48763    50.69293        44.2635   10.31143  15.04071   22.5    0.57863  -21.53529  0.99945 
   -0.35035  0.31136   1.09458     14.83369  1.48605  1.20056   8.01236  0.01203     0.01213   3653.07467   8543.43258  3.98478         3406.48626     20.96463  0.51211  58429.13793   0.63783  2.49469     3555.94499  48.81143  18.80617   58443.7416    50.57407       44.04736    12.8876  19.91225   34.5    0.55369  -20.76175  0.99809 
   -4.36673  0.14616   6.15144      14.7117  1.37471  1.25456   9.25812  0.01379     0.06797   4964.66217   7704.42912  3.86329         3625.63201     16.47677    2e-05  58425.12155   1.36122  1.35319   182210.92381  45.56853   18.6634   58443.7416    50.55827       44.04713    8.16647  19.84974   43.5    0.54428  -20.25684  0.72957 
   -3.46923  0.14718   4.56734     15.15421  1.75512   0.4485   8.96093  0.01429     0.16428    4785.4462   7805.77149  3.62425         2991.48691     16.08308    1e-05  58426.01905   1.22412  1.31888    16712.31358  46.97079  18.80426  58446.18863    50.67426       44.15189    6.31218  19.98785   45.5    0.54358  -20.18666  0.88671 
   -1.49928  0.39785   3.52702     14.93451  1.38371  1.04041   5.38563  0.01378     0.02142   6526.26009    6486.8049  3.68514          2798.2235     18.43029   0.0015    58427.989   1.36833   2.1427    21610.09675  46.98042  18.59066  58441.48763    51.24498        44.8119    8.41624  18.93654   65.5    0.68982  -20.32242  0.90451 
   -1.20694  0.37063   3.82593     14.83583  1.80597  1.34798   7.13834  0.01227     0.02368   4863.56847   5327.61588  4.54332         3023.28233     20.82591  0.37208  58428.28134   1.00724  2.64566    52280.95514  46.64174   18.6157  58441.48763     51.1065       44.78677    6.31218  14.72842   31.0    0.71324  -20.90011   0.8676 
   -1.68316  0.37753   1.07283     14.58148   1.5258  1.09287   7.12014  0.01546     0.49984   4735.81233    8978.6987  2.59637         2567.06058     20.92103  0.46319  58427.80513   0.95259  2.68808    11205.25478  48.34186  18.68393  58441.48763    50.69407       44.21529    8.10396  17.14477   26.5    0.65735  -21.04369  0.99376 
    -0.1736  0.44226   1.72874     15.14276  1.52447  1.08169   4.00753  0.02155     0.06327   7133.10613   9105.88512  4.42068         2986.56724     18.92529  0.00468  58429.31468   1.21636  1.77239     2192.10783  48.63564  18.86612  58441.48763     50.7464       44.26012    7.26762  15.87704   27.0     0.8523  -20.62529  0.99772 
   -3.73026  0.30068  12.60874     14.75431  1.57169  1.24746    6.0608   0.0102     0.04898   5743.44318   6238.77566  4.08069         3415.60815     18.06252  0.00064  58425.75802   1.19262  1.82237   719300.07975  44.40696  18.74872  58441.29458    50.66501       44.20888    9.47509  15.87704   56.0    0.68598  -20.41435  0.36068 
   -0.37271  0.18671   2.54444     14.90006  1.42045   1.5663   9.69304  0.01268     0.26812   8170.47414   6117.56222  4.80142         2769.43297     16.79376    3e-05  58429.11557   3.85995  1.80978    13530.15102  47.47878   18.6704  58441.48763    50.63438       44.11951    7.73525  17.14477   46.0    0.72341  -20.44781  0.97601 
   -4.34271  0.24646   7.42608      14.6476  1.58327  1.06554   6.30386   0.0105     0.06481   6155.31679   7928.00194  2.67936         2913.64725     19.09431   0.0069  58425.14557   1.42474  1.55365   410846.80385   45.1132   18.7176  58441.48763    50.54553       43.95038   12.72777  19.96824   52.0    0.64872  -20.34606  0.65948 
   -0.36586  0.32662   1.39656     15.13005  1.92252  1.27674   7.13338  0.04229     0.21328  12711.08928   9771.34992  4.60954         3098.57082     20.66937  0.25948  58429.12242   6.87524  2.32988     1912.94255   48.9809   18.6323  58441.48763    51.14071       44.78052    6.89891  15.87704   28.5    0.60869   -20.7594  0.99885 
   -1.07851  0.25355   2.37033     14.83549  1.58553  0.65459   8.52649  0.01265     0.03558   4825.02598   7123.48313  3.54717         2473.73145     20.60046   0.2214  58428.40977   1.18412  2.16186     17645.5148  47.47277  18.83219   58443.7416    50.93295       44.59852    6.31218  14.72842   40.5    0.62946   -20.6802  0.94909 
   -0.17883  0.14376   0.87626      15.0695  1.57702   0.8345  12.74639  0.01481     0.02608  10868.46784   8578.29394  4.79966         2115.93014     16.76047    3e-05  58429.30945   8.98154  1.83238      816.43311   49.6695   18.6779  58441.48763    50.70381       44.28881    10.5203  14.72842   26.0     0.7545  -20.66819  0.99969 
   -0.66627  0.40329   1.93803     14.73422  1.96922   0.9998   6.59167  0.01396     0.01961   4198.00737   7459.52963  3.86396         2672.68615     21.08112  0.66964  58428.82201   0.69296  2.65838    23355.37823  47.62003   18.7358   58443.7416    50.57265       44.01409   14.72842  19.98765   22.0     0.7669  -21.31816  0.97271 
    -1.2168  0.38459   2.01303     14.85258  1.72094  0.78726   7.98633  0.01234     0.03027   5240.05382   6158.90929  4.04542         2413.40661     20.92552    0.468  58428.27148   1.30812  3.07147    12768.14228  47.79078  18.75962   58443.7416    50.53566       43.87667    10.5203   21.0406   47.0    0.67382  -20.89592   0.9662 
   -0.92519  0.45151    5.3742     14.89894   1.5542  1.49521   4.67684  0.01564     0.13554   4992.47326   9799.60945  4.83784         3491.90998     20.59587  0.21908   58428.5631   0.69536  2.11164    66384.02916  46.17766   18.7077   58443.7416    50.87119       44.52307    8.41624  14.72842   33.0    0.75362   -20.7336  0.76171 
   -2.20932  0.25976   4.83993     15.10529  1.95907   1.1568   7.16549  0.01213     0.08809   6190.66517   7468.32668  2.62908         3612.50802     19.86032  0.04028  58427.27896   1.63813  1.86127    26240.48001  46.77224   18.8106   58443.7416    50.66226       44.17483    8.41624  19.59997   43.5    0.72492  -20.51453  0.89307 
   -0.71296  0.44589   2.41482     15.09334  1.70225  0.74723   5.43769  0.01814     0.03677   5630.41781   7454.89439  3.40217         3275.24556     20.59812  0.22021  58428.77532   1.02831   2.4246      5996.8392  47.95618  18.63907  58441.48763    50.70482       44.31855    7.26762  15.87704   34.0    0.74681  -20.81742  0.97693 
   -0.50372  0.32797   0.81358     14.92548  1.73816  0.68049   7.00935  0.01728     0.01329   4526.08887   6094.21504  4.70101         2157.04782     20.78544  0.33898  58428.98457   0.85655  2.29885     1505.73121  49.51039  18.71514   58443.7416    50.71574       44.30572    7.26762   17.9811   68.5    0.45722  -20.46482  0.99922 
   -0.87927  0.20865      1.66     14.95474   1.6501  1.39811   9.80606  0.01977     0.08879   8792.91681   8771.89753  4.66986         2465.38503      16.0926    1e-05  58428.60902   4.52259  2.04607     5200.65221  48.33008  18.66149   58443.7416    51.10176       44.70035    8.10396  17.14477   43.0    0.55258  -20.38528  0.99578 
   -2.29814  0.15985   1.35183     15.00137  1.70894  0.63159  11.99805   0.0102     0.04437   6642.11487   6405.87774  2.10076         2449.24317     20.43874  0.15257  58427.19015   3.15755  1.91795     2881.69973  48.78008  18.46366  58441.29458     50.4751       43.86952   13.19989  22.09171   55.0    0.63783  -20.46516  0.99616 
   -4.26719  0.48542   7.18031     14.73359  1.96047  1.46363   4.58052  0.01848     0.07855   5132.03016   8168.05997  4.60986         3149.00713     20.90031  0.44161   58425.2211   0.71965  2.22347    320098.1118  45.34364  18.70743   58443.7416      50.671       44.21855    7.26762   17.9811   42.0    0.67088  -20.80573  0.66736 
   -0.68418  0.40718   1.14546     14.91849  1.63728   0.8558   4.76932  0.03157     0.07803   7573.11281   9003.06807  2.94285         2647.27539     20.58387  0.21311   58428.8041   1.63167  1.94195     2903.45376  48.90209  18.64578   58443.7416     50.9088       44.43596    10.5203  16.83248   24.5    0.74052  -20.94728  0.99816 
   -3.70176  0.26592   3.77269     14.83369  1.79408  0.64093   8.87317  0.01533     0.07428   8265.08167   9366.86179  1.80422         3020.44964     20.91248  0.45415  58425.78652   3.61576  2.35952    51002.10225  46.66179  18.70429   58443.7416    50.78097       44.40438    8.10396  15.04071   37.5    0.62235  -20.86109   0.8616 
   -0.43988  0.19777   2.47606     15.00066  1.62767  1.15758  10.64171   0.0107     0.10168   8009.28297   5781.30434  4.08954         2599.83272     18.91835   0.0046  58429.04841   4.07217  2.10466     9238.25424   47.7273   18.8564  58441.48763    50.74716        44.3038   10.31143  17.14477   64.0    0.68285  -20.38849  0.98088 
   -0.22683  0.22841   0.71206     14.96677  1.73074  0.50965  12.72541  0.01034     0.15927   4391.53499   4175.28611  4.95758         2375.13488     21.06026  0.63825  58429.26145   1.46397  2.90657       949.6138   49.8245  18.67528  58441.48763    50.68047       44.21371    6.89891   17.9811   25.0    0.55394  -21.20837  0.99921 
   -4.94681  0.31931   3.55169      15.0057  1.97265  0.57507   7.54439  0.01596     0.06846   8064.03538   9806.41624  1.25032         2942.18476     20.79762  0.34862  58424.54147   2.92655  2.40903    22507.95477  47.11069  18.80562  58441.29458    50.79915       44.38288    8.51965  14.72842   46.5    0.54308  -20.51268  0.89592 
   -1.14998  0.25066    4.5712     14.94204  1.71299  0.52333   4.25873  0.01637     0.27905   4768.67056   7930.11794  4.57966         2349.17295     18.00254  0.00056   58428.3383    0.5777  1.06751    43405.35866    46.545  18.73512   58443.7416    50.79534       44.41598    7.26762  15.87704   27.5    0.79726  -20.48362   0.8962 
    -6.2934  0.19849  10.96593     14.73942  1.84974  0.74827   5.50651  0.02205     0.15727   7588.21596   6923.43168  3.88181         3341.52795     18.91779   0.0046  58423.19488    1.8914  1.09297   685754.31942   44.6197  18.72327  58441.48763    50.81124       44.34687    8.10396  15.04071   42.0    0.61907  -20.46652  0.61181 
   -4.69389   0.1993  10.04332     14.76715   1.5772  0.61075   5.41867  0.01176     0.16388   5930.71956   8606.74265  4.85564         3415.42032     18.40779  0.00142  58424.79439   1.13693  1.07995   431676.90262  44.82782  18.70018  58441.48763    50.98317       44.45258    7.79776  19.84974   33.5    0.75203  -20.58482  0.60013 
   -2.23825  0.17576   4.45359     15.05507  1.81821  1.05333   9.44551  0.02173     0.48364    6807.5064   8009.60429  4.70617         3181.95643      19.1591  0.00801  58427.25003   2.61113  1.66012    25986.49516  46.81632  18.72762  58441.29458    50.80156       44.43847    7.26762  13.77298   41.5      0.529  -20.36183  0.90545 
   -1.19669  0.10427   0.92258     15.04582  1.39876  1.02047  16.21717  0.01671     0.03284  11086.01071   9324.12473   2.8133         3242.43006     17.11442    7e-05  58428.29159  11.88921  1.69093      895.23518  49.53264  18.79004   58443.7416    50.64605       43.99862    8.10396  22.38459   25.5    0.66264  -20.55364   0.9997 
   -4.30892  0.20508   9.39085     15.11927  1.79193  0.33676   6.42817  0.01005     0.04489   6482.42504   7305.64126  3.64795         2890.84502     19.44997  0.01566  58425.17936   1.61135  1.31828    84725.23534  45.64875  19.03504   58443.7416    50.69019       44.13697   13.19989  19.59997   46.5    0.69446   -20.4151  0.63113 
   -2.58979  0.32536    3.9902     14.94811   1.9192  1.16893    5.6564  0.02539     0.13418   7357.70278    6899.9289  4.24397         2364.89939     19.47175  0.01646   58426.8985   1.82663  1.84035    36033.55562  46.79327   18.7869  58446.18863     50.5836       43.93424   10.15159  24.36822   58.5    0.56489  -20.30422  0.91204 
   -2.37411  0.29631    1.8154     14.97882  1.68228  0.32615   8.45672  0.01164      0.0179   4806.93807   5974.89335  3.23053         2105.41414     20.92833  0.47104  58427.11417   1.16564  2.50578     5675.71544  48.22278   18.6325  58441.48763     50.5764       44.01001    10.5203   17.4959   54.5    0.60452  -20.83574  0.96542 
   -0.14036  0.39187   1.21061      14.9305  1.61363  1.17736   6.64125   0.0285     0.40338   7712.22654   7723.64357  4.56563         3032.24573     20.86322  0.40546  58429.34792   2.35633   2.6025     3024.35072  48.83001  18.60212   58443.7416    50.58919       44.04044    8.41624  19.46328   23.5    0.71355  -21.31682  0.99805 
   -4.08181    0.157   7.44128     14.90971  1.71911  0.86842    9.6865  0.01288     0.36074   6078.30502   9255.85711  4.07093         3162.48531     19.53972  0.01925  58425.40647   2.13481  1.52074   133967.60735  45.63385  18.78886  58441.29458    50.59775       44.11088    9.47509   17.9811   38.0    0.60822  -20.32789  0.69399 
   -0.56582   0.3142   1.81965     15.10014  1.84437  0.97016   5.68153  0.02531      0.0458   6150.99429   6608.86434   3.9327         2765.43846      16.1586    1e-05  58428.92246   1.28228  1.78512     3575.65066  48.46136   18.9034  58441.29458     50.7235       44.30571   11.09583  14.72842   17.5    0.82675  -21.83355  0.99612 
   -5.22654  0.23641   2.15748     14.82954  1.68066    0.655   6.82721  0.01829     0.30707   4339.38609   5590.85394  3.46533          2098.5484     19.65806  0.02528  58424.26174   0.76688  1.61402    15926.54568  47.62431   18.6361  58441.48763    50.84073       44.40322    8.16647  17.08226   87.5    0.36345  -19.94613  0.97144 
    -5.7323    0.222   8.46339     14.55329  1.61068  0.98673   4.87777  0.01116     0.04876   5482.82737   7499.19221  4.85153         2563.28549     17.09817    7e-05  58423.75598    0.8747  1.08286   838170.87473  44.69743  18.53112  58441.29458    51.04692       44.63488    8.41624  14.72842   53.0    0.62029  -20.25815  0.68524 
   -0.94288  0.34573   1.12832     14.90018  1.48976  1.16992   5.87302  0.01973     0.03633   7030.94368   6879.34178  4.46254         2190.78736      16.9839    5e-05   58428.5454   1.73187  2.03047     2788.92304  48.89166  18.62244  58441.48763    51.04012       44.56251    8.41624  18.93654   72.5    0.57108  -20.18558  0.99867 
   -3.65835  0.32462   1.20953     14.59216   1.8649  1.44111   9.33869   0.0139     0.02745   6870.35892   6384.06923  1.71061         2423.87902     21.05412  0.62929  58425.82994   2.62949  3.03155     16572.0755  48.15489  18.74963  58441.29458    50.77976       44.47217    6.31218  12.13907   76.0    0.50245  -20.74625   0.9917 
   -0.15548  0.20386   1.24254     15.10087  1.58903  1.16429  10.00294  0.02742     0.05918  13047.08264   8509.63519  4.66002         2712.52425     18.08621  0.00068   58429.3328  10.15738  2.03923      1431.5949  49.12554  18.79239  58441.29458    50.88196       44.58106    6.31218  12.62436   24.5    0.66065  -20.79581  0.99921 
   -3.83617  0.24588   6.12032     14.70881  1.48618  1.47255   5.35924  0.02897     0.33832   6040.66793   8299.01196  4.52645          3164.5286     17.08576    7e-05  58425.65211   1.16654  1.31774   197614.89891  45.57155  18.73986  58446.18863    50.62276       44.08487    8.41624   21.0406   38.5    0.55403  -20.27727   0.7585 
   -4.62585  0.17294   5.09082     14.89338  1.91571  0.97146   9.15223  0.01736     0.08527   7191.19267   7439.61094  2.94395         2830.80011     17.88163  0.00042  58424.86243   2.82329  1.58279    75327.95208  46.26064  18.81506  58441.48763    50.61889       44.11375    9.47509   17.9811   48.0     0.5497  -20.32234  0.85192 
   -0.70719  0.35883   2.78495     14.83676  1.65328  1.30265   3.94647  0.03314     0.49543   7359.80906   6321.47183  2.99559         2804.00649     17.86353  0.00041  58428.78109   1.27517   1.4161    25251.33203  47.19527  18.98467   58443.7416    50.50382       43.83469   10.62371  26.47228   28.5    0.78867   -20.5917  0.96731 
   -0.37101  0.43363   1.76896     14.83501  1.87251  1.04633   6.41807  0.02095     0.30413   9532.59852   8357.94014   4.1936         2243.55019     20.97025  0.51877  58429.11727     3.479  2.78309     11632.2504  47.98017  18.58281  58441.48763    50.79179       44.23984   10.58026  19.59997   33.5    0.84226   -21.1208  0.98493 
   -3.90972  0.29621   5.12342     15.01401  1.83353  1.50514   7.11227  0.01154     0.01014    4644.4418   8572.28967  3.55132         3515.19459     20.42042  0.14627  58425.57856   0.91517  2.10676    41899.16201  46.49081  18.65519   58443.7416    50.54328        43.8741   15.46993  29.29086   61.5    0.55925  -20.29331  0.83893 
   -1.05818  0.33722   4.98789     15.05703  1.98164  1.50819   7.11107  0.01485     0.02996   8124.25265    6661.0702  4.70525         2991.00203     20.52996  0.18823   58428.4301   2.79981  2.39797    35205.22968  46.62343  18.71326   58443.7416    51.13959       44.71829    8.41624  17.88379   49.0    0.73307  -20.70784  0.85282 
   -1.55347  0.14578   4.48063     14.99657  1.59426  1.37248  11.11818  0.01391     0.04342   6262.03703   7669.93608  4.95059         3417.98158     17.78104  0.00034  58427.93481   2.60071   1.6208    30192.85943  46.68882  18.64509  58441.48763    50.55257        44.0805   10.31143  17.14477   44.5    0.57569  -20.31969  0.89707 
   -0.57783  0.47786    0.8341     14.84319    1.652  0.74085    5.9686  0.02029     0.38026   4842.02273   8265.53688  4.27018         2109.35199     20.88787  0.42914  58428.91046   0.83474  2.85217     2197.22582  49.30254  18.86001   58443.7416    50.65246       44.13758    8.10732  19.24547   18.5    0.72411  -22.07719  0.99866 
   -1.04245  0.24389   2.12976     15.10151  1.99666  1.32475   6.66049  0.01942     0.36246    6004.0419   6579.47428  4.92197         2731.88548     19.39281  0.01373  58428.44583   1.43226  1.62444     5269.35194  48.19073  18.79789   58443.7416    50.60341       44.06111   12.62436   21.0406   56.5    0.58292  -20.18517  0.99525 
   -4.64327  0.19182   6.89221     14.63327  1.65312  1.25646   6.79462  0.01733     0.46832   7483.07443   8154.93789  4.13821         2367.23072      18.0795  0.00067  58424.84501   2.26962  1.30337   394732.03885  45.21413  18.85935  58441.48763    50.72574       44.28062    6.41559  18.93654   43.0    0.59073  -20.29605  0.74135 
   -0.58599  0.45048   3.13841       15.018  1.46207  0.53292    7.7724  0.01029     0.05174   5307.25621   8193.89815  4.93375         3096.17246     20.99695  0.55167  58428.90229   1.30594  3.50134    12308.68002  47.35018  18.75612  58441.48763     50.5104        43.8573   12.62436  29.45685   29.0    0.80561  -21.17627   0.8554 
   -1.03798  0.37151   4.89171      15.0194  1.53889  0.97164   3.62599   0.0718     0.43184  10203.48435   9580.69147  4.21201         4013.71678      17.0942    7e-05   58428.4503   2.25191  1.34708    31271.91304  46.58198  18.62203  58441.29458    50.96372       44.58911    9.47509  13.77298   24.5    0.70006  -20.62746  0.87304 
    -5.0365  0.36059   5.34379     14.79217  1.42512  0.95975   5.02274  0.02977     0.22044    7206.0014   5316.00049  2.52437          3182.9129     18.50841  0.00179  58424.45178   1.55581  1.81116    98405.39644  45.97398  18.70817  58441.48763    50.90982       44.36507    8.04753   21.0406   60.5    0.53518  -20.23444  0.74257 
   -3.17933  0.18815   6.71178     15.05384  1.95254  0.52094   7.59534  0.01168     0.08047   6530.17397   7300.59818  4.85904         2305.44434     19.05808  0.00635  58426.30896   1.93208  1.42905    63738.39655  46.10137  18.78168   58443.7416     50.7886       44.26173    8.04753   21.0406   48.0    0.67016  -20.37917  0.78119 
   -6.77019  0.12248   9.14164     14.52356  1.64481  1.03934   8.56686  0.01057     0.04948   7491.47867   9832.15304  1.85943         3472.28182     19.54187  0.01935  58422.71809   2.86803  1.04925  1145149.09261  44.50405  18.76459   58443.7416    50.51349       43.89743   12.72777   21.0406   38.0      0.559  -20.35435  0.66458 
   -0.54166  0.12353   1.28309     14.98246  1.46645  1.13906  13.10754  0.01577     0.02256   8749.06264   9513.20933  3.14267         3274.99929     17.72886   0.0003  58428.94662    5.9851  1.61923     2430.43476  48.83291  18.81171   58443.7416    50.62276       44.08701   10.62371   21.0406   32.5    0.54739  -20.31975  0.99875 
   -2.46799  0.10708   1.43388     15.06851  1.65467  0.82392  15.91773  0.01345     0.28298   8696.20827   9439.19612  2.17112         2846.95745     16.58848    2e-05  58427.02029   7.18072  1.70453     2304.22966  48.81201  18.77534  58441.29458    50.61681       44.16891    7.26762  15.87704   34.5    0.56822   -20.2363   0.9979 
   -0.69883  0.38399   1.22477     14.57291  1.73209   1.0605   9.97633  0.01063     0.06252   3987.67353   7572.94387  4.66392         2417.41938     21.18507  0.85073  58428.78945   0.94632  3.83085    17245.67883  48.09463   18.6359  58441.48763    50.80298       44.30053    8.41624  18.93654   23.0     0.5929  -21.50407  0.98544 
   -0.52923   0.3368   1.16213     14.69824  1.80341  1.51903   9.48729  0.01462     0.03785   8481.89745   9729.43602  4.07759         2018.38127     21.00761  0.56538  58428.95905   4.07151  3.19529     9076.75164   48.4365  18.68962   58443.7416    51.12208       44.72754    6.31218  16.83248   38.0    0.59525  -20.96743  0.99511 
   -0.45952  0.22589   2.95131     15.02941  1.74972  0.96125   8.17435  0.01221     0.26489   6255.97293   5744.74496  4.40101          2674.4278     19.34647  0.01234  58429.02876    1.9084  1.84653    12359.07048   47.4798  18.74246  58441.29458    50.55261       44.07972    6.89891  15.87704   53.0    0.74197  -20.40511  0.96628 
   -5.42439  0.30451  11.30644     14.56396  2.14008  1.03294   1.55137  0.02496     0.15774   4516.51893   7103.90555  3.57991         3208.97462     16.45041    2e-05  58424.06389   0.18878  0.47241  1892206.15614  44.21566   18.8285  58441.48763    50.72822       44.35505    8.51965  14.72842   55.5     0.5204  -20.20788  0.80854 
   -2.29624  0.29253   4.01979      14.7688  1.52074  1.46392   7.30193  0.01184     0.25474   6189.73024   3666.14017  4.08497         2397.95536     20.06912  0.06514  58427.19204   1.66881  2.13603    66171.46603  46.42182  18.74903  58441.29458    50.90728        44.5761    6.31218  12.62436   73.5    0.63521  -20.33048  0.84569 
   -6.84504  0.33231  11.25065     14.80476  1.53591  1.04548   6.90558  0.01598     0.27419   4921.69704   3755.31687   4.1548         3962.32696     20.54086  0.19301  58422.64324   0.99783  2.29482   443627.77338  44.70584  18.74343  58441.29458    50.64689        44.0735   10.26798  17.14477   65.5    0.49295  -20.51233  0.35288 
   -4.37656  0.43603  14.25926     14.71117   1.5983  1.37231   4.10332  0.01056     0.21085   4632.98261   6613.23211   4.3001         3558.49906     18.73769  0.00304  58425.11172   0.52539  1.78915  1141123.70307  44.10698  18.78895  58441.48763     50.5929       44.05071   10.62371  18.93654   56.5    0.67102  -20.40989  0.31457 
   -0.04312  0.19752   0.77254     15.05436  1.69491  1.33876  10.00053  0.01047     0.01264   5524.59139   9940.65996  4.94973         2502.19113     18.82846  0.00374  58429.44516   1.82075  1.97531      731.26614  49.85807  18.79358  58441.48763    50.88665       44.42943    6.89891   17.9811   60.0    0.49062  -19.99085  0.99987 
   -0.94194  0.36264   2.17293     14.63622  1.77338  1.34223   9.49208  0.01273     0.17573   6070.01473   4326.37553  4.42316         2296.57195     21.03877  0.60743  58428.54634   2.08626  3.44225      41520.563  47.22529  18.79896   58443.7416    50.58165       44.11047    7.26762   17.9811   58.5    0.62185  -21.03311  0.94346 
   -1.12154  0.21623     4.401     14.86941   1.7483  0.90691   7.41093  0.01281     0.02024   5312.65975   8759.24322  3.52445         2743.52395     19.58072  0.02116  58428.36674   1.24774  1.60246    57375.14099  46.46564  18.50303  58441.48763    50.64782       44.19508    9.47509  15.87704   37.5    0.68564  -20.47185  0.87263 
   -7.52518  0.17145  10.48504     14.66221  1.77939  0.70297   5.97607  0.01738     0.08582     7285.992   7695.62979  3.78055         3071.19685     17.99029  0.00054   58421.9631   1.89243   1.0246   860624.39917  44.54316  18.50802  58441.48763    50.60619       44.17908    6.31218  16.83248   48.0    0.53053  -20.34152  0.63331 
   -3.43912  0.19639   4.62364     15.01129  1.70308  0.76984   9.16261  0.01079     0.04543   5537.57333   9265.76086  3.66943         2896.45104     19.13758  0.00763  58426.04916   1.67604   1.7994    32094.71366  46.66368  18.76797  58441.29458    50.76828       44.27295   10.31143  15.04071   48.0    0.59558   -20.2355  0.85183 
   -5.35175  0.21687    9.8995     14.82415  1.61656  0.99116   8.13974  0.01074     0.03863   5209.77165   7486.12708  4.07906         3407.32925     17.80065  0.00035  58424.13653   1.31788  1.76525    330628.6474  44.96687  18.63487   58443.7416      51.056       44.60164    8.10396  18.19608   56.5    0.60701  -20.33156  0.49774 
   -0.56908  0.33731    1.6113     14.93786   1.7432  0.88735   5.56153  0.02647     0.14538   8706.30398   9449.45679  3.83244         2112.33463     20.34044  0.12167   58428.9192   2.51472  1.87597     5595.05339  48.34803  18.62988   58443.7416    50.61553       44.07329    8.41624  19.59997   19.0    0.93675    -21.406  0.99417 
   -0.14059  0.37751   1.30108     15.16687  1.79311  0.94711   4.74886  0.02526     0.41195   6232.14603   8147.26133  4.89905         2731.89698      16.0247    1e-05  58429.34769   1.10025  1.79273     1307.03789  49.17756  18.73106  58441.48763    50.68416       44.30274    7.26762  15.87704   21.5    0.79823  -20.86876  0.99921 
   -6.51127  0.15811  11.60064     15.04646  1.68687  0.30031   7.04467  0.01215      0.0402   6496.56896   9669.65547  3.93888         3533.03377     16.15266    1e-05  58422.97701    1.7736  1.11384   170188.56723  45.13603  18.75526  58441.48763    50.49715        43.9353   10.62371   22.0723   37.5    0.61853   -20.3972  0.54537 
   -3.87175  0.39517   6.90369     14.77011  1.90862  1.01327   4.71819  0.02077     0.17801   6704.73122   7702.93242  3.99806          3067.2466     20.71267  0.28668  58425.61653   1.26522   1.8645   243486.58806  45.48493  18.73241  58441.48763    50.55743       44.03134   13.19989  18.93654   37.5    0.72191    -20.827  0.71303 
   -3.84974   0.4383   4.97855     14.80116  1.62323  0.57267   8.30505  0.01503     0.04373   6294.36309   6407.77115  4.37238         3609.56055     21.20425  0.88916  58425.63854   1.96279  3.64013    93343.84111  46.11493  18.66182  58441.48763    50.68142       44.25606   10.31143  17.14477   35.0    0.65461  -21.46597  0.65813 
   -2.59323  0.31754   1.87047     14.99436  1.74426  1.06071   6.82549  0.03515     0.43205   10140.8771   6397.43991  3.96859         2283.60247     20.23368  0.09515  58426.89505   4.18709  2.16737     5815.86754  48.20194  18.72975   58443.7416    50.80112       44.28111    8.41624  19.59997   62.5    0.51727  -20.37445  0.99247 
   -2.23848  0.39908   4.75698     14.99976  2.01294  1.43479   4.62369  0.03211      0.0425   8217.47611   8543.31614  4.93919         2470.03604     16.94926    5e-05   58427.2498   1.86249  1.84523    42344.18285  46.59122   18.5667  58441.29458    50.77875       44.38634    7.26762  13.77298   40.0    0.65824  -20.41319  0.88491 
   -2.50432   0.4133   5.04094     14.64388  1.23116  1.05015   3.96398  0.01564      0.0336   5464.27873   8340.45662  3.35267         2917.46477     17.17407    8e-05  58426.98397   0.70603  1.63831   149760.66244  45.77874  18.88952  58441.29458    50.56728       43.95896   10.31143  19.24883   43.0    0.78019   -20.4025  0.73851 
   -5.76898  0.26909    9.0793     14.62648  1.49267  1.08137   4.62439  0.03016     0.23692   8293.11606   9494.51989   4.5605         3211.03351     16.12469    1e-05   58423.7193   1.89722  1.24439   638136.19926  44.72179  19.02825  58441.29458    50.69297       44.17909   12.62436  16.83248   30.0    0.67856  -20.46025  0.59592 
   -4.23845  0.16985   3.20622     15.00232    1.687  1.22708   8.09658  0.01931     0.20061   4327.12509   8200.46712  3.73325         3594.00954     16.60249    2e-05  58425.24984   0.90433  1.37524    15932.59166  47.28169  18.64594  58441.48763    51.15939       44.78502    6.31218  16.83248   64.5    0.39106  -19.85268   0.9696 
   -5.18569  0.22814    9.4061     14.70313  1.72679  1.05897    5.6631  0.01814     0.03283   5828.23921   8598.71161  4.28583         3148.03618     16.99161    5e-05   58424.3026   1.14751  1.29196    556695.0223  44.81365  18.73022   58443.7416    50.53059       43.98582   12.72777  19.96824   40.5    0.59792  -20.36156  0.62226 
