 texplosion  fnickel    Pspin  log(Bfield)      Mns  thetaPB   mejecta    kappa  kappagamma     vejecta  temperature    alpha  cutoff_wavelength  log(nhhost)      A_V         MJD0  kenergy  mnickel            TSD   log(L0)  Peak_mag     Peak_MJD  log(E_rad)  log(Peak_lum)  Rise_Time    E_fold  tau_1  delta_m15     r_peak     frac 
  -12.52109  0.00902  5.31939     14.20017  1.60005  0.87035   6.53762  0.14581     0.23256  5441.38037   9956.43353  0.53523         3905.11896     19.91514  0.04569  59455.96324  1.15469    0.059  1672361.26105  44.79793  18.26277  59517.80459    50.71727       43.81177   41.93345  55.78037   43.5     0.1563  -20.37046  0.98999 
   -9.19616  0.01113   5.7448     14.43293  1.94638  0.82025   9.60167   0.1391     0.43227  6857.20928   9346.87223  0.17794         2799.05863     17.26258   0.0001  59459.28817   2.6932  0.10686    812312.9996   45.1298  18.23234  59520.62598    50.77783        43.8453    42.7284  58.30623   40.5    0.17682  -20.40681  0.98446 
  -14.56647  0.02824  5.46197      14.1481  1.56015   0.7948   3.55183  0.24944     0.11902  5753.53476    9757.0291  0.38226         2031.47703     18.26041  0.00101  59453.91786  0.70137  0.10032  2185148.26671  44.64783  18.25783  59520.50066    50.66424       43.79765   45.45836  55.57627   46.5    0.16907   -20.3387  0.98132 
  -11.67347  0.00109   6.1367     14.33097  1.79982  0.73131   4.26086  0.21603     0.21695  5802.78188   9634.08611  0.32389         4598.99333     17.14159    8e-05  59456.81086  0.85585  0.00463  1370774.65886  44.81124  18.25928  59517.80459    50.58072       43.74242   50.02778  51.30438   44.0    0.15799  -20.35613  0.99911 
  -11.00555  0.00333  5.89685     14.12139  1.70781  1.11412   4.25744  0.25188      0.0791  7011.71609   9530.65124  0.11713          4093.0715     19.67025    0.026  59457.47878   1.2486  0.01416  3152945.46062  44.46133  18.24601  59520.50066    50.70152       43.82216    42.7284  55.78037   46.0    0.17752  -20.44641  0.99727 
   -14.2301  0.15795   5.7177     14.01584  1.78805  1.24495   5.04419  0.14621     0.01713  6071.38666   9868.51528  0.02816         4586.54584     20.55825   0.2009  59454.25422  1.10916  0.79673  5046124.66693  44.30382  18.28602  59521.33743     50.7677       43.87638   39.27268  58.44114   39.0    0.17324  -20.55933   0.8797 
  -11.11512  0.00143  5.42503     14.20529  1.80513  1.43007   3.48787  0.31612     0.37695  5872.54068   9882.93549  0.05321         5646.02181     19.32801  0.01182   59457.3692  0.71753    0.005  1916694.61742    44.774  18.23942  59521.44346    50.71689        43.8109   42.14477  63.14664   40.0    0.17857  -20.36866  0.99926 
  -14.14471  0.00254  4.28948     13.91977  1.65729  0.53107   2.74348  0.21745     0.02281  6667.68194   9922.09296  0.01291         3279.92841     20.74942    0.312  59454.33962  0.72758  0.00697   4097107.4965  44.61096   18.2475  59520.50066    50.75364       43.81973   44.74167  58.30623   40.5    0.19073  -20.72431  0.99919 
  -17.68213  0.10577  5.12609     13.91881  1.37478  0.97806   4.57777  0.16858     0.01353   5161.3778   9885.76294  0.13125         4688.94348      17.9577   0.0005  59450.80219  0.72747  0.48419  4875202.34187  44.29951  18.25199  59517.42325    50.71986         43.837   40.41385  55.56904   40.5     0.1661  -20.30748  0.90947 
  -10.80576  0.08655  5.56468     14.40948  1.61763  0.68506   9.94142  0.09927     0.04803  5799.78938   9463.15834  0.56245         2924.69766     17.14207    8e-05  59457.67856   1.9948  0.86046   705697.01886  45.13822  18.22689  59520.50066    50.60804       43.75308   50.81484  53.04318   44.0    0.14719  -20.29938  0.86392 
  -11.70618  0.00359  4.51318     14.31709  1.63419   0.7688    5.5052  0.25428     0.12456  6518.54837   9502.88137  0.21624         3046.26451      20.2833  0.10667  59456.77814  1.39541  0.01976   717638.72438  45.31728  18.20482  59518.44527    50.60825       43.76003   47.99145  53.04318   39.5    0.15878  -20.48249  0.99767 
  -11.46761  0.10629  5.51993     14.38748  1.57365  0.75916  11.18299   0.1252     0.06139  6581.75315   9275.97875  0.52158         3815.81413     19.46516  0.01621  59457.01672   2.8898  1.18867   747522.60905  45.10826  18.25736  59517.80459    50.73517       43.84766   40.20253  58.30623   50.0     0.1319  -20.36396  0.81782 
  -13.09422  0.00243  4.49444     14.29477  1.38481  0.59882   9.23248  0.12507     0.28836    5229.537   9667.21878  0.44938         4440.72357     17.75542  0.00032  59455.39011  1.50616   0.0224   668369.16752  45.27987  18.24116  59518.44527    50.71503       43.82177   43.74549  58.30623   45.0    0.13288  -20.31471  0.99662 
  -11.39487  0.02862  5.00072     14.12281   1.4715  1.01184   5.13735  0.24737     0.22162  6666.07739   9294.41508  0.05561         3287.35451     18.75601  0.00317  59457.08946  1.36178  0.14705  1940974.22575  44.75052   18.2396  59520.50066    50.66876       43.82364   43.95681  53.50836   44.5    0.16243  -20.39853  0.97541 
  -14.26017   0.0026  4.93764     13.94441  1.43072  1.30894   5.42929  0.19385     0.02762  6087.14393   9689.77687  0.04641         5938.75414     19.82635  0.03725  59454.22416  1.20004  0.01414  4183931.19434  44.41578  18.29909  59517.44035    50.71529       43.80402   40.06762  56.38045   45.5     0.1641  -20.41703  0.99751 
  -11.80156   0.0043   4.4287     14.67045  1.29693  0.20784   5.03456  0.27022     0.11058  6597.69745   9178.48858  0.60589         2115.80329     16.28007    1e-05  59456.68276  1.30729  0.02164    107741.7785  46.05683  18.25096  59517.42325     50.8669       44.02433   35.36212  47.99145   44.0    0.15631  -20.37581   0.9965 
  -15.02932  0.26062  5.57766     13.77279  1.76659  1.45603   2.91175  0.19517     0.01813  6117.05669   9750.75144  0.06165         2075.37502     20.05187   0.0626  59453.45501  0.64993  0.75885  14530605.5036  43.86079  18.25272  59520.50066     50.7176         43.812    42.7284  55.78037   40.5    0.19495  -20.44445  0.88097 
  -10.82887  0.00705  6.30946     14.19476  1.80784  1.09941  16.11503  0.04555     0.39453  5921.31232   9748.26013  0.17679         4631.96344      18.2606  0.00101  59457.65545   3.3705  0.11356  2725524.50467  44.49057  18.27325  59518.44527    50.75425       43.82157   41.93345  58.30623   42.0    0.18309  -20.35467  0.97755 
  -16.17682  0.00124  4.29752     13.86394  1.27245  1.29394   6.56125  0.15369     0.14309  5861.81749   9701.71683  0.29734          2441.0662     20.33855  0.12114  59452.30751  1.34486  0.00813  4083232.87674  44.49605  18.26741  59518.44527    50.75362       43.87737   39.27268  53.67831   46.0    0.14975  -20.44968  0.99871 
  -11.96282  0.02787   5.9071     14.42785  1.67846  0.54857   7.29161  0.12455     0.04872  6318.95981   9287.53315  0.13341         4280.19426     16.23403    1e-05  59456.52151  1.73677  0.20322    758168.5886  45.07124  18.28376  59520.50066    50.65905       43.78748   47.47163  55.57627   42.0    0.17288  -20.35531  0.96154 
  -10.13701  0.01184  5.29645     14.27034  1.74346  1.06772   9.91149  0.12014     0.15294  6171.34186   9461.28073  0.76779         2315.76014     19.44969  0.01565  59458.34732  2.25178  0.11735  1307713.00528  44.94577  18.21301  59517.80459    50.67083       43.81094   35.84832  53.67831   40.0    0.16023  -20.36165   0.9829 
  -11.07059  0.17907  5.38186     14.41088  1.65502  0.70668   7.86474  0.15913     0.01639   6379.1147   9327.03976  0.23787         2011.11505     19.68315  0.02678  59457.41374  1.90912  1.40836   671011.31736  45.19905  18.18275  59516.51733    50.62325       43.79786   41.93345  51.01754   41.5    0.15124   -20.4142  0.81121 
  -10.34737  0.00224  5.88771     14.34529  1.65512  0.58561   2.91316   0.3279      0.0976  6619.80418   9716.01891  0.47059         2935.39035      17.5114  0.00018  59458.13696  0.76152  0.00652  1086333.31199  44.91182  18.24713  59517.80459    50.81086       43.93016   40.06762  53.38941   43.5    0.18491  -20.38149  0.99869 
    -10.362  0.11437  6.45315     14.43363  1.89312   0.7912   7.02797  0.14575     0.16265  5999.02161   9616.74478  0.36636         3583.27769     16.84982    4e-05  59458.12233  1.50875  0.80382   993744.24089  44.92921  18.24131  59516.51733    50.62757       43.74587   47.20438  58.88198   43.0    0.15618  -20.33228  0.86449 
  -14.25703   0.0135  6.23901      14.1274  2.10856  0.93619    3.1271  0.25644     0.03023  6427.01534   9849.50307  0.22143         3252.77008     20.53351  0.18977   59454.2273  0.77053  0.04222  4238776.62449  44.37536  18.24836   59514.9832    50.71402        43.8843   35.70922  50.17021   40.5     0.1889  -20.58804  0.99323 
  -12.63503  0.12446  5.88573     14.07937  1.62748  1.31852    5.0049  0.16414     0.03734  6019.77814     9723.883  0.10268         2645.25827     18.63318  0.00239   59455.8493  1.08189  0.62293  3632444.30038  44.38056  18.20613  59520.50066    50.70718       43.85091   47.47163  53.05041   44.0     0.1707  -20.37516  0.88613 
   -12.1768  0.00227  5.44186     14.37255  1.89637  0.64234  11.06847  0.08354     0.02485  5818.33011   9803.79895  0.43992         3432.92377     20.55588   0.1998  59456.30753  2.23518  0.02512   937849.24209  45.10314  18.22822   59514.9832    50.68712        43.8625   39.27268  53.38941   43.5    0.14807  -20.53855  0.99652 
  -11.21405  0.00413  5.76551     14.06004  1.65048    1.518   3.05209  0.28338     0.07079   6606.0422   9476.11189  0.10185         2729.68282     19.27077  0.01036  59457.27028  0.79453  0.01259  3863880.41227  44.37776  18.22184  59520.50066    50.72902       43.86805   37.88799  53.33209   40.5    0.19028  -20.41524  0.99756 
  -15.03801  0.00905  5.76759     14.26237  1.95139  1.26242  16.53174  0.07305     0.04668   5574.0555   9529.37473  0.24689          2353.6838      17.0082    6e-05  59453.44632    3.064  0.14962  1800559.83497  44.78179  18.27986  59517.42325    50.63236       43.75784   42.93249  55.57627   44.0     0.1398  -20.31637  0.97821 
  -13.41556  0.11982  5.64558     14.09669  1.69489  1.34476   3.27257  0.27999     0.40217  6055.07096   9749.85386  0.29043         2377.71365     20.08155  0.06703  59455.06877  0.71574  0.39213  3213570.07753  44.48758   18.2269  59520.50066    50.71405       43.82162   41.93345  53.71968   44.0    0.17198  -20.42895  0.93475 
  -12.71344   0.2933  6.06964     14.58324  1.77684  0.55015   7.43387  0.12706     0.01177  5599.60937   9665.77381   0.0374          3959.3637     19.47381  0.01654  59455.77089  1.39046  2.18039   414289.78429  45.33486  18.19928  59516.51733    50.61115        43.7763   48.03727  50.47149   41.5    0.15105  -20.35165  0.70827 
  -16.30445   0.0308   6.5047     14.19423  2.02175  1.32695    7.0051  0.13544     0.04614  5257.61155   9719.40941  0.09158         5038.31641     19.03107  0.00597  59452.17988   1.1551  0.21576   3247478.4044  44.43657  18.27051  59520.50066    50.74379       43.80906   42.93972  58.09491   48.0    0.14425  -20.31314  0.96223 
  -12.80962  0.00529  6.19586     14.05448  1.76417  1.47005  14.72613  0.04643     0.14648  5809.78691    9728.1458  0.38917          2172.3936     18.28552  0.00107  59455.67471  2.96508   0.0779  4893352.34447  44.24158  18.24869  59520.50066    50.69966       43.81013    39.6189  58.09491   45.5    0.16863  -20.33396  0.98432 
  -11.89792  0.04666  6.92414     14.28809  1.83713  1.12351  22.36911  0.04146     0.01545   5615.7004    9449.0218  0.45868         4136.03166     19.29684    0.011  59456.58641  4.20808  1.04366  2170194.26357  44.51576  18.24097  59516.51733    50.70166       43.82049   37.88799  53.04318   51.0    0.13901  -20.30391  0.80224 
  -12.17631  0.03531  4.57268     14.13487  1.72959  1.51618   7.77783   0.1467     0.22636  6273.09337   9681.05438  0.43588         3012.09505     20.72491  0.29487  59456.30801  1.82578  0.27462  1804503.46447  44.93009  18.20292   59514.9832    50.72255       43.83193   41.93345  53.71968   42.0    0.14549  -20.62971  0.97018 
  -18.63969  0.09792  5.30275     14.25973  1.59142  0.44886   3.59662  0.32008     0.02023  5670.64319   9976.27231  0.08609          2090.7022      18.4558  0.00159  59449.84463   0.6899  0.35218  1256468.09095  44.92248  18.22872  59521.33743    50.69641       43.82414   35.84832  56.38045   47.0    0.18903  -20.35207   0.9414 
  -11.10695  0.01847  5.60317     14.42683  1.83892  0.68928   8.04245  0.13375      0.3421  5504.27073   9958.12956  0.14697          5223.8796     16.52768    2e-05  59457.37738   1.4535  0.14851   750919.05975  45.16095  18.20516  59520.50066    50.74728       43.90503   41.43094  53.33209   40.0    0.16791  -20.32462  0.97772 
  -12.35997  0.00827  5.84507     14.23157  1.77175  0.87722  15.44177  0.06676     0.01563  6020.06016   9918.82518  0.20015         4095.62869     19.86214  0.04045  59456.12435   3.3383  0.12771  1934930.61112    44.697   18.2354  59520.62598    50.72119       43.81534   41.93345  58.30623   45.5    0.17495  -20.40139  0.97771 
  -14.35654   0.0011   5.9065     13.91679  1.68554   1.5407   2.91035  0.33928     0.03534  6870.67292   8991.75072  0.45765         2127.17426     19.29587  0.01098  59454.12779  0.81954  0.00319  8010169.14562  44.04928   18.2842  59517.44035    50.82447       43.92555   35.36212  58.09491   43.5      0.164  -20.41675  0.99935 
  -12.44855  0.00501  5.87527      14.3379  1.65502  0.56174   6.15223  0.15195     0.24068  6328.45395   9589.42504  0.47903         2563.33239     18.14487  0.00078  59456.03578  1.46979  0.03084  1119084.30518  44.90073  18.20901  59517.80459    50.81924        43.9707   37.54176  50.86354   44.5    0.17595  -20.36111  0.99385 
  -12.81417  0.00123  5.88566     14.56454   1.8435  0.43054   5.02926  0.19442     0.27209  5612.73734   9808.22903  0.13468          5196.5297     17.68703  0.00027  59455.67016  0.94511  0.00618   440528.15926  45.35092  18.19681  59518.44527    50.68845       43.79527   42.14477  58.09491   41.0    0.16054  -20.33964  0.99895 
  -10.90327  0.00705  6.19423     14.36658  1.89808   0.8522   3.33768  0.32393     0.06254  5663.66076    9659.5609  0.57886         4600.56594     18.06117  0.00064  59457.58106  0.63866  0.02353  1250094.23497  44.86624  18.22166  59520.50066    50.74879       43.83424    42.7284  55.78037   42.0    0.14633  -20.35535   0.9958 
  -11.11227  0.01214  4.29012      14.1312  1.40732   1.0164   5.55005  0.23919     0.04675  6195.99127     9727.392  0.81628         2193.05568     17.43361  0.00015  59457.37206    1.271  0.06739  1314471.46785  45.03355  18.21042  59518.44527    50.83521         43.936   35.84832  55.91527   41.5    0.16564  -20.39596  0.99105 
   -9.59423  0.24711  4.30757     14.42965  1.48565  0.63703    3.6026  0.31856     0.24726  5985.17982   9758.18597  0.23184         3155.29406     18.76945  0.00327   59458.8901  0.76983  0.89024   353914.26723   45.6234  18.21975   59514.9832    50.66946       43.82261   37.54176  53.67831   40.0    0.16639  -20.35631  0.90076 
  -11.82104  0.02368  5.39378     14.16793  1.84152  1.21487   4.37541  0.21536     0.15883  6314.62695   9611.96386  0.28458         2825.68438     20.51609  0.18231  59456.66328  1.04074  0.10361  2295674.12441  44.70933  18.25345  59517.80459    50.69888       43.82345   40.41385  55.56904   41.5    0.16233  -20.55282  0.98543 
  -14.30097  0.00263  5.70904     14.18624  1.76508  0.71832    2.1384  0.33292     0.03337  5809.78857   9550.84397  0.08198         5799.98464     20.34054  0.12169  59454.18336  0.43056  0.00562  2265848.33031  44.64725  18.26393  59517.44035    50.70686       43.80209   47.78013   60.8321   38.0    0.17381  -20.45778  0.99902 
  -13.03449  0.01903  5.71532     14.09449  1.63553  1.07247  15.20634  0.04243     0.19142  5334.23595    9970.4814  0.08286         4945.67665     18.80907  0.00358  59455.44984  2.58105  0.28942  3210507.76737  44.46185  18.23996  59520.50066    50.72203       43.85337   48.28175  55.57627   46.0    0.15753  -20.32736  0.94697 
  -10.24718  0.03764  5.51166     14.47204  1.81519  0.61866   4.48278  0.23847     0.15713  6569.79642   9199.68619  0.03711         4967.15556     20.06309  0.06424  59458.23714  1.15419  0.16873   582408.50761  45.27997  18.22795  59516.51733    50.66495       43.78135   42.93249  58.10214   39.5    0.17781  -20.42929  0.97513 
  -10.73737  0.09538  4.92149     14.30178  1.64883  1.13282  10.63269  0.10211     0.04091  6084.74414    9367.1784  0.04516          2102.1728     19.70143  0.02794  59457.74696  2.34831  1.01419   923898.60244   45.1362  18.21594  59518.44527    50.68016       43.81493   40.41385  58.09491   41.5    0.15851  -20.35766  0.87691 
  -12.63038  0.02645  6.72644     14.12563  1.82741  1.39178   9.69357  0.08087     0.03043  5683.01157   9823.42426  0.38662         3745.39207     16.13126    1e-05  59455.85395  1.86753  0.25644  4304910.19206  44.24115   18.2365  59518.44527    50.65338       43.80623   36.19454  55.56904   47.0    0.16665  -20.29346   0.9448 
  -11.27489   0.1497  5.14596     14.47298  1.69085   0.4025   4.32491  0.19642     0.07484  6446.64223    9987.8363  0.24898         2205.09375     20.63671  0.24068  59457.20944  1.07219  0.64745    470860.6029  45.40112  18.20563  59520.50066    50.70977       43.81358   42.14477  58.09491   41.0    0.18523  -20.61167  0.91252 
  -14.19729  0.36045  6.31853     14.30847  1.86005  0.52647   3.76639   0.2791     0.01313  6449.67419   9533.35373  0.48969         2455.00388     19.89606  0.04373  59454.28703  0.93461  1.35759  1665829.17272  44.71551  18.26073  59517.44035    50.80769       43.88076   39.27268  58.44114   37.0    0.19575  -20.45924  0.78707 
   -11.9663  0.00261  5.96476     14.01059  1.59292  1.48987    3.6349   0.2327     0.04065  5631.66468   9815.67249  0.57689         4932.87916     17.91306  0.00045  59456.51803  0.68769  0.00949  5012104.54374  44.21983  18.20222  59518.44527    50.70497       43.85391   37.88799  53.04318   46.5    0.15055  -20.37608  0.99791 
   -13.5303  0.26331   5.3265     14.21113  1.68562  1.40093   4.90743  0.32287     0.01142  5301.24651   9661.54072  0.93132         3796.29643      19.5583  0.02009  59454.95402  0.82269  1.29219  1679538.14122  44.81753  18.26832  59516.51733    50.67847       43.84073   40.06762  53.67831   41.5    0.13257  -20.33187  0.83074 
  -12.71124  0.00123  6.16171     14.04598  1.77977  1.24562   4.92023  0.13645     0.02291    5879.896    9516.6982  0.19603         3998.51643     19.68505   0.0269  59455.77309  1.01473  0.00604  5077081.21625  44.23419   18.2554  59518.44527    50.69158       43.84274   40.41385  53.33209   42.0    0.15903  -20.38646  0.99879 
  -14.78835  0.00179  6.07909     14.09611  1.77375  0.75527   3.86344  0.16663     0.02019  5629.74451   9763.35731  0.21225         4060.60935     16.35546    1e-05  59453.69598  0.73043  0.00692   3909904.9223  44.35789  18.23573  59521.33743    50.65859       43.77628   42.93972  60.62078   42.0    0.16845  -20.35969  0.99862 
  -13.01886  0.00908  4.87109     14.12439  1.52501  1.31536   6.17856   0.1742     0.04315  5750.81157   9272.69228  0.10711          5584.2613     17.05233    6e-05  59455.46547  1.21891  0.05608  1894774.95522  44.79931  18.26597  59516.51733    50.64445       43.75226   41.93345  55.78037   42.0    0.15157  -20.34026  0.99146 
  -23.36088  0.00809  5.94088     14.04062  1.98758  0.85881   5.73017  0.16994     0.01069   4985.3518   9862.82886  0.43921         2402.38148     19.74985  0.03123  59445.12345  0.84954  0.04636  5402489.53944  44.28688  18.27151  59517.80459     50.9135        44.0933   30.52418  48.61008   49.5     0.1514  -20.33395  0.99248 
  -14.02899  0.08783  4.89651     14.23812  1.29925  0.55991   4.92053  0.21216      0.4332  6196.02734   8850.49061  0.00925         4748.75458     16.33945    1e-05  59454.45534  1.12685  0.43215   966135.37288  45.01773  18.23905  59520.62598    50.68957       43.80715   37.88799  60.62078   48.0     0.1432  -20.33429  0.92084 
  -13.87871  0.00413  5.87926     14.29326  1.99404  1.09316   7.63212  0.14149     0.25486  5651.76132   9953.96017  0.03648         3612.18209     18.08265  0.00067  59454.60562  1.45425  0.03152  1658352.88051  44.81026  18.24548  59517.80459    50.88358       44.00918   35.79587  52.60943   41.5    0.17181  -20.34505  0.99529 
  -11.09258  0.44224  5.52432      14.3772  1.75175   1.1924   4.20513  0.24207     0.08419   6015.0493   9768.63854  0.07939         2921.54372     19.34797  0.01238  59457.39175  0.90758  1.85968   873863.52391  45.08632  18.20158  59517.80459    50.64379       43.79469   46.48267  53.04318   45.5    0.16641  -20.35256  0.77165 
  -13.25317  0.00659  6.77139     14.22896  1.98854  1.00186  17.20572   0.0458     0.18484  5682.17022    9624.3667  0.15215         3801.05633     19.08042  0.00669  59455.23116  3.31382  0.11347  2949765.82105  44.43624  18.24695  59518.44527    50.72011       43.85351   44.74167  55.78037   47.0    0.16156  -20.32381  0.97747 
  -10.92832  0.02337  5.26437     14.58393  1.79008  0.49861  10.50837  0.11675     0.02093  6198.28363   9271.57575  0.07345         4662.17241     18.42879  0.00149  59457.55601  2.40827  0.24559   312978.08093  45.58351  18.21449  59518.44527    50.62495       43.79915   45.45836  48.28758   39.5    0.15822  -20.35436  0.96668 
  -14.16052  0.16048  5.32058     14.54043  2.00892  0.55264   6.19429   0.1461     0.06301  5332.41333   9994.17651  0.04036          5923.6105     20.48253  0.16875  59454.32381  1.05067  0.99408   438367.71223  45.47805  18.26897  59516.51733    50.68089       43.80435   37.88799  56.03423   44.5    0.13473  -20.48341  0.89269 
  -15.29291  0.01266  4.17556     13.92567  1.14639  0.54796   7.45134   0.0938      0.0105  5854.26617   9910.91055   0.1307         2856.29576     20.10043  0.07001  59453.19141  1.52337  0.09435  2613609.93696  44.66951  18.26347  59517.80459    50.67111       43.82522   41.43094  55.56904   41.0    0.18123  -20.43303  0.98319 
   -11.2151  0.03841  5.34003     14.16373  1.46403  0.87993   9.89642  0.08639     0.06364   5670.6414   9075.10548  0.27138         4857.50358     17.87639  0.00042  59457.26923  1.89832  0.38014  1823886.94065  44.71831  18.27809  59518.44527    50.77222       43.84416   42.42713  58.09491   48.0    0.14402  -20.34985  0.93014 
  -11.35107  0.03102  4.04447     14.36228  1.80647  1.43772  14.21713  0.09724     0.14915  5591.14108   9865.67954  0.38207         3570.01379     16.67463    3e-05  59457.13326  2.65118  0.44108   517385.32417  45.59814  18.25062  59521.44346    50.73416       43.82019   43.74549  58.30623   40.0    0.14847  -20.31851  0.96554 
  -13.00766  0.03971  5.90028     14.40583  1.63009  0.33052   5.40761  0.18878     0.01673  7177.33127   8940.49687  0.09603         3041.33836     17.45522  0.00016  59455.47667  1.66172  0.21473   813026.54221  45.02921  18.23417  59518.44527    50.69968       43.86107    39.6189  53.33209   40.5    0.17873  -20.42421  0.95629 
  -14.98245  0.00262  4.35797     14.03348  1.22156  0.76424   8.16691  0.12791     0.01329  5698.33994   9594.37524  0.30732         2065.89961      17.0754    7e-05  59453.50188  1.58191  0.02143  1846423.51574  44.81086  18.22266  59517.80459    50.72332       43.84721   37.88799  53.04318   39.5     0.1681  -20.32873  0.99631 
  -13.40414  0.01061  4.71151     14.05633  1.73055  1.43384   7.27599  0.09193     0.06466  5423.92263    9961.7525  0.16073          4063.8593     20.73215  0.29983  59455.08019  1.27687  0.07718  2752045.41685  44.72105  18.23313  59520.50066    50.84404       43.98303   39.27268  50.86354   45.5    0.14473  -20.58475  0.99085 
   -11.6626  0.10184  5.81242     14.18264  1.66101  1.09013   6.76377  0.12732      0.0214  5461.27954   9925.81271  0.13381         5903.27102     17.34838  0.00012  59456.82173  1.20339  0.68883  2247097.97445  44.60888  18.26361  59517.42325    50.76471        43.8624   37.54176  55.91527   41.5    0.15909  -20.34548   0.8823 
  -13.54884  0.01379  5.30568     13.98737  1.60703  1.09328   5.07442  0.12959     0.01701  5598.04218   9680.78441  0.27056         4689.38457      20.4019  0.14016  59454.93549  0.94861  0.06996  4452233.85031  44.37681  18.22699  59516.51733    50.64347       43.75539   40.20253  55.78037   42.0    0.15118  -20.49771  0.98803 
  -11.29404  0.00164  5.48745     14.43191  1.83804  0.64148   5.96113  0.20042     0.16508  6568.45512    9326.8729  0.10841         4277.89433     20.23142  0.09466  59457.19029   1.5342  0.00976   703229.38097  45.20736  18.24113   59514.9832    50.66749       43.86705   35.36212  47.99145   40.5    0.16691  -20.46131  0.99856 
  -12.21769  0.01487  5.45541     14.15098  1.59844  1.04849   3.69067  0.26764     0.04899  5875.30373   8968.41937  0.89571         2325.80723     18.26491  0.00102  59456.26664  0.75997   0.0549  2204013.17658  44.65567  18.26581  59520.50066    50.72683       43.78654   43.95681  60.62078   43.5    0.14494  -20.32572  0.99018 
  -10.57638  0.00501  6.39705     14.34178  1.87081  0.60217   10.1268  0.06858     0.02854  5702.69964   9596.06131  0.67951         4187.62788     20.24744  0.09821  59457.90795  1.96454  0.05076  1473139.47785  44.76067  18.22216  59517.42325    50.71243       43.83074   40.41385  58.09491   49.0    0.15246  -20.45988  0.98999 
  -14.27647  0.04624  6.34266     14.23353  1.81985   0.9396   9.93928   0.0998     0.12973  5945.51838   9371.40733  0.26608         2878.46994     19.24644   0.0098  59454.20786  2.09586  0.45956  2319169.91953  44.55901  18.27362  59518.44527    50.64851       43.79976   41.93345  53.71968   49.0    0.15123    -20.347  0.91488 
  -12.92907  0.00389  6.62435     14.50829  2.02176  0.48325   4.86691   0.1556     0.03969  5848.76295    9731.2023  0.00963         4702.74388     19.37008  0.01303  59455.55526  0.99313  0.01892   792947.42268  45.03304  18.25276  59520.50066    50.69252       43.81667   40.20253   53.2545   41.5    0.17575  -20.35268  0.99643 
  -15.19044  0.00829  5.70637     14.11686  1.70395  0.50541   6.21177  0.08971     0.01024  5585.73429   9126.28216  0.82489         2119.18186     17.70741  0.00028  59453.29388  1.15612  0.05151  3007984.13043  44.50931  18.21701  59521.44346    50.67741        43.8242   40.20253  55.78037   46.5    0.14449   -20.3177  0.99012 
   -8.37538  0.04531     3.83     15.12271  1.45217  0.12241   7.61532   0.2046     0.24348  6821.85547   8948.22034   0.1326         4397.14783     17.66161  0.00025  59460.10894  2.11407  0.34502    11241.05353  47.21366   18.2181  59516.51733    50.64665       43.79217   40.41385  55.56904   41.0    0.15288  -20.39102  0.96634 
  -11.91486  0.00843  5.96594     14.32966  1.65118  0.52837   3.81292  0.21366     0.02944  6270.95898   9903.23573  0.22488          5768.3174     18.90015  0.00441  59456.56947  0.89444  0.03213   1195772.2196  44.85763  18.26652  59518.44527    50.69389       43.78918   40.20253  55.78037   40.0    0.19295  -20.42662  0.99333 
  -13.49196    0.024  4.60946     14.06929  1.55797  1.17722   3.99857  0.26716     0.34382  6492.46626   9658.22032  0.32381         2170.79439     20.63435  0.23938  59454.99236  1.00543  0.09596  2234099.62398    44.785  18.19274  59518.44527    50.73874       43.89454   43.95681  53.50836   40.5    0.17189  -20.57872  0.98733 
  -12.89512  0.00405  4.94308     14.19025  1.30093  0.30747   3.17206  0.19455     0.02702  5972.55271   9811.43615  0.93801         3444.56576     18.76321  0.00322   59455.5892  0.67498  0.01283  1229035.13316  44.90554  18.22655  59518.44527    50.69523       43.83159    39.6189  58.09491   49.0    0.15569  -20.36149  0.99723 
  -11.74248  0.00643  5.24257     14.28701  1.62885  0.74037   6.40327  0.12278     0.05721  5671.28977   9791.76317  0.13805         5484.91303      20.0184  0.05796  59456.74185  1.22855  0.04119  1108598.20814  44.99686  18.24043  59518.44527    50.77641       43.92329    39.6189  53.33209   40.0    0.17007   -20.3928  0.99339 
  -15.12115  0.00368  5.14053     13.83074   1.5846  1.23071    4.7116  0.15925     0.01675  6102.72603   9713.13323  0.18413         5033.59561     20.42398  0.14747  59453.36318  1.04675  0.01736  8477602.91719  44.11848  18.19741  59517.80459    50.66857       43.82906   40.20253  51.01754   42.0    0.17296  -20.53563  0.99705 
  -11.87536  0.01741  4.21253     13.72558  1.06242  1.10713   4.28925  0.12483     0.02498  5880.58972   9808.25187  0.13381          5354.7751      19.8731  0.04148  59456.60897  0.88481  0.07466  6194896.13027  44.25402  18.27699  59520.62598    50.71268        43.8059   42.42713  60.62078   42.0    0.16862  -20.40324    0.985 
  -11.14355   0.0194  5.25911     14.22068  1.79916    1.243   5.02924   0.2218     0.12478  6154.03628   9756.86234  0.05292         4699.53504     20.08208  0.06711  59457.34078  1.13619  0.09755   1672434.2659  44.85874  18.23359  59518.44527     50.7681       43.85464   40.41385  58.09491   39.0    0.17167  -20.43925  0.98656 
  -10.82258  0.00171  5.45519     14.13166  1.53167  1.01485   7.41108  0.12938     0.02897  5371.41684   9886.42729  1.03657         3988.89728     19.99689  0.05516  59457.66174  1.27552  0.01268  2308234.67894  44.61711  18.25864  59520.62598    50.70137       43.85317   39.27268  55.91527   46.0     0.1434  -20.36219  0.99756 
  -12.52729  0.00873   4.6494     14.24277  1.39707  0.62636   5.22266  0.20736     0.22299  5912.67447   9595.35892  0.13213         3828.87662     17.52669  0.00019  59455.95703  1.08915  0.04558   916820.50972  45.11699  18.28413  59521.44346    50.71736       43.79944   45.55179   60.8321   40.5      0.162  -20.37182  0.99275 
  -13.87735  0.00986  5.58043     14.33444  1.72033  0.50658   4.31694  0.30187     0.01551  6102.53144   9905.99884  0.42185         4134.36541     19.71858  0.02906  59454.60698  0.95901  0.04255  1066314.37497  44.98324  18.26357  59518.44527    50.75745       43.82625   40.41385  58.09491   42.0    0.18184  -20.42401  0.99275 
  -13.01031  0.00109   6.4386      14.1719  1.95433  1.28458   9.01625  0.09223      0.3423    5413.749   9976.18436  0.14621         4603.27575     17.02395    6e-05  59455.47402  1.57634  0.00983   3408789.7257  44.40966  18.30476  59518.44527    50.66867       43.75706   42.14477  63.14664   44.5    0.16248  -20.32349  0.99816 
   -12.6699  0.02752  5.38734     14.20339  1.72805  1.39837   15.7032  0.07317     0.03024  5710.22067   9767.39027  0.12048         4914.67074      17.4342  0.00015  59455.81443  3.05437  0.43211  1825303.45497  44.78232  18.24355  59518.44527    50.84053       43.96431   39.27268  53.38941   43.0    0.16167  -20.34882  0.93699 
  -10.23017  0.01419  5.92349     14.22369  1.68287  0.91165   4.92391  0.14822     0.43016  5530.66932   9291.61318  0.27454         5512.34028     18.11915  0.00073  59458.25416  0.89845  0.06986  1957266.81009  44.65809  18.24395   59514.9832     50.6575       43.80766   39.27268  53.38941   45.0    0.16357  -20.34954  0.98638 
  -12.07348  0.05935  4.61298     14.08918  1.33773   0.8957   8.81532  0.10573      0.0813  6237.68832   8789.66705  0.03637         3377.14185       20.336  0.12043  59456.41085  2.04603  0.52318   1752981.0384  44.82347  18.22832  59516.51733     50.6682        43.7904   52.25611  56.35611   46.0    0.15315  -20.44515  0.91903 
  -12.45459  0.06052   6.0526     14.14935  1.70854  0.97084   5.15373  0.14628      0.4139  5628.86346   9794.86757  0.73217         2094.28191     16.86526    4e-05  59456.02974  0.97407  0.31189  2921683.43596  44.47195  18.26034  59520.50066    50.78376       43.85598   45.55179  58.30623   46.0    0.16569  -20.32251  0.94028 
  -13.45312  0.04706  5.11659      14.2208  1.55617    0.833   6.07982  0.17497     0.15231  5599.51004   9990.77884  0.12279         5979.73637     19.38391  0.01345  59455.03121  1.13715   0.2861  1368500.95541   44.9067  18.21531  59517.80459     50.6952       43.85299   44.74167   53.2545   44.5    0.16365  -20.36029  0.95494 
  -15.26463  0.00199  5.99979      14.0691  1.79887  1.44354   2.51729  0.33845      0.4099  5719.04773   9602.49295  0.02687         5637.00684     19.37655  0.01322   59453.2197  0.49114    0.005  4373995.43258  44.32669  18.19888  59518.44527    50.68701       43.80899   38.50909   53.2545   47.0    0.16067  -20.36384  0.99907 
  -13.68842  0.01759  6.44922     14.25418   2.1507  1.29582  11.16075  0.09609     0.39649  6043.83584   9611.30799  0.17374         3193.15851     20.18245  0.08456  59454.79591   2.4319  0.19626    2576671.675  44.57135  18.25965  59520.50066    50.71563       43.80975   43.74549  58.30623   45.0    0.15597  -20.44866  0.96914 
  -12.77555  0.00366  5.36012      14.4946  1.46468  0.25395  10.52393  0.07152     0.01131  5710.74751   9836.52817  0.99214         2520.92759     19.21745  0.00917  59455.70878  2.04735  0.03849   400600.73994  45.37353  18.23955  59518.44527    50.68293       43.78845   40.20253  55.78037   43.5    0.15568  -20.34875  0.99222 
  -15.98168  0.44071  5.64039     14.22125  1.49663  0.45333   3.72348  0.32574     0.01054   5879.6332   8897.54348  0.59594          3504.8521     17.55952   0.0002  59452.50265  0.76785  1.64096  1596072.99433  44.73829  18.18331  59516.51733    50.67422       43.79878   42.93249  55.57627   42.0    0.16466  -20.34134   0.7334 
  -13.71903   0.0038   5.6964     14.15348  1.72617  1.06678    8.4777  0.11119     0.03555  5781.89374   9533.61862  0.04793         3201.03421     16.08336    1e-05   59454.7653  1.69062   0.0322  2565319.11882  44.58559   18.2281  59520.50066    50.76177       43.92787   43.74549  51.01754   42.5     0.1548  -20.35238  0.99435 
  -11.91382  0.21694  4.36741     14.62522  1.59622  0.38577   4.56865  0.25961     0.12451    5524.122   9642.11943  0.23703         3483.06994     20.25248  0.09936  59456.57051  0.83165  0.99111   158823.89238  45.99057  18.23993  59520.62598    50.71247        43.8336   40.20253   53.2545   45.0    0.12415  -20.40015  0.89816 
  -12.33717  0.05368  5.14422     14.21263  1.66277  1.04786   9.70762  0.13173     0.04145  5800.34931   9749.45552  0.31516         4531.13813     20.13838   0.0764  59456.14716  1.94827  0.52111  1534687.97373  44.88102  18.17378  59520.50066    50.82355       43.98113   43.95681  53.50836   46.0     0.1441  -20.43293  0.92728 
  -13.87707  0.00152   6.4001     14.15907  1.95103  1.41957    2.9452  0.26459      0.1441  5682.16062   9453.04938  0.23497         2572.70498      16.9965    6e-05  59454.60726  0.56724  0.00449  3567094.73142  44.39442  18.28215  59518.44527    50.65189         43.796   45.76311  53.50836   46.5    0.15107  -20.34069  0.99917 
  -11.67907  0.00474   5.2767     14.53283  2.01216  0.47248   8.00855  0.09468     0.16368  5688.38711   9317.55944  0.51431         2452.87062     20.65206  0.24933  59456.80526  1.54582  0.03794   447245.93018  45.47723  18.29433  59517.42325    50.68145        43.8023   37.88799  56.03423   45.0    0.15149   -20.5652  0.99549 
  -16.93723  0.30679  5.53984     14.78884  1.54215  0.14284   4.55027  0.32741       0.012  6139.46661   8623.49378  0.63841         2959.13555     19.13897  0.00765   59451.5471  1.02312  1.39596   116215.10678  45.90471  18.22131  59518.44527    50.72455       43.86135   37.88799  55.56904   43.5    0.14898  -20.38378  0.78114 
  -13.71635  0.00725  5.39394     14.39281  1.75536  0.56048   8.13122  0.20584     0.01085  6362.87489   9460.19543  0.12108         5899.50259     17.62481  0.00023  59454.76798  1.96376  0.05896    776924.2058  45.15902  18.25894  59517.80459    50.66921       43.74207   40.41385  63.14664   43.0    0.16109  -20.40453  0.99103 
  -11.61771  0.00234  5.89391     14.06367  1.71502  1.10876   5.07495  0.13892      0.0702  6059.23153   9782.38266  0.87528         2661.41736     20.23745  0.09598  59456.86661  1.11146  0.01188  4126281.80321  44.34675  18.27482  59518.44527    50.68631       43.77798    42.7284  55.78037   46.5    0.15944  -20.42955  0.99771 
  -14.71214  0.00263  6.17618     14.12843  1.87842  1.34092   4.25857   0.2095     0.08282  5888.97165   9782.60079  0.07735         3762.14699     19.57948   0.0211  59453.77219  0.88099  0.01119  3682897.72543  44.39501  18.21369  59518.44527    50.69328       43.79043   40.41385  58.09491   45.5    0.16736  -20.37566  0.99795 
  -14.38972  0.11648  6.74972     14.40414  1.90619   0.4844   6.97378  0.10426     0.01069  5662.76507   9717.88885  0.03477         4146.86448     18.04778  0.00062  59454.09461  1.33399   0.8123   1253959.6445  44.79216  18.22111  59518.44527    50.67956       43.81086   46.47545  55.57627   39.5    0.18096  -20.35838  0.84961 
  -13.37795   0.0313  6.15663     14.37381  1.91576  0.93452  19.64201  0.05135     0.22478  5553.40768   9354.69188  0.21396         3709.73905     17.54547   0.0002  59455.10638  3.61354  0.61487  1205669.94355  44.89127  18.23394  59520.50066    50.66293       43.77869   40.41385  58.09491   46.0    0.13755  -20.29462  0.90325 
  -12.53398  0.01674  5.18476      14.1625  1.61678  1.02771   3.42217  0.33584      0.3276  6443.70626   9947.60504  0.07802         3126.68211     19.68344   0.0268  59455.95035  0.84762  0.05729  1909541.25994  44.76711  18.23679  59516.51733    50.72568       43.82911   37.88799  53.04318   44.0    0.19578  -20.42011  0.99091 
   -9.90295  0.02011  4.11017     14.48204  1.67726  0.64713  10.36761  0.14725     0.09634  5992.85727   9696.34561  0.11817         4974.54014      16.1871    1e-05  59458.58138  2.22113  0.20854   285788.94123  45.80968  18.24272  59517.80459    50.63961       43.78681   48.28175  53.05041   40.0    0.15859  -20.36917  0.98083 
  -14.95111   0.1474  5.33577     14.22117  1.93013   1.2883   3.77851  0.32006       0.033  6086.03675   9674.62131  0.22938         2046.45616       20.409  0.14247  59453.53322  0.83487  0.55695  1842698.27869  44.83458  18.26879  59520.50066    50.70691       43.81133   40.20253  55.78037   38.0    0.16164  -20.52369   0.9327 
  -12.18959  0.03795  5.27992     14.19995  1.70592   1.3413  14.20154  0.08601      0.0598   5903.0134   9845.47604  0.21884         3031.08085     18.81916  0.00366  59456.29474  2.95196  0.53895  1758421.38049  44.81043  18.20852  59518.44527    50.61853       43.76078   48.22147  53.83024   44.0    0.16351  -20.36509  0.92412 
   -9.31119     0.29   4.2827     14.39294  2.02826  1.08849   4.78385  0.19101     0.12239  5884.56157   9685.14047  0.29107         2942.44228     20.80033  0.35079  59459.17313  0.98817  1.38733   565568.83582  45.56005  18.27104  59518.44527    50.70845       43.78342   41.43094  60.62078   42.0    0.14689  -20.63946  0.90398 
  -10.57458  0.32639  6.23396     14.44241  1.87403  0.98995   5.42074  0.20172     0.03548  6014.50942   9517.78792  0.14047         4876.09594     16.46811    2e-05  59457.90975  1.16973  1.76928   881658.24393  45.00679  18.24801  59520.50066    50.73351       43.83462   40.41385  56.03423   45.5    0.14953  -20.36163  0.75478 
  -10.96936  0.05451   5.3489     14.11238  1.85334  1.32276   5.87369  0.11476     0.35509    5792.371   9992.91695  0.29936         3117.96574     20.66325  0.25584  59457.51497  1.17558  0.32016  2934536.22664  44.61273    18.256  59518.44527    50.73599       43.85039   35.36212  58.56009   44.0    0.15222  -20.57975  0.95721 
  -14.32836  0.26874  4.97035     13.79059  1.38831  0.85643   3.15303  0.24293     0.01858  6391.77558   9508.06567  0.14304         3077.99883     19.41815  0.01455  59454.15597  0.76842  0.84733  8353890.83342  44.09667  18.28091  59520.50066    50.74312       43.80217    42.7284  58.30623   42.5    0.19184  -20.41701  0.85486 
   -15.1823   0.0019  5.13459     13.96788  1.50366  0.84065  10.47952  0.06726      0.0109   5983.3072   9990.61464  0.04843         3844.84058     20.27067  0.10361  59453.30203  2.23795  0.01995  4267842.20447  44.39478  18.24641  59518.44527    50.65113       43.81653   37.54176  53.38941   44.5    0.18311    -20.447   0.9964 
  -13.01815  0.00162  6.03497     14.61605  1.77264  0.20114    5.9287  0.12211     0.01183  6414.24165   8923.08746  0.25504         2138.54791     18.73412  0.00301  59455.46617  1.45505  0.00962   351305.70393  45.41043  18.26074  59520.50066    50.84128       43.97199   37.56086  54.38739   40.5    0.18281  -20.39446   0.9981 
  -10.93316  0.03219  6.63045     14.16631   1.8195  1.17968   6.17713  0.10387     0.05924  5457.74298   9730.77221  0.38427         4504.96149     18.45849   0.0016  59457.55117  1.09759  0.19882  3453350.06747  44.34747  18.23103  59518.44527    50.69732       43.84895   44.95299  53.50836   47.5    0.16445  -20.31599   0.9577 
  -14.83324  0.26042  6.76134     14.21376  1.79064  0.68686   4.63616  0.13271     0.01428  5537.19472   9622.69577  0.21826         4510.19068     19.95486  0.05007  59453.65109  0.84794  1.20734  2840345.28012  44.40842  18.24109  59517.42325     50.6929       43.80661   40.20253  53.71968   43.0    0.15411  -20.37712  0.77373 
  -15.29112  0.02748  6.22751     14.22975   2.0117  1.17393   8.93982  0.09962     0.21397  5207.91803   9795.44494  0.42741         4352.45286     20.31743  0.11539  59453.19321  1.44639  0.24565   2514803.2556  44.58327  18.26862  59516.51733    50.70508         43.835   33.87687   57.0543   48.0    0.13825  -20.41563  0.96052 
  -14.08304  0.06662  5.21135     14.39312  1.71173  0.61679   4.23777  0.28403     0.27437  5672.02011   9832.46405  0.03005         2430.22757     18.47914  0.00167  59454.40129  0.81328  0.28233   706176.74891  45.21947  18.19237  59517.80459    50.59423        43.7602   47.20438  49.24369   43.5    0.16705  -20.34532   0.9599 
    -12.558  0.20298  5.43327     14.27691  1.39326  0.53632   6.93252  0.10578     0.01307  5651.19144   9841.39781  0.23794         5394.85453     20.25866  0.10078  59455.92633  1.32068  1.40715  1066972.31524   44.9146  18.26813  59520.50066    50.64795       43.80184   43.74549   53.2545   42.0      0.155  -20.45511  0.76215 
    -10.492  0.00385  4.39142     13.89078  1.19302  1.54678   9.77919  0.08639     0.24023  6225.64789    9713.7141   0.0136         3522.62326     17.31281  0.00011  59457.99233  2.26099  0.03762  3532716.14922  44.51218  18.27688  59516.51733    50.88823       44.04997   36.40273   49.4767   39.0    0.19845  -20.37362   0.9932 
  -12.19345  0.02061   4.7172     14.25336  1.65592  0.69484  14.41889  0.06351     0.04033  6162.14539   9717.00242  0.01807         5988.15283     20.66434  0.25649  59456.29088  3.26605  0.29724   1065365.3477  45.11302  18.25367  59520.62598    50.67969       43.82233   40.20253  55.78037   43.0    0.15554  -20.60413  0.96339 
  -11.74175  0.00606  5.42528      13.9765  1.50983  1.18567     3.339  0.17137     0.30633   5583.1901    9754.1698  0.06302         4284.42065     19.15042  0.00786  59456.74257  0.62088  0.02023  4598114.73757  44.31635  18.22374  59517.80459    50.72301       43.89416   40.41385  53.04318   48.0     0.1603  -20.33037  0.99601 
  -11.50234  0.01141  5.46807     14.34698  1.60125  0.69268   8.27483    0.158     0.16955  6868.47528     8892.567  0.35876          4000.4507     16.04809    1e-05  59456.98198  2.32866   0.0944   899485.88508  45.04364  18.23126  59518.44527    50.71339       43.84491   37.88799  53.33209   43.5    0.15278  -20.38285  0.98328 
  -12.35397   0.0054  6.41422     14.43127  1.82511  0.61397  12.95796  0.07608     0.05654  5958.48413   9339.04565  0.50923         4300.28248     18.82301   0.0037  59456.13036  2.74432  0.07004   956859.51898    44.935  18.27445  59520.62598    50.70059       43.78683   54.78198  61.40784   44.0    0.15748  -20.33629  0.98586 
  -11.70718  0.06639  5.10238     14.59857  1.43911  0.27552   2.95603  0.25298     0.05103   6029.0106   9160.20688  0.03508          3860.9586       18.907  0.00448  59456.77715  0.64096  0.19624   220964.16742  45.66707  18.23454  59518.44527    50.68813       43.81094   42.14477  58.09491   40.5    0.17004  -20.35148  0.96498 
  -13.39878  0.14084  6.11954     14.16401  1.64923  1.39577   9.12108  0.10961     0.01232   5403.5811   9925.18643  0.34267         5205.03493     19.21003  0.00901  59455.08555  1.58868  1.28465  2694736.06002  44.48217  18.25693  59517.80459    50.66501        43.8168   40.06762  53.38941   45.0    0.14605  -20.36836  0.78215 
  -13.05649  0.04496  5.50126     13.91628  1.51548  0.89702   4.58498  0.08844     0.01421  5353.95069   9908.58686  0.14284         5309.30809     18.48981  0.00172  59455.42784    0.784  0.20614  6262385.48707  44.17173  18.23556  59518.44527    50.67105        43.8288   41.93345   53.2545   44.5    0.15197  -20.32051  0.95856 
  -13.41612  0.29454  5.67915     14.36904  1.91206  1.18656   6.70244  0.13708     0.13939  5818.07875   9657.09793  0.19186         2624.72424     20.42762  0.14871  59455.06821  1.35338  1.97411  1046656.84308  45.02198  18.24137  59517.80459    50.70553       43.79018   41.93345  58.30623   48.5    0.13696  -20.44703  0.77409 
  -11.22543  0.04847  4.95921     14.41912  1.70331  0.48675   3.77408  0.23006     0.16127  6271.15875   9750.54584  0.31389         2585.83908     20.57998  0.21121   59457.2589  0.88539  0.18293   564548.37191  45.35761  18.25564  59518.44527     50.7072       43.81199   40.41385  56.03423   41.0    0.16734  -20.58153  0.97581 
  -12.65212  0.00606   6.2478     14.57576  1.94328  0.44143    6.1297  0.19655     0.11944  6758.78194   9253.97619  0.10333         2315.60429     17.65588  0.00025  59455.83221  1.67033  0.03715   496917.42111  45.26964   18.2388  59517.42325    50.61669       43.75875   40.41385  55.56904   44.0    0.16276  -20.41156  0.99347 
  -13.14455  0.00433  5.90591     14.37513  1.81525  0.60295   8.37119  0.10922     0.36693  5883.29165   9800.36599  0.03131         5791.36144     18.68467  0.00269  59455.33978  1.72844  0.03625  1044882.20286  44.96614  18.20273  59520.50066    50.67927       43.82529   40.20253  55.78037   42.0    0.17761  -20.37974  0.99367 
    -9.7726  0.27091  5.47641     14.38216  1.66809  0.70336   6.46771  0.14233     0.38646  6712.06201    9989.0945  0.12198         2045.30798     20.50531  0.17784  59458.71173  1.73816  1.75218    799285.1048  45.11137  18.23904  59517.80459    50.72122       43.85151   34.10243  55.13529   42.5    0.19413  -20.55587  0.77096 
   -11.2925  0.01566  6.12214     14.23504  1.66674  0.70904    2.6033  0.26076     0.10253   6412.3899   8995.88023  0.12424         5661.98889     19.44248  0.01539  59457.19183  0.63854  0.04076  1965176.43651  44.62351   18.2147  59518.44527    50.79426       43.92984   37.88799  53.04318   47.0    0.17674  -20.39608  0.99124 
  -13.49242  0.00157  5.63225     14.21686  1.63095  0.77569   6.71328  0.12714     0.06588  5971.67038   9761.93236  0.11919          2252.0507     17.46321  0.00016   59454.9919  1.42808  0.01055  1769667.32587  44.73203  18.25273  59517.42325    50.68983       43.88191   41.43094  47.99145   42.0    0.18502  -20.34425  0.99802 
  -19.75397  0.01326  6.00182     14.28612  1.80328  0.53424    5.6033  0.14899     0.02315  5399.17962   9981.24949  0.07111          3993.5776     19.49592   0.0174  59448.73036  0.97438  0.07429  1615143.94668  44.76013  18.25962  59517.44035    50.77754       43.86259   40.06762  55.91527   50.0    0.16603  -20.33486  0.98625 
  -17.53177   0.0019  5.34373      14.2352  1.86755  0.34789   3.34764  0.18943     0.01652  5772.78332   9824.72071  0.07066         5380.80785     20.36674  0.12926  59450.95255  0.66548  0.00635  1676366.68219  44.86006  18.23041  59517.42325    50.70074       43.85894   37.54176  50.86354   43.0    0.17369  -20.48265  0.99904 
  -10.47508  0.00485  5.90312     14.29059  1.95928   1.1643   6.14758  0.22673     0.06839  6411.39217   9886.59485  0.33143         3285.54077      17.8893  0.00043  59458.00925  1.50743  0.02979  1662999.32188  44.79789  18.26477  59518.44527    50.71717       43.85718   35.36212  55.56904   47.5    0.16942  -20.36848   0.9954 
  -10.82368  0.06853  5.54363     14.06421  1.46477  0.87027   5.50172  0.13405     0.03085  6000.05873   9783.25057  0.39484         3496.42278     19.17324  0.00828  59457.66064  1.18151  0.37701  3109979.10239  44.45427  18.30447  59518.44527    50.66341       43.76427   42.14477  60.62078   45.5    0.16292  -20.38961  0.92461 
   -9.83349  0.07898  5.74734     14.31128   1.8622  1.39022   6.97438  0.17146     0.03991  6443.38863   8924.43565  0.18832         3617.44148     17.76327  0.00032  59458.65084  1.72727  0.55083  1362115.86737  44.88572  18.21175  59518.44527    50.82383       43.97094   37.54176  53.67831   43.5    0.15415  -20.36536  0.92004 
  -11.94738  0.03172  6.11749     14.33425  1.81749  0.66196   3.42789  0.27505     0.15439  6170.68793   9660.41199  0.07605         4785.79771     16.88761    4e-05  59456.53695  0.77861  0.10872   1354967.2982  44.82324  18.18475  59517.42325    50.63672       43.82523   46.47545  47.99867   44.0    0.17198  -20.39483  0.97989 
   -12.4375  0.00406  6.60545     14.07982  1.99786  1.34166  12.02786  0.04063     0.08962  5501.79161   9666.03671  0.03835         3645.34148     19.41614  0.01448  59456.04683  2.17182   0.0488  5604529.14369  44.18107  18.22161  59518.44527    50.61857       43.74242   44.67063  58.09491   55.5    0.14394  -20.33951  0.99057 
  -10.71148  0.00255  5.83242     14.54178  1.97458  0.55322   9.29268  0.11813     0.06743  6417.97999   9585.55287  0.05729         4412.02269     19.82384  0.03703  59457.77285  2.28331  0.02365   514557.13024  45.32119  18.28318  59521.33743     50.6012       43.73414   47.20438  56.35611   38.5    0.17508  -20.43171  0.99647 
  -17.03534  0.00111  5.01984     13.96863  1.49198   0.6066    2.8195  0.23449     0.01548  5153.21225   9788.75252   0.2504         5207.93541     16.68038    3e-05  59451.44899  0.44664  0.00314  4033656.38452  44.43553  18.23847  59518.44527    50.65833       43.80014   43.95681  55.56904   41.5    0.16557  -20.34888  0.99943 
    -8.6537  0.00124  7.19317     14.17136  1.75596  1.56883   3.61848  0.20181     0.25235   4800.3606   8258.02464  3.46972         3981.64728     19.79365  0.03454  59459.83063  0.49739  0.00448   3832293.1666  44.21606  18.27398  59512.16181    50.56472       43.64506   42.98508  56.35611   55.0    0.15268  -20.33058  0.99877 
