 texplosion  fnickel    Pspin  log(Bfield)      Mns  thetaPB   mejecta    kappa  kappagamma     vejecta  temperature    alpha  cutoff_wavelength  log(nhhost)      A_V         MJD0   kenergy  mnickel           TSD   log(L0)  Peak_mag     Peak_MJD  log(E_rad)  log(Peak_lum)  Rise_Time    E_fold  tau_1  delta_m15     r_peak     frac 
   -1.52538  0.03047  0.99783     14.23025  1.34114  1.20846   24.2466  0.02864     0.38346  2869.00019   4000.19135  4.74604         4111.27395     18.10312   0.0007  59108.03944   1.19053   0.7387   42944.00822   47.7653  18.32888  59141.58554    50.98255       44.18684   23.66039  52.47366   53.0    0.13412  -21.43565  0.99594 
   -1.19931  0.00886  0.76465     14.41836  1.52601   0.8702  22.27297  0.02939     0.03186  2363.14446   4463.35465  4.90872         4080.20037     16.68143    3e-05  59108.36552   0.74197  0.19738   12066.13578  48.60391  18.39945  59141.58554    51.07813       44.30213   19.48431  53.80281   53.0    0.12835  -21.79658  0.99968 
   -2.33957  0.00967  1.33522     14.32107  1.75782  1.53141   29.4235  0.02981      0.0533  3587.32222    5780.3774  4.64013         4039.71434      20.0923  0.06871  59107.22526   2.25872  0.28451   66336.55101  47.44096  18.31956  59141.58554    51.05624       44.29001   21.96836  50.57787   52.5     0.1321  -21.46508  0.99781 
   -0.67414  0.00438  0.74236     14.38291  1.57923  1.08185  27.55983  0.02221     0.01258  2228.57952   7056.21173  4.70197          4156.9709     18.83398  0.00379  59108.89069   0.81651   0.1208   13857.06912  48.58439  18.32052  59139.46271    51.00236       44.21898   20.41003  52.13621   56.0    0.10127  -21.30485  0.99984 
   -2.55956  0.00213  1.17259     14.28856  1.38522  0.84867  19.46951   0.0291     0.04287  2365.08817   4499.66574  4.15676          4209.7026     19.32958  0.01187  59107.00527   0.64965   0.0415   46828.64498  47.60156  18.26895  59141.58554     51.0631       44.29406   22.83318  48.83372   52.0    0.11655  -21.34463  0.99964 
   -1.89045  0.01629  0.83505     14.37381  1.58048  1.05262  23.50279  0.02985     0.09398  2699.37323   5236.05023   4.1723         4150.87653     19.37281  0.01311  59107.67438   1.02158  0.38278   18297.87558  48.36181  18.31285  59140.61056     51.0284       44.25352    21.4127  51.51417   55.5    0.10202  -21.44059   0.9992 
  -16.36549   0.0319  1.48018     14.36465  1.90207  0.81478  15.28438  0.11514     0.04143  8090.86663   9367.53309  0.55004         5573.82913     19.52926  0.01879  59093.19934    5.9685  0.48759    72173.0942  47.34907  18.33706  59140.61056    50.98906       44.19702   20.61262  52.34216   43.0     0.1557  -21.09211  0.99535 
   -1.59551  0.01277  0.70043     14.45567  1.54331  0.79631  27.34929  0.02158     0.06553  2313.77821   3947.87691  3.90604         4274.14117      17.1794    8e-05  59107.96931   0.87341  0.34928    8622.99993  48.83091   18.3537  59141.58554     51.0114       44.24378   21.96836  54.16568   56.0    0.13464  -21.35531   0.9996 
   -4.85986  0.00375  1.32152      14.2954  1.39883  0.82141  32.11947  0.02256     0.12077   2885.9632   5610.10349  4.98853           4004.536     17.54197  0.00019  59104.70496   1.59579  0.12046   58201.46348  47.40753  18.33039  59139.46271    50.97201       44.17786    21.4127  52.34216   55.0    0.11987  -21.09676  0.99861 
   -5.36132   0.0016  1.14965     14.63683  1.87857  0.52852   20.6608  0.03894     0.01427  3267.86279    6527.2523  3.15093         4104.94038     19.56964  0.02062   59104.2035   1.31614  0.03305   12278.01022  48.33241  18.34461  59147.43027    51.29865       44.52887   25.77676  45.59891   55.5    0.12595  -20.98899  0.99984 
   -1.13732  0.05168  0.90531     14.36934  1.58342  1.24443  20.18108  0.02995     0.25611  2588.89681   5692.25051  4.81859         4125.07916     19.70037  0.02787  59108.42751   0.80687  1.04298   21994.74415  48.21253  18.36452  59139.46271    50.99555       44.22578   19.60995  52.13621   54.5    0.11414  -21.39346  0.99743 
   -3.03791  0.00101  1.26515     14.44002  1.78467   0.8271  36.94874  0.01826     0.49598   2708.1117   7093.99455  4.90905         3967.64151     20.44694  0.15548  59106.52692   1.61644  0.03747   34963.85281   47.7725  18.34359  59139.46271    50.97762       44.18483   20.80239  55.53379   54.0    0.11507  -21.37021  0.99975 
    -1.1676  0.00722  0.86936     14.29719  1.43816  1.03669  19.10555  0.02961     0.04003  2312.60984   4752.88863  3.92425         4329.29144     18.34962  0.00124  59108.39723   0.60952  0.13786   25683.09989   48.1386  18.37018  59141.58554    50.95863       44.16982   23.66039  52.47366   53.5    0.09998  -21.42651  0.99956 
   -1.90285  0.00453  0.82107     14.50843  1.79922  0.91999  22.94621  0.03479     0.45485  2868.32993   7452.35325  4.55507         4102.64762     16.54482    2e-05  59107.66198   1.12615  0.10393   10834.10336  48.66038  18.34996  59140.61056    50.98555       44.19472   21.96836   51.7865   56.0    0.10454  -21.42704  0.99986 
   -1.08991  0.01348  0.74054     14.56466  1.69731  0.70241  22.66287  0.03125     0.02238  2656.55134   5052.24456  4.07724         4220.10184     17.78699  0.00034  59108.47491   0.95407  0.30547    6417.32338  48.95216  18.34898  59140.61056    50.97802       44.17523   21.96836  54.16568   53.5    0.12632  -21.35248  0.99968 
   -1.77844  0.01204  0.71822     14.38709  1.73743  1.36887  17.51749  0.03926     0.10318  2437.54373   7362.69478  4.42618         4176.77834     20.00259  0.05589  59107.78638   0.62087  0.21087   13997.98791  48.65017  18.30844  59140.61056    50.99293       44.21835   20.61262  52.34216   56.0    0.10575  -21.69765   0.9998 
   -1.02522  0.00305  0.80181     14.30987  1.48469  1.15101  20.10893  0.03615     0.02673  2486.82094   6534.46723  4.98165          4148.2415     19.79416  0.03459  59108.53961   0.74183  0.06133   21273.96882  48.30449  18.36923  59140.61056    50.97317       44.19201   20.61262  54.72135   55.0    0.11829  -21.41022  0.99987 
   -0.98386  0.00642  0.78616     14.34915  1.55954  1.05006  24.44834  0.02307       0.072  2131.57352   6170.59034   4.4322         4185.77649     20.16445  0.08113  59108.58097   0.66264  0.15703   17927.58647   48.4173  18.32619  59140.61056    51.01661       44.23692   21.96836   51.7865   53.5    0.11762  -21.49661  0.99971 
   -2.24158  0.00949  1.08899     14.39541  1.72144  1.13046  30.09025  0.02089     0.15646  2583.64944   8839.76211  4.43393         4162.42821     18.77865  0.00334  59107.32324   1.19817  0.28548   30685.14747  47.94376  18.37526  59140.61056    50.98103        44.1853   21.96836  54.16568   53.5    0.13672  -21.36162   0.9988 
   -3.24223  0.00296  0.90683     14.40133  1.50165  0.80873  32.39262    0.023     0.07649  2782.60808   6867.90651  4.58646         4188.84817     17.29389  0.00011   59106.3226   1.49616  0.09592   18062.38402  48.27358  18.33544  59140.61056    51.00547       44.22848   20.61262  51.13353   55.0    0.11681  -21.14464  0.99968 
   -1.22055  0.00697   0.8739     14.70892  2.09011   0.6897  26.96993  0.02976     0.03048  2841.84916   6938.58015  4.97019         3988.44007      19.4114  0.01433  59108.34428    1.2993  0.18811     5663.1684  48.95303  18.34567  59141.58554     51.0184       44.23274   24.34755  50.95851   57.0    0.09465  -21.83108  0.99979 
   -0.67472  0.02628  0.75722     14.67483  1.69778  0.57501   25.3405  0.02517     0.27795  2499.97187    5647.0554  4.93753         4188.58266     18.43985  0.00153  59108.89011   0.94474  0.66583    4040.90028   49.1338  18.39452  59140.61056    51.18756       44.40208   24.34755  50.57787   55.0    0.12091  -21.32241  0.99933 
   -2.15076  0.01213  1.42276     14.34867  1.79716  1.55031  33.47775  0.02209     0.29534  3277.46999   6868.90684  4.85144         3968.55357     16.41708    1e-05  59107.41407   2.14517  0.40617    67814.4194  47.38585  18.38381  59140.61056    51.16402       44.37525    21.4127  51.52375   52.5    0.12194  -21.46491  0.99653 
   -2.29857  0.04602  1.47757     14.60487  2.03235  0.79227  17.90807  0.03627     0.01516  2898.27287   7010.61398  4.72583         4004.88148     16.15001    1e-05  59107.26626   0.89733  0.82407   25419.35391  47.83258   18.3368  59139.46271    51.01421        44.2464   19.60995   50.4979   54.0    0.11537  -21.35599  0.99416 
  -16.03409  0.02339  1.62112     14.24346  1.65103  0.77976  14.74029  0.12023     0.14111  9193.31597     9363.549  0.43943          5664.4363     19.42359  0.01473  59093.53073   7.43152  0.34472  131301.49529   46.9487  18.31389  59139.46271    50.99952       44.21678   19.60995  50.96564   40.5     0.1719  -21.28874  0.99496 
   -0.66437  0.01224   0.8112     14.43109  1.76944  1.27612  23.68197  0.02586     0.11373  2310.89589   3573.48257  4.94538         4132.87632     18.30387  0.00112  59108.90046   0.75441   0.2899   14849.89108   48.5267  18.34353  59140.61056     50.9747       44.18481   21.16828  54.16568   55.0    0.10726  -21.33439  0.99963 
   -9.68335  0.00324  2.38396     14.24942  1.81524  1.16985  18.49952  0.03053     0.29268  2571.12375   4020.30276  4.25532         4129.94894     20.11765  0.07284  59099.88148   0.72951  0.05987  303745.59352  46.29067  18.32914  59141.58554    51.03245       44.25722    21.4127  51.52375   55.5    0.12999  -21.13446  0.99834 
   -1.61076  0.01078  1.29492     14.60085   1.9117  0.69643  12.86961  0.06023     0.01707  3073.08553   4467.68527  4.86513         4023.54745     18.92418  0.00467  59107.95407   0.72501  0.13879    18707.7427  48.05376  18.31905  59140.61056    50.99767       44.22685   20.00232  52.95246   54.5    0.13453  -21.42799  0.99921 
   -1.01175  0.00412  0.90922     14.69955  2.06177  0.61891  26.43795  0.02106     0.47615  2160.92443   6540.17769  4.34843         4160.93228     20.22014  0.09223  59108.55308   0.73643  0.10882    6313.87456  48.86545  18.33253  59140.61056    50.97634       44.18966   23.66039  50.09447   54.0    0.13005  -21.52011  0.99983 
   -1.21463  0.00621  0.77026     14.45876   1.7569  1.08263  25.89916  0.02508     0.05986  2444.17412    6661.5403  4.62157         4196.56131     17.35645  0.00013  59108.35019   0.92295  0.16082   11703.15185  48.67202  18.33209  59140.61056    50.99453       44.21522   20.80239  52.95246   53.5    0.10973  -21.94981  0.99983 
   -7.73747  0.00651  1.81446     14.64803  1.97629  0.40886  26.38173  0.02109     0.08375  2530.58365   3199.51443  4.68431          3948.4327     20.77908  0.33405  59101.82736   1.00779  0.17185   30555.81503  47.56211  18.30172  59139.46271    50.97691       44.20354   20.00232  52.95246   54.5    0.13297  -21.39764  0.99761 
   -2.47665  0.04368  0.99299     14.42036  1.82783  1.34421  14.67564  0.04454     0.27227  2696.02173   5888.16578  4.03727         4135.01324     18.96799  0.00516  59107.08818   0.63631  0.64097   24150.34255  48.15397  18.34051  59141.58554    50.97737       44.19056   21.96836  54.35825   54.5    0.12063  -21.20283  0.99835 
   -1.32747  0.01396  1.02827     14.44333  1.81782  1.12907  19.75953  0.03315     0.44298  2415.94116   6347.96523  4.79081         4058.38068     17.49708  0.00017  59108.23736   0.68798  0.27591   23169.78646  48.13926  18.36683  59141.58554    51.02389       44.24396    21.4127  52.34216   56.0    0.10037  -21.45829  0.99918 
   -3.24658  0.02257  1.16764     14.43848  1.85851  1.16643  13.34267  0.06036     0.01999  2945.94781   8371.49902  4.75295         4065.83262     17.49508  0.00017  59106.31824   0.69075  0.30113    31235.5309  47.90874  18.32421  59139.46271    50.97873       44.19623   20.61262  52.34216   57.0    0.11838   -21.0852  0.99869 
   -1.01686  0.04851  0.82589     14.28239  1.41746  1.27771   22.6384  0.02771     0.06145  2921.11244   4163.83437  4.28064         4070.20728     16.18591    1e-05  59108.54797   1.15231  1.09828   24456.57226  48.19812  18.35534  59140.61056    51.00784       44.19989   20.59795  53.15691   54.0    0.16083  -21.45575  0.99729 
   -1.31651  0.04246  0.87477     14.50881  1.88202  0.99404  13.78766  0.05454     0.01331   2894.5043   6746.45775   4.4017         4055.42001     20.05531   0.0631  59108.24832   0.68907  0.58535    12841.2141  48.55108   18.3919  59140.61056    51.05831       44.25357   26.13789  53.34483   55.0    0.11415  -21.57428  0.99911 
   -2.44546  0.02075  1.33322     14.69186  1.79446  0.50791  29.79995  0.02424      0.2098  3064.04492    6295.6816   4.9056         4040.14449     19.06787   0.0065  59107.11937   1.66891  0.61841   12241.25626  48.18515  18.35286  59147.43027    51.19665       44.42046   27.35609  48.92619   54.5    0.13521  -21.32768  0.99574 
   -1.66982  0.04577  1.01355     14.54087   1.9327  0.85836  23.12503  0.02776     0.38562  2844.65355   7224.77198  4.14189         4075.13317     20.40873  0.14238    59107.895   1.11627   1.0584   15273.53347  48.35938  18.33401  59141.58554    50.96422       44.19466   21.16828   51.7865   54.5    0.10895  -21.50584  0.99725 
   -1.10311  0.00597  1.12826      14.6871  1.98742  0.64293  19.81319  0.03365     0.01936  2444.03352   8123.79451  4.91088         4209.45529     16.96218    5e-05  59108.46172   0.70599  0.11823    9924.74626   48.4656  18.30754  59141.58554      50.988       44.19041   26.17108  52.34216   56.0    0.13604  -21.39387  0.99962 
   -0.45222  0.04608  0.89084     14.45645  1.86063   1.5542  18.77584  0.04022      0.0306  3143.53694   5723.24544  4.87368         4027.16417     17.98812  0.00054  59109.11261   1.10679  0.86524   16755.92979  48.41474  18.33413  59147.43027    51.22361       44.43808   26.17108  48.50523   54.5    0.12126  -21.47108  0.99871 
   -4.14222  0.00214  1.49258     14.45611  2.11936  1.38023  42.39729  0.01325     0.47562  2179.99455   4863.31842  4.27698         4211.55342     19.78219  0.03364  59105.42261   1.20192  0.09055   53662.93327   47.5175  18.33515  59139.46271    50.99856       44.22384    21.4127  51.13353   55.5    0.11874  -21.07599  0.99935 
   -1.23307   0.0212  0.73764     14.56693   1.8529    0.893  19.42219  0.03365     0.49749  2397.13477   3615.30253  4.77623         4186.06691     16.83217    4e-05  59108.33175   0.66575  0.41176      6878.363  48.96353  18.33778  59140.61056    50.97441       44.18634   23.66039  52.47366   54.0    0.12127  -21.95242   0.9997 
   -0.59859  0.00559  0.75755      14.4181  1.86241  1.50673   27.4567  0.02903     0.03871  2805.01585   8119.93883  4.70101         4052.53342     20.27207  0.10394  59108.96624   1.28868  0.15352   14471.31789  48.61959  18.32595  59139.46271    50.96654        44.1797   21.96836  54.16568   54.5    0.12834  -21.39949  0.99985 
   -5.19113   0.0233  1.95899     14.35299  1.85367  1.24639  30.41534  0.02098     0.28082  2875.87673   4699.93233   4.8408         4073.26455     19.92919   0.0472   59104.3737   1.50058  0.70879   129993.9968  46.83889  18.36183  59141.58554    50.97588        44.1822   23.66039  52.47366   55.0    0.12796   -21.2044  0.98773 
   -1.87257   0.0014  0.91879     14.40584  1.60998  0.91127  32.61668  0.02284     0.02878  2684.20061   8587.46712  4.23593         4127.78889     18.62064  0.00232  59107.69226   1.40183  0.04561   19471.31177  48.25983  18.28042  59139.46271    51.02889       44.24413   20.41003   50.4979   56.0    0.12134  -21.42055  0.99987 
   -3.34404  0.00272  0.99381     14.31005  1.66182  1.56584  30.29857  0.01869     0.04795  2287.80151   6861.72405  3.80901         4254.08779     17.80651  0.00036  59106.22079   0.94599  0.08245   36550.47602  47.93193  18.31183  59139.46271    50.98808       44.20827    21.4127  52.34216   54.0    0.11865  -21.10958   0.9997 
    -1.4214  0.01148  0.97085     14.54185   1.6945  0.65972  26.52424   0.0311     0.28985  3189.88367   7350.35441  4.85195         4046.35284     20.28652  0.10746  59108.14343   1.60998  0.30443   12231.06773  48.43612  18.41005  59147.43027    51.19555       44.40019   24.06605   53.4178   53.0    0.13491  -21.58417  0.99904 
   -1.19821  0.01977  0.80519     14.57146    1.613  0.63956  26.00371  0.02501     0.26856  2459.83326   7563.66179  4.92766         4054.53657     17.73646   0.0003  59108.36662   0.93859  0.51411    6987.66876  48.82035  18.37218  59141.58554    51.12188       44.34291    21.4127  51.52375   56.0    0.10843  -21.29534  0.99917 
   -1.26547  0.06437  0.94865     14.45963  1.97095  1.41803  13.95759  0.05697      0.1297  3263.69828   6884.89693  4.70407         3998.60087     20.29913  0.11063  59108.29935   0.88687  0.89843   19835.49504  48.31186  18.36157  59140.61056    50.99363       44.20896   21.96836  50.57787   55.0    0.10559  -21.72116  0.99835 
   -3.60946  0.00962  1.24715     14.36249  1.70711  1.05042  30.84148  0.01896     0.02645  2361.43325   7084.63171  4.31921         4095.35131     19.98887  0.05415  59105.95537   1.02592  0.29666   46445.27039  47.64233  18.32733  59139.46271    50.98067       44.18532    21.4127  52.34216   55.5    0.12147  -21.16944  0.99797 
   -4.06743  0.00829  1.00325     14.43486  1.73492  0.86528  22.27309  0.03447     0.04708  3146.80391   6303.70337  3.46983         4093.28431     18.05121  0.00063   59105.4974   1.31567  0.18462   21887.05851  48.16512   18.3804  59141.58554    50.98496       44.20144   21.96836  54.16568   55.0    0.12063   -21.0639  0.99934 
  -13.72595  0.03455  1.26401     14.41994  1.86653  0.80292  20.86898  0.11366     0.01982  9716.13942    9899.6814  0.81651         5750.55244     19.16619  0.00815  59095.83887  11.75211    0.721   40037.25751  47.73392  18.34633  59141.58554    51.00017       44.21321   24.34755   51.7865   52.0    0.11577  -21.04433  0.99525 
   -5.38162  0.00624  1.38795      14.3143  1.40051  0.77757  30.09176   0.0206     0.06144  2588.72567   3219.67231  4.70523         4084.11463     16.62056    2e-05  59104.18321   1.20295  0.18767   58918.25519  47.36013  18.39181   59143.5219    50.98065       44.19025   26.03958  52.47366   55.0    0.12819  -21.06341  0.99758 
   -0.79946  0.00828  0.77928     14.49451  1.60629  0.76618   19.9815  0.03523     0.21174   2619.3083   3676.13243  4.42929         4168.97711      19.4352  0.01513  59108.76537   0.81776  0.16546    9289.79053  48.72328  18.34186  59140.61056    50.96497       44.18631   21.96836  54.16568   54.5    0.11277  -21.58756  0.99975 
   -2.18993   0.0083  0.93976     14.61473  2.06199  0.83076  26.91513  0.02454     0.31367  2451.69769   5184.99116  4.06161         4183.54624     17.52298  0.00019   59107.3749   0.96507  0.22329    9969.48297  48.63843  18.33412  59139.46271    51.00374       44.21297   22.78922  53.34483   55.0     0.1107   -21.2568  0.99965 
   -2.01326  0.00888   1.4779     14.48066  2.06512    1.213  28.88644  0.02222     0.14506  2633.38909   6027.67878  4.48925         4058.10866     17.02154    6e-05  59107.55157   1.19495  0.25662   45785.77023  47.58377  18.31958  59141.58554    51.00297       44.22103   23.66039  52.47366   54.0    0.12778  -21.37419  0.99819 
  -22.57818  0.00763  1.95827     14.29862  2.17797   1.1056  16.32537  0.10023     0.01407  6851.30081    9045.9295  0.64374         5650.42347     17.40738  0.00014  59086.98665   4.57126  0.12449  196055.77215  46.73077  18.35767  59139.46271    51.06583       44.28731   20.80239  50.57328   46.0     0.1389  -21.03912  0.99824 
   -1.52069  0.03608  1.03893     14.47875  1.63956  0.79913  19.13176  0.03207     0.05825  2558.75452   7301.85315  4.36698         4150.31769     19.52403  0.01857  59108.04414    0.7472  0.69035   18122.28398  48.19219  18.38603  59141.58554    51.04933        44.2652   23.66039  52.47366   52.5    0.13338  -21.42551  0.99729 
   -2.64687  0.02509   1.1355     14.20808  1.44485  1.44327  17.91708  0.03226     0.07944  2509.24926   3845.36419  4.22751          4113.3466     19.63466  0.02395  59106.91795   0.67295  0.44958    66351.0419  47.49644  18.34804  59139.46271    50.98183       44.20621   20.65843  53.09643   54.0    0.12271  -21.32037  0.99672 
     -5.209  0.00104  1.57934     14.51398  1.88189  0.73563  31.37879  0.01953     0.13994  2468.22822   4458.06915  4.21663         4122.45528     17.33181  0.00012  59104.35583   1.14034  0.03258   40869.43476  47.53509  18.39242  59139.46271    50.96254       44.18164    21.4127  52.34216   55.0    0.11911   -21.0566  0.99966 
   -0.67057  0.03811  0.77684     14.46481  1.77105  1.13016  14.20823  0.05344     0.08315  2868.31623   3683.34326   4.9879         4057.44027     19.35407  0.01255  59108.89426    0.6973  0.54144   11670.52335  48.66933  18.37676  59140.61056    51.03378       44.23861   21.96836   51.7865   56.5    0.11237  -21.31644  0.99943 
   -1.21203   0.0294  1.01387     14.38538  1.72084  1.43857  30.34783  0.02198     0.01697  2862.13973   3171.87367  4.70231         4070.10761     19.63789  0.02413  59108.35279   1.48298  0.89208   27845.84719  48.04786  18.29777  59141.58554    50.98841       44.19668   26.17108  49.96297   52.0     0.1325  -21.64507  0.99724 
   -1.19715  0.00266  0.74041      14.3297  1.56174  1.23051  23.51707  0.02572     0.12842   2353.3674   3301.17204  4.13707         4185.12976     18.27886  0.00106  59108.36767   0.77694  0.06257   17416.60221  48.48255  18.34971  59140.61056    50.99787       44.21751   19.65391  52.09224   54.0    0.10347  -21.34076  0.99991 
   -2.66594  0.00381  1.22407     14.54706  1.85583  0.75195  31.67423   0.0208     0.35186  2686.92332   7285.33342  4.00067         4217.52441     17.51228  0.00018  59106.89889   1.36409  0.12052   20789.37411  48.04393  18.31526  59141.58554    51.01694       44.23162   21.96836   51.7865   52.5    0.11684  -21.26998  0.99937 
   -4.02042   0.0019  1.17988     14.32083  1.60049  1.09317   24.0946   0.0321      0.0503  2764.41793   5286.05314  4.36503         4204.81942     18.99058  0.00544  59105.54441   1.09838  0.04586   47215.08461  47.65534   18.3335  59140.61056    51.03199       44.25043   21.96836   51.7865   57.0    0.11699  -21.08119   0.9997 
   -2.01775  0.00626  1.15225     14.38595  1.76874  1.29799  25.21968  0.03143     0.06819  2886.51113   4745.93197   4.9883         4152.76898     16.41893    1e-05  59107.54708   1.25347  0.15778   36869.20641  47.82675  18.36356  59140.61056    51.05028       44.26873    21.4127  52.34216   55.5    0.10355  -21.41712  0.99926 
   -2.97848  0.00486  0.70964     14.32149  1.70918  1.52508  34.84214  0.01509     0.13392  2103.68482   6873.78554   3.2192         4322.05979     20.11514  0.07242  59106.58634    0.9198  0.16933   18184.36449  48.53986  18.30528  59140.61056    51.03156       44.25426    21.4127  52.34216   54.5     0.1166  -21.10728  0.99981 
   -1.46277  0.04236  0.85896     14.30756  1.46304  1.16581  19.46609  0.03063     0.40889    2483.173   4780.36135  4.54439         4025.01221     18.74569  0.00309  59108.10206   0.71601  0.82451   24316.27871  48.18026   18.2681  59140.61056    51.00018       44.21915   21.96836  50.57787   54.0    0.12355  -21.41103  0.99776 
   -1.20728  0.00831  0.95719     14.46452  1.99862  1.37869  22.44148  0.02582     0.02238  2263.76056   5614.38879    4.059         4178.70786     18.97142   0.0052  59108.35754   0.68602  0.18644   20021.61234  48.30608  18.34725  59140.61056    50.99162       44.22177    21.4127  51.52375   53.0    0.11747  -21.70815  0.99965 
   -1.13583  0.03139  0.96138      14.5168   2.0025  1.19536  18.84767  0.03294     0.45282  2372.92591   3353.27227   4.6125         4165.08614     18.51611  0.00182    59108.429   0.63307  0.59158   15906.38645  48.40305  18.32002  59140.61056    50.98951       44.21386   21.96836   51.7865   57.0    0.09205  -21.34933  0.99898 
    -0.8025  0.02731  0.76965     14.43962  1.72777  1.15884  23.86516  0.03315     0.01039  3141.96796   6152.25147   4.7364         4029.27677      18.8739  0.00416  59108.76232   1.40538   0.6517   12549.96971   48.6351  18.32661  59139.46271     51.0013       44.21704   19.79787  53.15691   52.5    0.13833  -21.64545  0.99928 
   -1.38801  0.00281  0.87392     14.55168  1.79216  0.75101  22.40005   0.0339     0.10727  2817.52973   3519.64315  4.44405         4118.94833     19.30441   0.0112  59108.17682   1.06075  0.06298   10018.00459   48.6385  18.32998  59140.61056    51.01194       44.23115   20.59795  53.15691   53.5    0.12821  -21.52945  0.99989 
   -2.96282  0.00106  0.97339     14.28129  1.59003  1.41479  25.69786  0.02095     0.01506  2043.38864   4903.98408  4.20251         4166.77279     17.61041  0.00023  59106.60201   0.64007  0.02718   38301.73737  47.91046  18.28578  59140.61056    50.98318       44.19767   21.96836   51.7865   55.0    0.11787  -21.15172   0.9999 
   -1.92046  0.00863  1.07461     14.33581  1.65143  1.11441  12.62536  0.05971      0.0932  2923.33941   3067.69278  4.92926         4020.83756     20.34818  0.12385  59107.64437   0.64362  0.10897   37718.00764  47.84765  18.31995  59141.58554    51.01062       44.22524   23.66039  50.09447   54.5    0.10277  -21.55141  0.99948 
   -2.23152  0.00132   1.6028     14.44562  1.81393  0.87248  16.06949  0.04005     0.31006  2678.96764   3644.26288  4.76272          4063.7487     19.62378  0.02336  59107.33331   0.68796  0.02126   55585.64989  47.37274  18.32789  59141.58554     50.9902       44.20882   23.79189  49.96297   53.5    0.12654  -21.42003  0.99976 
   -2.61742  0.00708  1.15014      14.2058  1.37812  1.10779  20.08202  0.03326     0.06136  2694.61846   3121.96699  4.37365          4161.2196     19.89393  0.04352  59106.94741   0.86982  0.14223   65615.42633  47.46963  18.35676  59140.61056    51.02681       44.24412   21.96836   51.7865   53.5    0.11291  -21.37128   0.9988 
   -4.35468  0.00224   0.7966     14.47291  1.36604  0.54747  21.63464  0.03475     0.08493  2671.65251   8644.20483  4.48631         4113.34184     19.49445  0.01735  59105.21015   0.92116  0.04843    9118.76391  48.64189  18.38624  59140.61056    50.97684       44.18934    21.4127  54.72135   57.5    0.11119  -20.93902  0.99986 
   -0.75213  0.02245  0.99875     14.51566  1.94941  1.08609  29.68651  0.01933       0.147  2409.17206   5635.57313  4.58633         4028.42171     18.51883  0.00183   59108.8127   1.02783  0.66643   16800.10528  48.33452  18.29953  59139.46271    50.96603       44.17926   20.00232  52.95246   53.5    0.10638  -21.60511  0.99857 
   -5.06033  0.00723  1.74237     14.41484  1.80683  0.87915  32.87122  0.02151     0.01644  3065.67086   5088.27585  4.31772         4004.75847     19.54744   0.0196  59104.50449   1.84287  0.23758   75395.18773  47.16614   18.2656  59140.61056       51.01       44.23422   21.96836  50.57787   54.5    0.13343  -21.15225  0.99663 
   -5.78433  0.00479  1.37074     14.20715  1.78301  1.55105  31.22577  0.02284     0.01845  2998.64086   5685.43268  4.53528          3888.7051     20.83168  0.37706   59103.7805    1.6749  0.14965  119831.76538  47.16752  18.32087  59140.61056    50.99918       44.21686   21.96836  50.57787   56.0    0.11864  -21.41978  0.99867 
   -3.62933  0.02634  0.90997     14.21274   1.5546   1.3001  31.88562  0.02807     0.03914  3663.52014   5878.35504  4.54206         3890.48167     20.77313  0.32951   59105.9355   2.55281  0.84001      44874.66  47.89041  18.28823  59147.43027    51.24397       44.47809   26.17108  46.90386   57.0    0.11805  -21.43922  0.99684 
    -0.7203  0.02815  0.76952     14.72639  2.14972  0.74668  26.13331   0.0227     0.05187  2502.63024   5921.69904  4.07025         4125.90687     16.60664    2e-05  59108.84453   0.97637  0.73573    4167.22868  49.20894  18.30465  59139.46271    50.97244       44.19258   20.61262  52.34216   50.0    0.13638  -22.11735  0.99959 
   -0.59704  0.04269  0.79344     14.44529  1.76184  1.52377  29.00571  0.02159     0.40072  2806.15706   6493.70993  4.70117         4055.39305     17.56854  0.00021  59108.96778   1.36249  1.23831   13250.65658  48.59355  18.34169  59141.58554    51.04583       44.23851   29.38826  49.27606   54.0    0.12159   -21.3551  0.99872 
   -0.55625  0.04891  0.89521     14.59625   1.7901   0.7195   9.86418  0.09072     0.32538  3391.38728   3000.29826    4.816          4050.9296     16.85694    4e-05  59109.00858   0.67677  0.48245    8551.46909  48.68583  18.32707  59141.58554    50.97583       44.19992   23.66039  50.09447   53.5    0.14172  -21.39637  0.99914 
   -1.42707   0.0151  1.06366     14.51881  2.04835  1.04348  17.20498  0.04185     0.40952   2863.3146   4863.20831   4.1223         4089.27417     19.83548  0.03804  59108.13776   0.84143  0.25988   19733.02603  48.23145   18.3058  59140.61056    51.04445       44.27595    21.4127  51.52375   53.0    0.12815  -21.50607  0.99931 
   -0.80936  0.00138   0.8226     14.55236  2.10036  1.13207  30.27616  0.02486      0.0307  2778.52492   8448.49431  4.31057         4112.66339     16.99412    5e-05  59108.75547    1.3943   0.0418   10369.81092  48.74499  18.28762  59139.46271    50.97766        44.2035   20.65843  53.09643   54.0    0.11774   -21.6274  0.99996 
   -2.14969    0.013  1.31877     14.41058    1.859  1.28756  25.14032   0.0249     0.01215  2494.11748   5730.74447  4.73542         4119.87413     18.10806  0.00071  59107.41513   0.93289  0.32686   45317.97585  47.64151   18.3212  59139.46271    51.18239       44.39481   26.72674  48.93957   54.5    0.12804  -21.36543  0.99793 
   -1.05597  0.01563  0.73576     14.60931  1.62841  0.58008  20.73132  0.04056     0.05477  3177.84522   6848.10646   4.4344         4065.56538     18.32695  0.00118  59108.50886   1.24888  0.32405    4948.11862  49.05269  18.35797  59140.61056    51.01202       44.22964   20.65843   51.8878   53.5    0.13561  -21.38846  0.99962 
   -0.86831  0.00607  0.78384     14.54654  1.84857  0.90771  36.57074  0.01747      0.1735  2426.26375   8294.35862  4.76598         4133.48806     16.25309    1e-05  59108.69652   1.28421  0.22184    8511.85296  48.81721  18.37958  59141.58554    50.97673         44.184   21.96836  54.36463   56.0    0.08735  -21.54269  0.99978 
   -1.22589  0.00141  0.94205     14.58353  1.77461  0.67834  35.58732  0.01784     0.05743  2278.01725   6701.73408  4.60897         4161.69359     16.75547    3e-05  59108.33893   1.10163   0.0502    9953.95666  48.57181  18.37765  59140.61056     50.9698       44.17395   21.96836  54.16568   55.5    0.11908  -21.60768  0.99988 
   -2.59878   0.0015  0.94954     14.47563   1.7339  0.81616  21.65968  0.02892     0.18617  2354.92986   3534.31031  3.77609         4184.53021     16.35954    1e-05  59106.96604   0.71653  0.03257   16240.92808  48.34223  18.29167  59139.46271    51.02208       44.24884   20.80239  50.10554   56.0    0.11217   -21.1717  0.99991 
   -0.78532  0.00953  0.72864     14.31942  1.53043  1.40488   33.5271  0.02124     0.05832  2668.29393   7060.90162  4.85644         4079.67666     17.46346  0.00016  59108.77951   1.42394  0.31949   17330.50181  48.48982  18.27233  59139.46271    50.98836       44.20448   20.80239  52.95246   54.0    0.12182  -21.63881  0.99958 
   -1.89334  0.01798   0.8771     14.27484  1.49075  1.45286  19.77369  0.04043     0.12424   2951.9922   6949.33668  4.97359         3992.84016     19.12448   0.0074  59107.67149   1.02789   0.3555   30035.37265  48.07852  18.39517  59140.61056    51.01148       44.22773    21.4127  52.34216   56.5     0.0999  -21.42218  0.99898 
   -1.51867  0.01256  0.89529     14.32121  1.63968  1.51857  23.09064   0.0279     0.28865  2515.78607   3893.85753  4.61164         4085.94791     19.97868  0.05289  59108.04616   0.87179  0.28998   27803.35748  48.13558  18.28942  59139.46271    50.99578       44.22069    21.4127  51.13353   52.5    0.12879  -21.47427  0.99927 
   -0.70014  0.00641  0.77153     14.45343  1.83438  1.25304  19.55178  0.03711     0.02988  2594.96348   4177.16045  4.60859          4096.1333     18.72567  0.00295  59108.86469   0.78537  0.12527   12564.59648  48.65848    18.369  59140.61056    50.96438       44.16967   23.66039  54.85285   56.0      0.095  -22.01581  0.99988 
   -1.10086  0.03726  0.84035     14.52822  1.88789  0.87677  15.64152  0.13711     0.01102  7773.99936   9350.68216  4.91876         3743.28717     20.25428  0.09977  59108.46397   5.63891  0.58286   10871.02531  48.65963  18.35119  59140.61056    50.97294       44.18582   21.96836  54.16568   48.5    0.10083  -21.57397  0.99918 
    -5.5771  0.01942  0.75046     14.37455  1.82517  1.44875  10.85177  0.08462      0.0488  3435.10836   6577.00568  3.23663         3974.34256     16.65506    3e-05  59103.98772   0.76385  0.21079   17008.79344  48.54882  18.31657  59141.58554    51.02014       44.23469   23.66039  50.09447   57.5     0.1156  -20.74077  0.99977 
   -1.52858  0.00377   1.0692     14.38487  1.78479  1.09657  21.84592  0.02501     0.02003   2250.6366   7842.63914  4.10621         4162.73036     20.25369  0.09964  59108.03625    0.6601  0.08231   32194.86101  47.95453  18.33607  59140.61056    50.97104       44.19185   21.16828  54.16568   51.0    0.13107  -21.53214  0.99967 
   -2.71974  0.03713  0.86529     14.30394  1.51984  1.35883  16.95766  0.03533     0.15549  2453.76665   5899.10685  4.35252          4150.8101     16.35475    1e-05  59106.84509   0.60906  0.62959   26064.54221  48.16027  18.31056  59141.58554    51.00328       44.22821   23.66039  49.27606   54.5    0.12217  -21.15826   0.9984 
    -5.5199  0.00165  1.48328     14.37627  1.96312  1.28826  27.71271  0.01755     0.03327  2112.77719   5731.21795   3.2959          4451.3526     19.10854  0.00713  59104.04492   0.73793  0.04567   70904.07297  47.36868  18.35955  59140.61056     51.0018       44.21693    21.4127  52.34216   54.0     0.1187  -21.06883  0.99961 
   -1.74982  0.00969  0.98346     14.65776  1.78258  0.53551  27.14858  0.02102      0.1555   2287.7528   9082.18098  4.09007         4267.32919     20.08896  0.06819  59107.81501    0.8476  0.26305    7742.24292  48.64551   18.3668  59147.43027    51.22368       44.45641   25.77676  48.14775   54.0     0.1107  -21.63408  0.99924 
   -0.82001  0.06378  0.86428     14.72088   1.9289  0.61234  13.01538  0.06076       0.125  3122.80009   5815.58469  4.82402         4033.50721     18.01592  0.00058  59108.74482   0.75713  0.83009    4837.93717  48.99619  18.31732  59140.61056      51.011       44.23682   20.41003  52.13621   53.5    0.14022  -21.58614    0.999 
   -3.12337  0.01538  1.03845     14.32965  1.62584  1.42531  24.51408   0.0234     0.11561  2179.57339   5117.66749   4.8483         4169.92624      18.1256  0.00074  59106.44146   0.69468   0.3769   35674.65294  47.89479  18.32891  59140.61056    50.98806       44.19394   24.34755   51.7865   56.0    0.11475  -21.10562  0.99848 
   -0.79888  0.00253  0.75522     14.44291  1.85836  1.33319  22.70236  0.02707     0.02498   2235.9927   3881.24079  4.26924         4242.23951     19.04646  0.00618  59108.76595   0.67708  0.05734   12801.51063  48.67457  18.35209   59143.5219    51.08407       44.31577    21.4127  51.87442   54.0    0.10951  -21.65356  0.99995 
  -17.73414   0.0611  1.45805     14.25215  1.50861  0.61943    16.809  0.09653     0.11873   8775.9859   9183.36899  0.39193          5857.7621     20.20488  0.08904  59091.83069   7.72255   1.0271   93248.49655  47.15024  18.32821  59139.46271    50.99122       44.20016    21.4127  51.52375   43.5    0.16764  -21.31252  0.98623 
   -0.68689  0.01856  0.70799     14.54074   1.9521  1.09378  20.89758  0.03656     0.09006   2986.4309   7064.91984   4.4314         3997.80934     18.72415  0.00294  59108.87793    1.1118  0.38777    7531.89792  48.98238  18.35986  59140.61056    51.05537       44.27496   21.96836   51.7865   55.5    0.10725  -21.23885  0.99979 
   -1.74717  0.00191  0.83838     14.55171  2.15926  1.26056  20.17948  0.03624     0.45521  2452.54322   4489.56672  4.53998         4209.85891     19.21648  0.00915  59107.81766   0.72405   0.0386   11106.57243  48.71068  18.26747  59141.58554     51.0075       44.24168   21.96836  50.57787   56.0    0.11038  -21.78403  0.99997 
   -1.47393  0.01474  1.12428     14.47819   1.6663  0.80999  15.48906  0.04593     0.22636  2726.33114   7623.25482  4.85726         4092.49532     18.40437  0.00141  59108.09089   0.68677  0.22827      21624.35   48.0539  18.35359  59139.46271    50.97761        44.1933   20.80239  52.95246   54.0    0.11441  -21.40638  0.99888 
   -1.48423  0.04991  1.04251     14.43838  1.84442  1.32134  14.61046  0.04783     0.01768  2785.78232   4572.99864  4.57819         4116.11207     19.21148  0.00904   59108.0806   0.67637  0.72916   24721.67971  48.10547  18.33155  59141.58554    50.99624       44.21731   20.80239  52.95246   54.0    0.12874  -21.42721   0.9979 
   -1.58239  0.05208  1.02224     14.43873  1.62734   0.9388  16.08023  0.05043     0.45745  3227.11018   6518.68742  4.99432         4046.99579     18.52363  0.00186  59107.98244   0.99896  0.83748   20938.02479  48.14028  18.34802  59139.46271    51.01144       44.22293   20.65843  55.47561   57.5    0.14179  -21.40029  0.99695 
    -2.8544  0.11037  1.04435     14.50193  1.90138  1.16262  13.50364  0.07631     0.05482  4361.25919   5562.25716    4.254         4041.78248     18.02934  0.00059  59106.71043   1.53215  1.49042   19086.12371  48.22951  18.33755  59140.61056    51.02097       44.24345   21.96836   51.7865   57.5    0.11715  -21.16752  0.99626 
   -9.50017  0.00642  1.31512     14.24109  1.58989  1.12053   18.4975   0.0482     0.01078  3236.04238     5059.555  3.76401         4103.81864     20.14059  0.07679  59100.06466    1.1555  0.11883   84126.86523  47.30735  18.33576  59140.61056    50.98485       44.21358   20.00232  52.95246   59.0     0.1188  -20.86798  0.99887 
  -16.36938  0.06054   1.6251     14.23535   1.7391   1.0053  16.97105  0.11092     0.02707  8817.19446   9738.04839  0.50343         5550.56035     17.10607    7e-05  59093.19544    7.8704  1.02748  144276.61708  46.92822  18.32763  59140.61056    50.98352       44.19451   21.96836   51.7865   45.5    0.15757  -21.15511   0.9863 
   -0.94441  0.00795  0.90173      14.6213  1.72623  0.60656  14.93713  0.07702     0.01603  4348.94379   9225.55511  4.73395         3989.35982      17.1451    8e-05  59108.62042   1.68524  0.11873    7455.46306  48.72331  18.32217  59140.61056    50.94922       44.16322   21.96836  54.35825   52.5    0.12047  -21.48992  0.99975 
   -1.06495  0.00699  1.19795     14.36542  1.89681  1.55734  30.50759  0.02445     0.01752  2906.47789   6728.50534  4.88014         4015.65352     20.52177  0.18471  59108.49987   1.53734   0.2131   46975.94842  47.71812  18.31797  59141.58554    51.02451       44.24617   21.96836  50.57787   53.0    0.12897  -21.57842  0.99893 
   -0.99313  0.00787  0.71314     14.70285  1.77287  0.53695  15.67208  0.04558     0.14319  2610.52413   5363.12738  4.52824         4095.27255     17.02533    6e-05  59108.57169    0.6371   0.1233    3289.51995  49.29404  18.32464  59140.61056    51.01451       44.22689   24.34755  50.96808   54.0    0.12542   -21.3794   0.9999 
   -1.25225  0.00414  0.79967     14.43424  1.78096  1.27333  27.06802  0.02411      0.0821  2365.71824   7408.57322  4.78899         4074.99772     19.09634  0.00694  59108.31257   0.90367  0.11212   14315.76357  48.55786  18.33895  59139.46271    50.97885       44.19065   20.61262  54.72135   55.5    0.10397  -21.66856  0.99987 
   -1.59621  0.05557  1.11432      14.4635  2.02293  1.50435  16.31894  0.04626     0.26289  3083.85615   6175.68366  4.71243         3971.79685     20.15951  0.08021  59107.96862   0.92578  0.90682   27594.63686  48.03998   18.3247  59140.61056    50.99967        44.2155   21.96836  50.96808   57.5    0.14238  -21.44769  0.99724 
   -4.25927  0.01441  1.84761     14.44128  1.74064  0.78177  22.19615  0.02732     0.27488  2668.96128    5000.0431  4.87123         4089.24906     18.46566  0.00162  59105.30555   0.94317  0.31974   72306.56798  47.11716    18.299  59140.61056    51.00852       44.24288   20.80239  51.74384   53.0    0.12827  -21.24429  0.99456 
   -0.53225  0.07147  0.77379     14.57462  2.03699  1.12893  11.92621  0.06752     0.43723  3306.75465    6718.8492  4.24658         4091.08262     18.96991  0.00518  59109.03257   0.77792  0.85235    8031.64939  48.89578  18.31071  59141.58554    51.00251       44.22884    21.4127  51.13353   52.5    0.15029  -21.36143  0.99945 
   -3.10716  0.00485  1.39098     14.35463   1.8489  1.42992  35.05841   0.0147     0.09198  2077.81948   4755.51356  4.34162         4194.61391     19.78062  0.03352  59106.45767   0.90289  0.16987   64878.84422  47.43701  18.34761  59141.58554    50.98345       44.18286   24.34755  54.36782   54.0    0.12355  -21.25959  0.99867 
   -1.23107  0.01427  0.93024      14.3316  1.66017  1.35344  30.77496  0.02125     0.31377  2607.33506   3305.10363  4.73025         4040.15775     20.18368   0.0848  59108.33376   1.24801  0.43915   28970.99529  48.08984  18.32008  59140.61056    50.96124       44.16486   23.66039  52.67579   53.5    0.13618  -21.66447  0.99875 
   -2.06928  0.00253  0.82396     14.28302  1.56321  1.26287  30.71355  0.01947     0.13811  2233.15233   5497.79521  4.57638         4115.82801     20.43353  0.15075  59107.49555   0.91368  0.07765   26767.26245  48.20344  18.35615  59141.58554    51.10292       44.34022   19.03351  51.87442   55.5    0.12788  -21.47989  0.99982 
   -1.42014  0.00339  0.84659     14.40841  1.87688  1.46409  26.57147  0.02462      0.1488  2435.31791   3120.37237  4.18026         4224.32745     20.06764  0.06492  59108.14469   0.94006  0.09003   19045.15118  48.40715  18.35732  59140.61056    51.00863       44.22063    21.4127  52.34216   53.0    0.12497  -21.55537  0.99987 
   -1.47768  0.03675  1.09295     14.40483  1.69038  1.11209  21.53292  0.02551     0.02057  2395.47248   7931.86389   4.3129          4258.7882      16.2157    1e-05  59108.08715   0.73708  0.79144   29062.63328  47.95629  18.32629  59141.58554    51.01447       44.24319    21.4127  51.52375   53.0    0.13679  -21.48928  0.99664 
   -1.36204  0.00383  0.98372     14.45157  1.95649  1.42987  15.37065  0.04361     0.03888  2592.23585   5805.79517  4.47221           4081.907     19.53407    0.019  59108.20279   0.61612  0.05881   21973.98631  48.23267  18.32598  59140.61056     50.9882       44.19596   21.96836  54.16568   53.0    0.12917  -21.50416  0.99987 
   -1.95983  0.00387  1.24657     14.52704  1.76891  0.72469  18.99447  0.03458     0.05716  2653.52769   6754.65478  4.78805         4022.25107     18.52377  0.00186  59107.60499   0.79781  0.07344   22535.92898  47.97224  18.31533  59139.46271     50.9925       44.21459   20.00232  52.95246   53.5     0.1095  -21.43284  0.99955 
   -0.79846  0.03743  0.74061     14.53107  1.96754  1.16469  18.04234  0.03981     0.03869  2772.48068   5737.90072  4.52776         4078.78916     18.11185  0.00072  59108.76636   0.82729  0.67535    8684.98722  48.88482  18.30467  59140.61056    51.00214       44.22389    21.4127  52.34216   53.5    0.13041  -21.67787  0.99957 
   -1.13817  0.02729   0.7385     14.68244  1.91459  0.64628    18.484  0.03375     0.07375  2388.49558    3934.4831  4.32214         4111.23599     16.34057    1e-05  59108.42666   0.62903  0.50439     4185.0871  49.19252  18.32154  59140.61056    51.01507       44.23516    21.4127  52.34216   57.0    0.08985  -21.29711  0.99963 
   -1.27498  0.04481   0.8031     14.35816  1.70228  1.54377  21.49948  0.02606     0.46383  2401.70184   4261.54217  4.77584         3995.42428     20.43223   0.1503  59108.28984   0.73976  0.96333   19591.52366  48.39827  18.34579  59140.61056    50.99895       44.21253   21.96836   51.7865   52.0    0.12715  -21.74782  0.99854 
   -1.02051  0.03009  1.01397     14.64503  1.95051  0.71175  14.92386  0.05271     0.25711  3053.94843   7198.92007  4.89299         4120.82212     19.23852  0.00962  59108.54431   0.83029  0.44904    9548.78227  48.56699  18.35199  59140.61056    51.08221       44.30248   20.80239  50.57328   52.5    0.14265  -21.47664  0.99897 
   -1.72681  0.00236  1.10164     14.29795  1.64294  1.47316  33.03675  0.01947     0.01922  2487.35863    5277.9238  4.68958         4172.84598     20.12455  0.07401  59107.83801   1.21927  0.07808   46947.03215  47.72878  18.38427  59146.43324    51.22028       44.43455   28.82443  50.61026   54.0    0.10766  -21.58953   0.9996 
   -1.34046  0.00431  1.20258     14.65934  2.08051  0.72968  18.57359  0.03751      0.0176  2642.55954   4010.81104  4.91349         4067.70545     17.65536  0.00025  59108.22437    0.7737  0.08003   13413.46724  48.29925  18.34919  59140.61056    51.00701        44.2233   20.65843  53.09643   54.0    0.11725  -21.48449  0.99971 
   -4.26163   0.0017  1.74421     14.39228    1.784  0.93573  17.19708  0.03595     0.24224  2459.67649   4230.55586  4.77397         4169.78166     19.54108  0.01931  59105.30319   0.62064  0.02916   82766.45199  47.11919  18.31062  59139.46271     50.9899       44.20713   20.61262  52.34216   54.5    0.12374  -21.22904  0.99958 
  -17.40601   0.0249  1.78345     14.36775  1.84375  0.69649  19.79449  0.07827     0.17709  7532.44362   9589.52382   0.7253         5742.15054     19.10905  0.00714  59092.15882   6.69951  0.49282  100123.51874  47.03149  18.35484  59140.61056     51.0006       44.21347   24.34755   51.7865   44.5    0.15633  -21.19202  0.99264 
     -3.182  0.01109  1.09638     14.63342  1.59188   0.4658  19.63993  0.02819     0.01778  2264.15339   6069.20098  4.31696         4125.94734     16.08082    1e-05  59106.38283   0.60059  0.21784    9612.01869  48.40802  18.32074  59139.46271    50.96985       44.18216   20.65843  53.09643   53.5    0.11697  -21.13636  0.99885 
   -2.63455  0.00237  1.19458     14.32858  1.56325  1.03529  22.87772  0.02566     0.01686  2239.80148    6676.1822  4.88554         4101.25267     17.82087  0.00037  59106.93027   0.68463  0.05422   45615.47454  47.64933  18.39739  59141.58554    51.01493       44.22866   21.16828  54.36782   54.0    0.11493  -21.26047  0.99962 
    -1.8308  0.00187  1.06539     14.59075  2.14396  0.98764   22.0575   0.0322     0.02682  2529.80832   4747.63049  4.92743         4130.63505     18.47132  0.00164  59107.73403   0.84209   0.0412   14877.97598   48.3725  18.32907  59140.61056    51.00911       44.20705   26.03958  50.09447   55.5    0.10632  -21.50987  0.99991 
   -2.08858  0.01876  1.07285     14.21112  1.37581  1.29746  22.50457  0.03342     0.01326  2941.80034   6805.90778  4.70242         4076.20951     18.77129  0.00328  59107.47625   1.16178  0.42211   55617.81189  47.60112  18.37642  59141.58554    50.99108       44.20262   21.96836  54.16568   54.0    0.12174  -21.37294  0.99718 
   -2.96588  0.05715  0.91054     14.34793   1.6353   1.4455  18.24438  0.03372      0.2805  2688.94616   3765.94159  4.10096         4187.50811     18.22017  0.00092  59106.59894    0.7869  1.04265   25359.73088   48.1597   18.3041  59140.61056    51.02332       44.25476   20.45399  50.92168   55.5    0.11844  -21.16087  0.99741 
   -1.43112  0.00352  0.70834      14.4252   1.5244  0.83777  21.83773  0.02849     0.02022  2251.94297   6170.87771  4.58875         4155.30988     16.64676    2e-05   59108.1337   0.66062  0.07685   10022.99513  48.75047  18.33816  59140.61056    51.02412       44.23951   21.96836   51.7865   56.5    0.13256  -21.46254   0.9999 
  -17.45686  0.04297  1.33019     14.38098   1.8827  0.83295  17.64668  0.13377     0.05795  9433.72175   9768.91251  0.36231         5544.73954     19.04168  0.00612  59092.10796    9.3682   0.7582   53513.10961  47.56734   18.3499  59139.46271    50.98133        44.1903    21.4127  54.72135   55.5    0.11255  -20.83958   0.9943 
    -3.7284  0.00308  1.16856     14.48744   1.9963  0.83643  22.79394  0.02764     0.22962  2488.61104   6014.66244  3.78835         4122.66798     20.53512  0.19048  59105.83642   0.84209  0.07028   26819.65832  48.00532  18.35121  59140.61056    51.04469       44.25712    21.4127  52.34216   55.5    0.11704  -21.27532  0.99968 
   -2.85812   0.0414  1.58058     14.70071  1.98026  0.56781  17.21251  0.03387     0.13508  2628.59061   4833.87477  4.71347         3987.69516     17.56594   0.0002  59106.70671   0.70944  0.71259   18228.56606  47.90718  18.35713  59140.61056    51.02929       44.24335   21.96836   51.7865   54.5    0.13144  -21.23053  0.99358 
   -1.47979  0.04012  0.80674     14.36527  1.44358  0.97895  21.15466  0.02958     0.03571  2510.93843   5517.94378  4.75422         4164.03822     19.01771  0.00579  59108.08504   0.79562  0.84876   16225.36243  48.40462  18.31061  59141.58554     51.0663         44.298   22.78922   50.4979   55.5    0.13249  -21.43328  0.99821 
   -1.09047  0.00942  0.81316     14.24689  1.43558  1.49797  21.94103   0.0365     0.04801  2999.13635   4226.19385  4.69988         3967.77627     16.53252    2e-05  59108.47435   1.17727   0.2067   28275.68631   48.1541  18.27881  59146.43324    51.15157       44.37897   23.79189  51.75333   54.0    0.12949  -21.34944  0.99949 
   -4.49797  0.00403  1.41436     14.34303  1.50706  0.80503  23.16162  0.03072     0.14782   2936.5112   7691.25915  4.23715         4086.70667     17.94326  0.00049  59105.06686    1.1914  0.09339   57677.54669  47.38485   18.3247  59139.46271    50.98775       44.19836   24.34755  50.96808   54.0    0.12415  -21.13417  0.99888 
   -4.79535  0.00785  1.74301     14.32869  1.82499   1.3337  12.18824  0.06788     0.01238  3275.59498   6360.98685  4.55855          3971.0797     16.27371    1e-05  59104.76947    0.7801  0.09572   113316.8481  46.99321  18.34969  59140.61056    50.97931       44.20033   20.61262  52.34216   55.5    0.12084  -21.10889  0.99867 
   -0.64961  0.00105  0.75853     14.60208  1.94633  0.82769  28.94922  0.02397     0.42732  2544.88394   3120.67154   4.2406         4184.26042     16.62724    2e-05  59108.91522   1.11841  0.03054     6498.5287   48.9853  18.36687  59141.58554    50.98579       44.20355   23.66039  50.09447   56.5    0.09009  -21.29392  0.99998 
   -2.25779  0.04006  1.18069     14.53912  1.86049  0.81739   13.9675  0.04948     0.26145  2814.80789   5185.18751  4.35905         4059.59079     16.52979    2e-05  59107.30704   0.66015  0.55956   20112.51891  48.09074  18.35462  59141.58554    51.00386       44.21543   21.96836   51.7865   54.0    0.12806   -21.3049  0.99748 
