 texplosion  fnickel     Pspin  log(Bfield)      Mns  thetaPB   mejecta    kappa  kappagamma      vejecta  temperature    alpha  cutoff_wavelength  log(nhhost)      A_V         MJD0   kenergy   mnickel                 TSD   log(L0)  Peak_mag     Peak_MJD  log(E_rad)  log(Peak_lum)  Rise_Time     E_fold  tau_1  delta_m15     r_peak     frac 
  -16.23449  0.36226   2.57988     14.15814  1.51752  0.75343  12.52999  0.07686     0.16283   9121.19606   7246.02761  0.69796         2593.64249     18.67655  0.00264  58998.23551   6.21844   4.53917        452752.65411  45.97092  19.53433     59054.49    51.29382       44.50124    28.2519   43.30076   63.0    0.16844  -21.54187  0.83672 
  -18.48438  0.02087   2.64572     13.96491  1.59749  1.14629   7.05833  0.19907      0.1704   9359.00382   8160.35672  2.37271         2319.11891     18.33218  0.00119  58995.98562   3.68798   0.14733       1220440.04975  45.54068  19.54221     59054.49    51.23072       44.43509    33.4952   45.34784   47.5    0.15736  -21.57867  0.99384 
   -17.8686  0.12966   2.81742     13.87542  1.50688  1.31495  11.02115  0.08459     0.12844   9128.59174   6878.43009  1.38372         2272.16609     18.11183  0.00072   58996.6014    5.4785   1.42897       1971318.15171  45.25247  19.54043     59054.49    51.19304        44.3598   32.79959   49.12052   59.5    0.16436  -21.54567  0.93045 
  -10.74788  0.43709   1.70829     14.34906  1.82859  1.03007  13.61365  0.07576     0.41598   9730.69315   7764.79474  0.24724         2981.61382     16.60262    2e-05  59003.72212   7.68934   5.95038         99295.01834  47.06891  19.54637     59054.49    51.20821       44.37029    34.2137   47.50906   57.0    0.19794  -21.55289  0.92558 
  -16.91188  0.22129   2.95604     13.94103  1.58071   1.3366   9.70487   0.1101     0.14614   9107.47063   6802.06044  1.56721         2519.41213     17.50964  0.00018  58997.55812   4.80189   2.14762        1682748.7561  45.30026  19.51878   59055.6182    51.16842       44.34929   34.23282    47.7452   60.5     0.1588  -21.54862  0.89699 
  -19.18404  0.48309   3.70673     14.01869  1.85418  1.17095   6.60486  0.13715     0.36407    8800.6909   6399.48541  3.34321         2189.79828      16.2525    1e-05  58995.28596   3.05158   3.19072       2170569.51698  45.06244  19.56009   59053.1427     51.1939       44.35583   35.58713   48.63158   73.5    0.14331  -21.51899  0.82453 
  -15.34237  0.22731   3.22154     13.95213   1.7288  1.43445  10.36159  0.06854     0.08233   9180.34856   4410.68872  0.67015         2646.72359     19.63902   0.0242  58999.12763   5.20921   2.35532       2076911.04393  45.17304  19.52993   59055.6182    51.24533       44.41042   33.23199   47.57078   65.5    0.17837  -21.55655  0.88399 
  -18.14682  0.43553   2.68414     13.84921  1.40305  1.44028   7.21379  0.10485     0.09725   9119.48575   7291.92474  0.48648         2441.57949     17.03613    6e-05  58996.32318   3.57875   3.14185       1879684.31248  45.28422  19.54917     59055.43    51.19662       44.38432   32.42181    47.8822   63.0    0.17836  -21.53067  0.85787 
  -13.51157  0.25843    3.0112     14.23555   1.7009  0.75541  13.83161  0.07019     0.14749   8733.09238   7123.76228  1.11454         3059.27269      18.2864  0.00107  59000.95843   6.29268   3.57452        484021.24764  45.85718  19.54638     59055.43    51.29289        44.4841   30.46209   44.79719   60.5    0.16707  -21.52325  0.84988 
  -19.97181  0.25983   3.25556     13.99395  1.77119  1.18858   6.91029   0.1368     0.42501   9107.37226    7609.7073  2.43447         2070.08661     17.83794  0.00038  58994.49819   3.41908    1.7955       1792360.23039  45.23843   19.5416     59054.39     51.1443       44.30906   35.46869   49.12776   59.0     0.1582  -21.53466  0.91032 
  -16.50901  0.39717   2.53138     14.19699  1.75181  0.92147   8.16793  0.14491     0.36913   9537.40096   8376.01345  0.41963         2646.50651     18.34009  0.00122  58997.96099   4.43199   3.24405        420755.65852  46.08159  19.52412     59055.43    51.24526       44.43945   31.87115   45.34784   47.5      0.172  -21.56235  0.90258 
   -19.1037  0.05886   2.99981     13.96844  1.64098  0.98601   8.63466  0.13754     0.27735   9468.29282   7641.27818   2.4941         2278.39218     18.71604  0.00289   58995.3663    4.6176   0.50825        1585736.2533  45.32953  19.53279     59055.43    51.21147       44.39123   32.25397   46.09032   53.0    0.15544  -21.58493  0.97411 
  -16.55267  0.09274   3.14025     14.08393  1.59502  0.67418  10.09614  0.10395     0.22043   9050.27794    6796.8548  2.36038         2684.05888     19.00659  0.00564  58997.91733   4.93295   0.93636        992299.80748  45.48104  19.53837     59054.39    51.29621       44.50379   29.67789   43.95734   59.0    0.15953  -21.57207  0.94689 
  -16.39957  0.36048   2.77483      13.9737  1.33768  0.74862   7.91444  0.11743     0.15048   9813.17665   7086.71547  0.65122         3141.64155      19.6361  0.02403  58998.07043   4.54639   2.85297       1079550.25968  45.47548  19.52726     59055.43    51.29719       44.51355   25.08642   42.37839   61.5    0.17618  -21.60559  0.85238 
  -18.28228  0.03593   3.15369      13.9226  1.67194  1.12565   6.69143  0.15433     0.08574   9343.97589   7294.31254    2.646         2299.56511     17.83385  0.00038  58996.18772   3.48506    0.2404       2205308.51151  45.15096  19.54825     59055.43    51.27926       44.50145   27.04615   43.13119   55.5    0.16377  -21.57242  0.98662 
   -17.1406  0.10158   3.17057      13.7896  1.63509  1.55393   3.37504  0.17599     0.30168   8651.57368    7044.5057  1.92021          2197.5825         19.3  0.01108   58997.3294   1.50694   0.34285       4021940.37221  44.87568  19.53808     59055.43    51.23214        44.4118   32.77859   46.95621   72.5    0.15842   -21.5175     0.98 
  -20.85789  0.17704    3.1684     13.95045    1.795  1.18442   4.64298  0.15442     0.21314   8548.58492   7216.95178  0.81895         2292.09873     18.88455  0.00426  58993.61211   2.02401   0.82198       2102107.11543  45.19858  19.55913     59054.49    51.25019       44.41323    28.6702   47.48082   64.0    0.16421  -21.50963  0.95969 
   -13.1111  0.25977   2.83242     14.17365  1.72265  1.02296  10.89463  0.10191     0.09854   8475.00288   7335.33643  1.43976         3125.90171     17.84328  0.00039   59001.3589   4.66788   2.83011        576809.19164  45.83969   19.5272   59055.6182    51.26508       44.47598   31.30193   43.95734   54.5    0.16183  -21.51106  0.89198 
  -10.52381  0.41165  23.38481     12.12886  1.76492  0.42918   33.4632  0.02086     0.37417  10532.92486   5546.93124   4.2207         3072.66359     18.53582  0.00191  59003.94619  22.14586  13.77496   495090751230.9607  38.08302  19.54116     59054.39    51.21764       44.40946   33.41558   46.31922  117.5     0.1344  -21.54675      0.0 
  -19.23345  0.06309   3.08277      13.8667  1.65628  1.06383   4.37413  0.17562     0.14325   9308.52614   3142.37152  1.78857         2022.83164     19.62995   0.0237  58995.23655    2.2609   0.27598       2700459.72279  45.07866  19.62747     59053.41    51.25225       44.23147    33.1319   100.3457   66.0    0.15689   -21.5876  0.98505 
  -15.90076  0.00323   3.70937     14.02123  1.84151  0.86225   4.37082  0.19145     0.38565   8535.01878    7137.5203  4.49336         2637.25944     19.11416  0.00723  58998.56924   1.89933   0.01413       2133716.38473  45.06628  19.52237     59054.39    51.20222       44.39262   33.96308   46.83969   64.5    0.16284  -21.55407  0.99904 
  -19.94917   0.0258   3.27778     14.05026  1.74202  0.66033   4.50517  0.16458     0.08433   8341.57988   6163.86126  2.30358         2268.42664     18.70678  0.00283  58994.52083   1.86997   0.11624        1378851.2543  45.33922  19.52666     59054.49    51.21443       44.39491   33.23199   47.07202   66.5    0.15345  -21.51416  0.99333 
   -8.77437  0.41313   1.02328     14.19844  1.17753  0.99105  19.27191  0.05904      0.1432   10190.5557   7805.12902  0.79687         2916.47307     18.08094  0.00067  59005.69563  11.93844   7.96186         45908.71111  47.65793  19.55134      59053.5    51.23274       44.41622   34.85604   49.19291   67.0    0.18108  -21.56223  0.94199 
  -16.15882  0.27607   2.86384     13.91685  1.57231  1.46266   6.27085  0.16534     0.09124   9750.32435   7090.72106  2.27359         2024.68517     18.87608  0.00418  58998.31118   3.55625   1.73117       1756136.16018  45.30693  19.54511      59053.5    51.21921       44.36141   34.72313   50.55375   54.5    0.17088  -21.58632  0.91947 
  -18.89931  0.07493   3.13622     14.10699  1.72961  0.72005   7.74043  0.13514      0.1738   8866.18896   6788.45001  1.54374         2555.10411     18.59432  0.00218  58995.57069   3.62966   0.57997        965139.39504  45.52939  19.54475     59054.49    51.21542       44.39179   33.96308   46.34093   59.5    0.15721  -21.54654  0.97028 
  -17.46266  0.24125   2.53805     13.82423  1.43215  1.49229   6.50914  0.11579     0.17686   9224.39899   7068.19924  0.07982         2419.20628     18.58065  0.00212  58997.00734    3.3039   1.57036       1924567.09484   45.3315  19.53244      59053.5    51.23865       44.41613   32.60224   47.70177   59.5    0.18524  -21.55352  0.93299 
  -16.81178  0.10567   2.89074     13.75886  1.38337  1.36585  11.40797  0.07794     0.02476   8683.28127   7377.56404  4.39123         2330.94814     19.05353  0.00628  58997.65822   5.13101   1.20545       3258698.70245  44.97472  19.52927     59056.43    51.21172       44.37872   35.45422   48.42562   57.5    0.15389   -21.5504  0.92927 
  -17.08948  0.20779    3.4441     14.22778  1.99501   0.7301   8.64826  0.13207     0.22311   9180.97271   7800.73587  4.61903         2131.14218     19.72961  0.02981  58997.38052   4.34844   1.79704        769755.44794  45.60829  19.52193     59055.43    51.18525       44.41983   31.87115   43.55596   56.5    0.15096  -21.59246  0.91565 
  -15.74014  0.02066   3.30533     13.82706  1.65155  1.44497   5.11821  0.17239     0.40374  10029.37735   7009.43167  3.92762         2197.29212     17.43005  0.00015  58998.72986    3.0711   0.10576       3715456.12624   44.8783  19.54659   59055.6182    51.23439       44.41586   32.60224   46.40864   61.0    0.16955   -21.6049  0.99332 
  -15.14153  0.13229   3.43455     13.86854  1.67777  1.55914    5.4118   0.1585     0.40503   9534.45975   7544.11117  2.89536         2534.50185     19.30747  0.01128  58999.32847   2.93468   0.71594       3366662.81301  44.89464  19.54834     59056.49    51.19557       44.34007   36.00559   50.07476   60.0    0.16975  -21.58643  0.95431 
  -15.98101  0.36136   3.03738     14.03277  1.65997  1.16233   9.04925  0.11459     0.10005   9182.19918   7377.70669   0.8299         3045.92388     18.67351  0.00262  58998.48899   4.55127   3.27003       1222879.52661  45.43656  19.54658     59054.39    51.16736       44.31094   32.58053   51.34274   58.0    0.16381  -21.57238  0.85386 
  -15.91798  0.04464   3.33462      13.8925   1.6421  1.23793   6.25417  0.16971     0.38614   9139.16966   7360.26708   4.5982         2597.89697     17.96637  0.00051  58998.55202   3.11609   0.27919       2781643.12677  44.99385  19.51603     59055.43    51.23169       44.41834   33.32609   45.68479   57.0    0.15724  -21.57871  0.98219 
  -21.00261  0.10809     2.547      13.8995  1.51816  1.04779   8.72658  0.10981     0.15639   8823.84032   7799.32762  0.40406          2774.6656     19.86213  0.04044  58993.46739   4.05309   0.94323       1452756.06634  45.47591  19.53048     59055.43    51.26739       44.47548   29.67789   43.95734   56.0    0.16299  -21.58339   0.9617 
   -11.5947   0.3788  12.33326     14.49561  1.71953  0.56831  34.45606  0.02168     0.02184  10784.70286   4445.01175  2.64905         3117.42424     19.02439  0.00588   59002.8753  23.90612  13.05189       2478328.36901  43.92794  19.53234     59055.43    51.20634       44.40554   31.27227   44.66884   88.5    0.12182   -21.5539  0.08135 
  -17.77216  0.24151   2.70517     13.88607   1.4985  1.37766   8.20246  0.10825     0.21583   9239.63849   7109.13749  0.45488         2413.53916     17.96608  0.00051  58996.69784   4.17716   1.98101        1720750.2663   45.3444  19.53361   59055.6182    51.23935       44.42606   31.87115   45.34784   59.5    0.17572   -21.5469  0.91234 
  -17.07784  0.37907   2.95807     13.94414  1.54767  1.28858   7.03423  0.14289     0.24445   9269.74028   7330.82781  1.60852         2483.09346     18.96425  0.00512  58997.39216   3.60561   2.66646       1626377.77666  45.30528  19.53337     59055.43    51.23478        44.4465   30.62993   44.79719   60.0    0.16807  -21.55724  0.87158 
   -16.0176  0.09055    3.0191     13.81026  1.51329  1.36386  11.07895  0.07017     0.07847   8857.58821    6971.0548   2.6861         2392.97126     19.86515  0.04073   58998.4524    5.1851   1.00324       3068904.35429  45.00203  19.51386     59056.43    51.34772       44.56003   19.73337   42.98269   66.5     0.1623    -21.572  0.94307 
  -16.53413  0.31482   2.22518     14.21687    1.729  0.95203  14.12147  0.08568     0.30872   9238.58974   7856.42289   0.5416         2363.03001     18.46008   0.0016  58997.93587   7.18983   4.44571        292821.63852  46.34531   19.5316   59055.6182    51.25142       44.44565   32.77859   46.06446   53.5    0.16413  -21.55188  0.89604 
  -17.04442  0.10711   3.58047     14.01862  1.79119  1.03046   9.94952  0.10203     0.12195    9101.6958   6954.80879  4.21105         2499.82568     17.74557  0.00031  58997.42558    4.9167   1.06569       1957056.65238   45.1225  19.52651     59054.49    51.25343       44.49914   30.46209   41.99801   60.5    0.15826  -21.55601  0.93468 
  -16.33313  0.22035   3.22777     13.99477  1.85332  1.43159   5.69363  0.15366     0.38124  10143.32826   6689.90887  0.21038         2265.92376     18.06587  0.00065  58998.13687   3.49444    1.2546        1836672.7831  45.25496  19.54188     59055.43    51.25336       44.44372   34.04586   44.79719   57.0    0.19132  -21.60567  0.94062 
  -17.43473  0.26724   2.46327     13.97999  1.52183  1.06129  11.58594   0.0934     0.09888   9724.57042   7234.07096  0.28419         2631.70527      20.0274  0.05917  58997.03527   6.53581   3.09622        940199.48451  45.69497   19.5306   59055.6182    51.26334       44.49211   30.46209    43.0053   56.0    0.17127  -21.64513  0.89195 
  -17.03395  0.00892   3.26258     13.97653  1.74529  0.98299   4.33803  0.24705     0.38793   9593.21246   7001.00916  4.62425         2130.64668     17.05357    6e-05  58997.43605   2.38148   0.03869       1921999.88899  45.19984  19.65051      59057.5    51.22855       44.24343   34.75208   95.14174   58.5    0.16307   -21.5926  0.99781 
  -17.93064  0.07747   3.27969     14.05551  1.70485  0.82224   8.78129  0.12288     0.38857   9106.47331   7180.25044  3.12107         2456.22165     16.86393    4e-05  58996.53936   4.34396    0.6803       1318725.39546  45.34871  19.53082     59054.39    51.26246        44.4638   28.83804   44.79719   58.0    0.15836   -21.5525  0.96133 
  -19.20769  0.04907   3.22416     13.91134  1.68744  1.10706   8.40999  0.10897     0.17085   8989.10006   6630.68607  2.79691         2214.80719     18.19485  0.00087  58995.26231   4.05373   0.41265       2450171.82587  45.09004  19.54154     59054.49    51.20339       44.38416   34.04995   46.25407   64.0    0.15986  -21.54319  0.97651 
     -13.55  0.36005   4.48967     14.32948  2.05107  0.64331   9.04993  0.09655     0.22441   9128.41399   7837.33488  2.45084         3010.49762     16.90217    4e-05     59000.92   4.49845    3.2584         841915.8146  45.35113  19.54217     59055.43    51.27909       44.50112   30.46209   41.33931   62.0    0.17694  -21.54806  0.78504 
  -18.85505  0.22874    2.6847     13.87605  1.49759  1.40479   8.92917  0.10872     0.18263   9455.13482   8151.43834  0.32978         2371.75383     16.97242    5e-05  58995.61495   4.76183   2.04246       1773808.30655  45.33754  19.53684     59054.49    51.27467       44.47893   31.30193   43.95734   53.0    0.16765  -21.56997    0.911 
  -18.08982  0.25204   2.41423     13.89627  1.40507  1.24975   11.9353  0.07763     0.06123   9056.30563   6987.55103  0.63167         2078.93942     17.91314  0.00045  58996.38018   5.83933   3.00816       1226118.42841  45.56246  19.53425   59055.6182    51.24394        44.4018   34.85604   48.49077   61.0    0.17153  -21.54539  0.88691 
  -16.45189   0.3996   1.93822     14.14153  1.43315  0.69269  14.09531  0.06433     0.09916   8811.43001   7310.93679  0.43724         2312.07377      20.2108  0.09027  58998.01811   6.52822   5.63253        260524.55557  46.43448  19.56879     59055.43    51.21748       44.38854   33.23199   48.49077   66.5    0.16391  -21.61789  0.87087 
  -15.80947  0.30969   3.33827      13.9023  1.62291  1.32769   6.57803  0.12935     0.16818   9651.18119   6954.69365  1.22824         2735.84237     19.50614  0.01782  58998.66053   3.65497   2.03715       2633649.63077  45.01154  19.52442     59055.44    51.17955       44.39406   32.25397   46.09032   63.5    0.17171  -21.57851  0.88133 
  -15.06252  0.33215   5.34458     14.61659  1.52346  0.40624  35.19809  0.03084     0.06716   9618.23692   6336.38985  2.76148         3154.48854     18.27547  0.00105  58999.40748  19.42394  11.69117        236207.19271  45.62256  19.53329   59055.6182    51.23282       44.44165   31.79153   45.42747  103.0    0.11511  -21.58199  0.31698 
   -21.8069  0.01438   3.34309     14.02377   1.6733  0.63126    3.6461  0.28948      0.0352   8078.43672   8049.06162  3.31897         2878.59547     17.30382  0.00011   58992.6631   1.41942   0.05242       1556470.55262  45.25198  19.54676     59056.43    51.18232       44.32419   34.94943   51.06117   47.5    0.16185  -21.54597  0.99665 
  -20.84544  0.17743   2.81851     13.99042  1.75962  1.29696   6.14971  0.17818      0.1089   9019.74422   7489.61045  0.76623         2129.78939     16.56205    2e-05  58993.62456   2.98449   1.09113       1356524.21648   45.4818  19.52657     59054.49    51.26019       44.45942   31.15454   46.06446   53.0    0.15743  -21.54371  0.95686 
   -17.7494  0.19963   3.37394     14.07563  1.87005  1.03049   9.26002  0.11214     0.27382    9427.2464   6767.65342  2.35257         2077.00124     16.24578    1e-05   58996.7206   4.90918   1.84858       1395349.51095  45.33974  19.53769     59054.49    51.15657       44.32239   34.23282   49.14224   60.5    0.15683  -21.55988  0.90884 
  -17.10474  0.12543   3.65476     14.25749   1.7769  0.41349   5.06306  0.16326      0.4393   9324.76259   6487.74722  2.70427         2615.09204     17.17456    8e-05  58997.36526   2.62613   0.63508         673319.0025  45.56457  19.53253     59054.49    51.20822       44.41696   32.00336   44.14767   68.0    0.16002  -21.57061  0.95745 
  -14.73809  0.13113   3.95761     13.96457  1.81502  1.21093   6.63164  0.14422     0.36934     9305.746    7218.6458  4.97461         2822.58116     18.60398  0.00223  58999.73191   3.42571   0.86958       3107551.55039  44.84044  19.54287     59053.41    51.21798       44.38713   31.27227   47.07202   60.5    0.16894  -21.57389  0.93563 
  -17.69675  0.19428   2.56407     14.04685  1.53644  0.80544  10.35064  0.09634     0.13113   8735.75725   7131.16339  1.58764         2615.97717     20.24054  0.09666  58996.77325    4.7119   2.01096        755934.76136  45.75902   19.5598     59054.49    51.22775       44.44965   32.77859   46.06446   57.5    0.16379   -21.6299  0.92235 
  -15.02953  0.18752   2.90534     14.05822  1.62778   1.0486   9.98936  0.11103     0.16009   8835.45049   7259.14422  1.60212         2837.26206     17.85766   0.0004  58999.44047   4.65181   1.87316        975820.20112  45.56468  19.52616     59054.49    51.24961       44.46157   32.25397    43.0053   55.0    0.16314  -21.53351  0.91554 
  -17.78837  0.30544   3.39656     13.93028  1.74679  1.34456   6.92437  0.11497     0.15651   9483.47842    7070.7618  0.59465         2868.99295      19.3833  0.01343  58996.68163   3.71486     2.115       2579762.94142  45.03743  19.50647     59055.44     51.2666       44.50108   30.46209   41.21341   66.0    0.17097   -21.5776  0.88526 
  -13.36969  0.35403   7.64456      14.5602  1.59509  0.46743  34.92629   0.0262     0.05419   9994.43204   5876.05277   2.7144         3153.88906     18.62107  0.00232  59001.10031  20.81114  12.36494        655991.55145  44.88803  19.55936      59053.5    51.36299       44.58622   30.46209   41.37621  107.5    0.11628  -21.57593  0.18477 
  -16.64154  0.10148   3.12475     14.05034  1.73775  1.10041   9.04127  0.14909     0.46325   8987.72006   7649.40093  2.55483          2832.4162     18.63375  0.00239  58997.82846   4.35668   0.91755       1249529.05598  45.42245  19.59791     59049.45    51.25863       44.25513   30.21147   95.22065   53.0    0.15608  -21.56405  0.95464 
  -19.27607  0.29258   2.88332     13.84772   1.5334  1.48187   5.61136  0.13838     0.09602    9160.5953   7505.40696  0.45352         2411.13321     16.26254    1e-05  58995.19393   2.80894   1.64176       2386838.46481  45.15689  19.55067     59054.49    51.33239       44.54715    28.6702    43.0053   58.5    0.16891  -21.53785  0.91926 
  -14.41702  0.18076   3.40711     13.95431  1.75832   1.4112   5.88306  0.14379     0.30266   9888.91908   7752.21064  1.12004         2698.09469     18.92701   0.0047  59000.05298   3.43185   1.06341       2339186.00199  45.08011  19.66586   59055.6182    51.18607        44.2452   32.43369   85.83088   53.5    0.18987  -21.58573  0.93917 
  -16.70262   0.4137   3.22611     13.93949  1.70135  1.51061   5.78814  0.15914     0.20409  10210.89837   7086.35624  1.01289         2136.90135     19.57814  0.02103  58997.76738   3.59993   2.39456       2172689.54496  45.14528  19.58944  59050.66721    51.25888       44.24336   29.91071   97.31329   61.0    0.17567  -21.61427  0.87943 
  -17.27254  0.05461   3.02252     14.01078   1.6745  1.03645   8.03098  0.15435     0.31991   9292.65051    7388.3797  2.66037         2555.95457     17.67411  0.00026  58997.19746    4.1369   0.43853       1351669.94609  45.40112    19.526      59053.5    51.21239        44.3978   30.64252   46.40864   51.5    0.15657  -21.57988  0.97799 
  -13.54456  0.35078   2.60745      14.0847  1.59561  1.14555   9.51619  0.11695     0.10611   9468.29009   7127.84925  0.93871         2819.73206     18.54511  0.00195  59000.92544   5.08901   3.33811        681982.72868  45.80557  19.53774      59053.5    51.33857       44.53403   17.94148   44.13319   54.0    0.17922  -21.55975  0.88045 
    -12.373  0.29294   3.52044     14.26108  1.73072  0.68749  10.36257  0.10562     0.23663   8923.68876   6667.78655  3.62284         2809.90185     17.29613  0.00011    59002.097   4.92247   3.03565        598523.46487   45.6368  19.53726     59055.43    51.18999       44.36141   34.75932   47.70901   61.0    0.16331  -21.53869  0.83292 
  -12.57301  0.37726   13.9357     13.88494  1.67819  0.27311  36.41872  0.02043     0.02977  10975.45257    5216.8957   3.2922         2996.11091     18.76538  0.00324  59001.89699  26.16958  13.73925      51408582.36135  42.49439   19.5292     59055.43    51.21818       44.38938   33.32609   47.47668  104.5     0.1285  -21.51974  0.01019 
  -15.81399  0.36719  10.01211     15.04408  1.72696  0.25169  37.29343  0.02275     0.02392  10366.62678   4184.84654  2.38499         2839.20061     18.44254  0.00154  58998.65601  23.90751   13.6937        131216.49407  45.38709  19.54825   59055.6182    51.21184       44.42377   30.46209   44.79719   92.5    0.11358  -21.53349  0.11931 
  -17.11449  0.05829   3.37671     13.95116  1.78381  1.21276   5.63169  0.15176     0.16939   9057.11033   7164.47333  3.06482         2218.09729     17.91808  0.00046  58997.35551   2.75578   0.32826       2365042.65072  45.08937  19.52675     59056.43    51.26909       44.49026   28.83804    43.0053   58.5    0.16584  -21.53898   0.9811 
  -21.06684  0.17385   2.37439     13.79374  1.33586  1.35893   8.01805  0.12611     0.24738   9142.08839   6814.42794  0.38325         2317.13392      17.5795  0.00021  58993.40316   3.99749   1.39394        1807989.0325  45.38631  19.54246     59054.49     51.2032       44.36965   33.49449   47.14044   57.5    0.16932  -21.54957  0.94172 
  -15.13545  0.19805   2.89145     13.79185  1.46826  1.56557   5.97321  0.12871     0.18645   9143.98545   7629.93732  1.21177           2804.417     20.01082  0.05696  58999.33455   2.97924   1.18301       2972729.34249  45.04026  19.52998     59055.43    51.27771       44.53004   28.83804   41.21341   61.5    0.17387  -21.60989  0.93617 
  -12.01947  0.24153   3.73871     13.96282  1.75207  1.29519   5.93758  0.15843     0.27318   9819.31216   8034.01834  4.98111         2537.48827     18.96789  0.00516  59002.45053   3.41506    1.4341        2698853.9731  44.93577   19.5382     59054.49    51.20496       44.37209   31.27227   47.07202   54.5    0.17347  -21.58873  0.90401 
  -16.07398  0.19873   3.27012     14.04868  1.78719  1.39292  10.77993  0.10066     0.11182   8658.42586   6983.97672  1.31682         3143.95693     17.81625  0.00036  58998.39602   4.82082   2.14227       1418249.50402  45.34014   19.5493     59054.41    51.16165       44.29654   30.46209   51.96474   57.0    0.16098  -21.53474  0.89573 
   -17.9199  0.03113   3.37313     13.91568  1.80463   1.3152     5.462  0.17275     0.28466   10059.4203    6814.4123  2.30821         2043.68394     18.18544  0.00085   58996.5501   3.29705   0.17004       2811294.40097  45.02026  19.53729     59057.41    51.30481       44.50406   24.17246   44.79719   59.5    0.17306  -21.60565  0.99028 
  -14.48594  0.14281   3.64586     14.17454  1.91361  0.85084    9.7327  0.12443     0.40974   9375.59631   7314.92969  4.27616         2568.61448     17.23659   0.0001  58999.98406   5.10338   1.38988       1057300.42091   45.4029  19.54286   59055.6182    51.17887       44.33641   34.23282   48.40391   54.5    0.15634  -21.56727   0.9216 
  -12.50682  0.41074   1.44311     14.21934  1.45946  0.96886    13.803  0.10521     0.34878  10463.12339   6830.92095  0.76149          2002.0694     17.12724    7e-05  59001.96318   9.01412   5.66948        102786.23163   47.1025   19.5216     59055.43    51.23736       44.42824   32.51538   45.59537   57.5    0.17781  -21.58161  0.92879 
  -15.43288  0.32964   3.32906     13.88694  1.51562  1.23817   7.20278  0.10964     0.33457   8992.46069   7553.54016  2.29012         2666.64378     17.32194  0.00012  58999.03712   3.47444    2.3743        2625215.1718  44.98563   19.5316     59054.49    51.19144       44.34255   36.02471   49.14224   63.0    0.16859  -21.53148  0.85253 
   -12.2193  0.38424  16.04445     12.44863  1.71324  0.87794   36.2244  0.02102     0.11242  10726.71104    5375.8111  4.48745         2971.18511     18.59735   0.0022   59002.2507  24.86346  13.91904   51883365409.84774  39.37698  19.55434     59054.39    51.23021       44.43651   33.41558   47.21936  117.0    0.12451  -21.54173    7e-05 
  -16.70515  0.15246   3.35232     13.90623  1.70159   1.4205   6.22701  0.15571     0.14747   9537.61605   7649.88651  2.78927         2474.21641     19.30433   0.0112  58997.76485   3.37899   0.94935       2734689.76012   45.0121  19.52506     59054.49    51.30878       44.50308   19.73337   45.55917   56.0    0.16678  -21.59528  0.94431 
  -16.05081  0.25035   3.55304     13.99784   1.8189  1.40337   7.66691  0.12957     0.22585   9581.30871   7423.32463  2.36392         2497.85492     18.10663  0.00071  58998.41919   4.19853   1.91941       2153497.67942  45.09431  19.52067     59055.44    51.22399       44.45753   31.15454   44.27257   57.5    0.16252  -21.57706   0.8923 
  -19.32577  0.26881   3.31377     13.98021  1.79497  1.14097   6.91929  0.14904      0.0767   8789.08391   7274.30552  3.86806         2377.87005     20.08176  0.06706  58995.14423   3.18842   1.85994       2004950.29142  45.18015  19.54838   59055.6182    51.22622       44.41294   34.04586   46.58907   62.5    0.14282  -21.61016  0.90584 
  -17.88597  0.08031   3.71353     14.02821  1.85001  0.85198   9.17691  0.08852      0.1964   8356.85961   7262.55358  4.77251         2448.17381     16.60806    2e-05  58996.58403   3.82305   0.73702       2080361.92763  45.07831   19.5205     59055.44    51.30723       44.56321   27.52805   38.93962   67.0    0.15418  -21.52697  0.95242 
  -17.13257  0.02123   3.85517     14.00521  2.06528  1.35044   5.01864   0.1853     0.38848    9595.6492   7491.24521  4.89843          2109.6337     17.37815  0.00013  58997.33743   2.75652   0.10656       2782661.33727  44.96728  19.53596     59055.43    51.17701       44.39019   34.72313   46.99964   57.5    0.16251  -21.56655  0.99348 
  -17.84207  0.11215    3.1729       14.246  1.57904  0.35809    3.9259  0.20677     0.34928   9565.55238   3231.25623  4.76459         2011.37898     16.66499    3e-05  58996.62793   2.14282   0.44031        475472.99122   45.7872  19.54126   59055.6182    51.24746       44.42085   33.32609   47.47668   66.0    0.16329  -21.57141  0.97313 
  -16.35667  0.09503   3.46872     13.93528   1.8002   1.3187   6.45392  0.16198     0.24783   9603.76725   7302.87914  3.70593         2316.53447     18.19151  0.00086  58998.11333   3.55086   0.61333       2709716.43836   45.0109  19.51493     59055.43    51.22573       44.39644    32.7634   46.99964   58.0    0.15818  -21.59183  0.96382 
  -16.85433  0.20903   3.00621     14.02561  1.58122  0.86072   6.03733  0.17515     0.07378   9847.52449   7186.21966  0.87203         2903.80834     18.60971  0.00226  58997.61567   3.49242     1.262       1179304.16564  45.44017  19.52527     59054.49    51.21308       44.38416    32.7634   46.99964   51.0    0.17799  -21.59663  0.93466 
  -17.38171   0.1534   3.07859     13.85552  1.56435  1.33562   6.80947  0.13611     0.24129   9262.26209    7143.9305  1.85663         2385.97693     18.82882  0.00375  58997.08829   3.48478   1.04456       2677975.99335  45.05867  19.52276     59056.43    51.23926       44.43816   31.62369   45.42747   61.0    0.15863  -21.55956  0.94159 
  -17.91639   0.0361    3.3809     14.01069  1.70852  0.83769   7.70495  0.15026     0.32861   9664.70341    8170.7564  4.41786         2412.59996     17.04878    6e-05  58996.55361   4.29313   0.27814       1726321.79652  45.20628  19.52936   59055.6182    51.18253       44.33311   36.74132   49.17119   53.0    0.15232  -21.58769  0.98279 
  -12.16957  0.47947   3.35417     14.13336  1.50077  0.90024    9.7496  0.10333     0.12529   8393.32285   7561.33614  3.10166         3059.16463     16.55657    2e-05  59002.30043   4.09715   4.67463        848380.80237   45.4654  19.53336     59055.43    51.30628       44.52124   31.66784   43.59144   65.0    0.15391  -21.51491  0.74257 
  -16.24068  0.00928   3.68593     13.97479  1.96106  1.15938   3.83349  0.22381     0.39357   9975.27824   6822.42962  3.05235         2124.16626     17.50337  0.00018  58998.22932   2.27547   0.03557       2778516.14153  44.98443   19.6298   59055.6182    51.20494       44.25109   33.15754    88.6908   63.0    0.17372  -21.60008  0.99783 
  -17.74336  0.36188   2.73754      13.8855  1.45725  1.49538   8.98519  0.10592     0.10819   9298.70412    7024.8863  0.81172         2424.55584     16.91208    5e-05  58996.72664   4.63446    3.2516       1718198.73813  45.32259  19.53899     59055.44    51.27924       44.50188   28.83804   41.99801   63.0    0.16719   -21.5611  0.85594 
  -15.66372  0.09877    2.9221      13.9057  1.54224  1.35494   8.96286  0.12198     0.24102   9633.41488   7177.17762  2.42289         2379.25301     18.54792  0.00196  58998.80628   4.96174   0.88522       1887796.98656  45.24965   19.5342     59054.49    51.26517       44.47643   32.25397   44.79719   53.0    0.16433  -21.57365  0.95414 
  -18.71983  0.13308   2.73289     13.99389  1.49528  0.89065  10.75871  0.10901     0.09946   9079.27656   7206.07828  2.79368         2289.68118     18.12015  0.00073  58995.75017   5.29041   1.43172       1066582.04096  45.54233  19.53967     59054.39     51.2402       44.43058   31.15454   46.06446   56.0    0.15161  -21.55079  0.93363 
  -18.92772  0.09775   2.65079     13.82061  1.45444  1.45776   8.21925   0.1212      0.2294   9638.28469   7918.98227  0.62025         2128.94885     17.12733    7e-05  58995.54228   4.55469   0.80343       2167901.11768  45.24875  19.59924   59053.1427    51.25879       44.23878   30.46209   98.55381   51.0    0.17053  -21.58187  0.96224 
  -15.51089  0.44326   2.87926     14.14855  1.57009  0.92434  11.19895  0.09832     0.33068   9243.94358   7028.54609  1.42891         2699.50135     17.42004  0.00015  58998.95911   5.70846   4.96409        609811.16343  45.76101   19.5462     59052.43    51.28766       44.51294   30.94398   41.89649   65.0    0.15997  -21.53182  0.79834 
  -16.67629  0.26375   2.69265     14.03374  1.46519  0.90834   8.79393   0.1398     0.11474    9040.1482   7679.90502   1.5163         2897.21599     18.39915  0.00139  58997.79371   4.28708   2.31937        844478.41206  45.64779  19.53219   59055.6182    51.20814       44.40704   34.13943    46.4955   53.0    0.15627  -21.55012  0.89696 
  -18.45639  0.01573   3.25555     14.08663  1.84491  0.82055   3.75161  0.25613     0.27694   8827.23503   8400.52566  4.19782         2014.89793     18.48662   0.0017  58996.01361   1.74379   0.05902       1218364.28849   45.4238  19.54101     59054.49    51.25026        44.4583   30.62993    43.0053   52.0    0.16004  -21.53775  0.99696 
  -15.38466  0.22807   3.44853     13.89935  1.62336  1.36719   7.78602  0.11966      0.1647   9295.18075   7105.76952  2.69397         2722.62052     19.34515   0.0123  58999.08534    4.0129   1.77579       2849719.26956  44.94919  19.50698     59056.43    51.34498       44.59554   19.71076   39.08884   61.5    0.16344  -21.57435   0.8886 
   -17.3868  0.04432   3.30367     14.07879  1.68198  0.70862  11.91077  0.08571     0.25343   9198.93618   7197.21859  3.63513         2400.43116     18.25069  0.00099   58997.0832   6.01232   0.52786       1185913.00366  45.38262  19.54826   59055.6182    51.22985       44.41734   32.42181   45.68894   58.0    0.15717  -21.55914  0.96862 
  -14.69091  0.04328    3.4064     13.94168  1.72155  1.21776   5.73521  0.19406     0.20877   9836.05605   7337.63703   4.3061         2499.39892     16.63364    2e-05  58999.77909   3.30993   0.24821       2426410.51905  45.05521  19.57125     59054.45    51.25852       44.40126   34.04586   50.00309   54.5    0.16429  -21.60342   0.9846 
  -19.15176  0.12376   3.33507     13.95965   1.6402  0.93142   5.64131  0.15521     0.19154   8085.98532   7080.47271  3.28492         2640.79679     17.05621    6e-05  58995.31824   2.20025    0.6982        2040017.2443   45.1279  19.53597     59054.49    51.27506       44.51459   27.71816   41.15816   64.0    0.15053  -21.50259  0.95651 
  -16.91692  0.39842   3.33411     13.90126  1.65135  1.55659   5.77261  0.16497     0.41195   9707.81074   6874.66069  1.38893         2560.00276     16.38393    1e-05  58997.55308    3.2452   2.29992       2685886.27473  45.01164  19.53638     59053.41    51.28035       44.52287    27.4629   40.79666   64.5    0.16609  -21.58773  0.87136 
  -20.72078  0.24102   3.08063     14.16323  1.85666  0.79802   10.3384  0.09761     0.18526   8756.03018   6588.33005  1.27896         2026.33988      17.1104    7e-05  58993.74922   4.72819   2.49177        771551.32674  45.67293  19.53719     59055.44    51.23577       44.43526   29.19482   44.27257   65.0    0.15094  -21.52519  0.89803 
  -19.46153    0.198   2.84778     14.02276  1.56107  0.92668  11.03122  0.10534     0.12665    9049.8627   7804.86298  1.00398         2936.76406     18.32505  0.00117  58995.00847   5.38933   2.18422       1058577.14327  45.52853  19.54792   59053.1427    51.26028       44.44418   31.30193   45.74922   55.5    0.15745  -21.55778  0.90063 
  -16.52557  0.07931    4.0917     14.13303  2.04882  1.01794   13.4552  0.06885     0.06172   7796.77151   7167.59572  2.69404         3194.26199     18.52797  0.00187  58997.94443   4.87918   1.06708       1726098.10605  45.11947  19.53548   59055.6182    51.27978       44.49685   27.52805     43.308   59.0    0.16246  -21.52053  0.93055 
  -16.97831  0.26332   3.58697     13.98842  1.93823  1.48055   4.35579   0.2109     0.41752   9850.73536   7585.42207  1.82855         2143.51431     17.22587    9e-05  58997.49169   2.52134   1.14698       2442563.32172  45.05895  19.53529   59055.6182    51.22938       44.40147   34.85604   47.07202   57.0    0.16951  -21.58842   0.9372 
  -15.12335  0.14447   3.24181     13.86031  1.57988  1.35655   6.54396  0.14047     0.29643   9776.40168   7468.35116  3.05546         2334.24224     18.02347  0.00059  58999.34665     3.731   0.94544       2933561.46748   44.9785  19.53387   59055.6182    51.20781       44.37427   34.75208   47.67282   59.0     0.1691  -21.57719   0.9421 
  -17.80369  0.04245   2.55946     13.66887  1.29665  1.33666   8.69892  0.07553     0.16185   8906.85541   7283.68275   1.1107         2389.76355     19.80999  0.03587  58996.66631   4.11663   0.36923         3624136.426  45.00616  19.53223     59055.43    51.24207       44.44143   31.15454   44.27257   66.5    0.16642  -21.56916  0.98021 
  -15.66671  0.39029   2.14004     14.25205  1.65952  0.84641  11.56751  0.10486     0.24174   9655.08413   7574.32819  0.40125         2712.06812     17.91578  0.00046  58998.80329   6.43249   4.51473        221074.58461  46.48344  19.53624     59055.43    51.19666       44.40136   34.95014   46.97792   54.5    0.17538  -21.56388  0.89633 
  -18.03356  0.35639   2.25867     13.96664  1.41777  1.26893  10.04492  0.11049     0.12367   9393.19637   8433.58817  0.36358         2468.87711     16.23196    1e-05  58996.43644   5.28689   3.57994        783152.02398   45.8189  19.55283      59053.5    51.27616       44.47563   30.62993   44.79719   49.5    0.17512  -21.54231  0.88461 
  -17.02902  0.19194   3.25877     14.35413  1.83402  0.48235   9.43086  0.11744     0.32293    9553.1215   6890.93711  1.39375          2478.8595     18.71755   0.0029  58997.44098   5.13416   1.81016         354051.4291  45.95707   19.5443     59055.43    51.19541       44.40157   28.97575   45.36956   57.0    0.17016  -21.57862  0.91397 
  -17.81355  0.28775   2.94964     13.96694  1.62825  1.34714   8.54987  0.12006     0.08302   9144.26114   7522.52403  1.09175         2586.25826     16.74089    3e-05  58996.65645   4.26466   2.46027       1531743.96554  45.35584  19.61919   59053.1427    51.21981       44.28116   31.36637   85.10631   57.5     0.1601  -21.55603  0.88877 
  -10.75229  0.39699   1.59472     14.35139  1.68393  0.95498  18.80242  0.05639     0.22069   9595.53131   7341.31998  0.41792         3042.47652     18.84626   0.0039  59003.71771  10.32711   7.46446         78836.26919  47.19307  19.54328     59054.39    51.23979       44.43918   33.21028   44.87875   68.5    0.17562  -21.55708  0.91104 
  -18.60969  0.14751   2.86257     13.97213  1.62266  1.07713   9.54615  0.11819     0.16801   9432.94255   7316.82512  2.37432         2001.20548     18.49947  0.00175  58995.86031   5.06699   1.40813       1403783.20659  45.41826  19.54336      59053.5    51.18214        44.3512   34.72313   48.39667   54.5    0.15495  -21.57608   0.9364 
  -15.98208  0.06775   2.99856      14.1775   1.6092  0.54012  24.88243   0.0253     0.02306   7506.40773   4540.27701  0.64319          3822.6121     17.71363  0.00029  58998.48792   8.36343   1.68582        593258.18748  45.74839  19.59853     59059.43    51.24981       44.25546   36.40437   90.81964   70.0    0.17022  -21.50583  0.91688 
  -25.60049  0.07889    2.6648     13.96496  1.73514  0.96865   5.58621  0.14695     0.24867   8200.10835   7997.78815  0.05564         2807.24871      19.9443  0.04887  58988.86951    2.2407   0.44071       1344473.54481   45.5283  19.54522     59055.43    51.18003       44.34166   34.75932   49.12052   59.0    0.15551  -21.53176  0.98358 
  -10.97657  0.29318  13.80137      12.2038  1.60548  0.52595  46.59279  0.01186     0.12802   9353.13614   7418.48352   4.4189         3030.53155     18.36806   0.0013  59003.49343  24.31422  13.65993  111086483127.72823  39.14894   19.5421     59054.39    51.26003       44.50163   29.87595   41.92544  122.5    0.13489  -21.48792    2e-05 
  -21.32388  0.44957   2.41121     14.09124  1.54265  0.87417  10.60675  0.09268      0.1013   8861.58874     7339.022  0.10558          2007.0437      18.8761  0.00418  58993.14612   4.96858   4.76853        547111.78545  45.95457  19.51508     59054.49    51.22292       44.43823   30.46209    43.0053   65.0    0.16014  -21.51093  0.85131 
  -11.15414  0.40469  13.87282     13.96664  1.73612   0.2733  34.89332  0.02244     0.01799  11440.15104   4950.48158   2.5937         3028.02782     19.37305  0.01312  59003.31586  27.24162  14.12089      36177353.39527  42.66566  19.52937     59055.43    51.25866       44.47027   30.62993    43.0053   87.5    0.12427  -21.54744  0.01383 
  -10.68277  0.37074  20.14048     12.29138  1.72405  0.62635  37.05738  0.01732     0.26961  10010.93663   6568.54351  4.91155         3028.09454     18.76145  0.00321  59003.78723  22.15396  13.73878  169724743825.05087  38.66751  19.52531     59054.49    51.19657       44.37902   33.96308   46.34093  123.0    0.13326  -21.53189    1e-05 
  -13.43311  0.48723   3.45577     14.09248  1.76043  1.41517   8.59503  0.11725     0.14454   9469.19729   4823.60318  2.61583         2565.68736     18.68461  0.00269  59001.03689   4.59728   4.18773       1275135.24894  45.33182  19.52394   59055.6182    51.23433       44.45903    28.6702    43.0053   63.5    0.16943  -21.55756  0.79393 
   -7.57626   0.3904   1.05789     14.46534   1.6234  0.92723  22.78151  0.04357     0.15112   9612.88997    7338.4551  0.83103         3404.55597     20.03437  0.06013  59006.89374  12.55792   8.89396         19789.83476  48.13395  19.53996     59054.49    51.16978       44.32821   32.59501   48.91786   79.0    0.17771  -21.56274   0.9671 
  -16.26489  0.07684   3.17344     14.00419  1.64029  0.95186   9.73009  0.12114     0.23587   9560.70469   7808.46357  3.97846         2415.64122     18.10892  0.00071  58998.20511   5.30547   0.74771       1504563.80953   45.3033  19.66175   59053.1427    51.21143       44.23454   31.88563    96.2163   53.0    0.15592  -21.57994  0.95806 
  -16.63864  0.22955   3.45804     14.23577  1.74376  0.51887   5.91324  0.16473      0.3815    9590.5676   6641.13256  1.86494         2625.72674     17.50842  0.00018  58997.83136   3.24445   1.35737        653756.84935  45.61726    19.654     59056.43    51.23579       44.27311   34.55529   89.08494   61.5    0.16862  -21.58223  0.92046 
  -14.24629  0.27214   2.88282     14.03345  1.58659  1.13148  10.60396  0.09799      0.0645   8872.28795   7155.78729   1.9476         2532.50885     18.67862  0.00265  59000.22371   4.97928    2.8858       1049595.01975  45.52865  19.54173      59053.5    51.21445        44.4215   32.42181   44.79719   58.5    0.16013   -21.5257  0.87309 
  -16.24406  0.29713   2.56646     14.01073   1.5786  1.26394  10.07265  0.10779     0.12858   9358.41981   7333.94972  0.67001         2538.72086     18.74795  0.00311  58998.22594   5.26231   2.99286        918951.83978  45.68515  19.53361     59055.43    51.28659       44.49544   31.66784   43.30076   54.5    0.17526  -21.56547  0.89279 
  -14.84363  0.04686   3.23192     13.81195  1.51576  1.24963    10.663  0.07125      0.1571   8665.20422   7379.08529  3.81732         2530.43472     18.94487  0.00489  58999.62637     4.776   0.49969       3495156.48762  44.88709  19.53007     59055.43    51.25951       44.46892   30.46209    43.0053   64.0    0.16403  -21.53194  0.96661 
  -17.33453  0.31649   2.61607     13.85221  1.42346  1.34342    8.8952  0.08804      0.0462   8814.68009   6773.05446  0.75659         2220.96879     18.73451  0.00301  58997.13547   4.12284   2.81527       1786646.81859  45.33485  19.52226   59055.6182    51.17166       44.34366   33.16478   47.60767   63.5    0.16966  -21.53471  0.87875 
  -14.01565  0.24447    2.9508     14.30587  1.46557  0.47558  13.91419   0.0669     0.32865   7951.22149   7796.76094  1.58405         3353.47846     16.96983    5e-05  59000.45435    5.2475   3.40157        289706.93328  46.03301  19.54789   59055.6182    51.19703       44.38327   32.60224   46.40864   59.5    0.16416  -21.50441  0.83175 
  -18.72374  0.13587   2.75611     13.86237  1.49657  1.35957   9.28442  0.10513     0.12195   9265.79177   7193.55681  1.02437         2406.44416      18.0416  0.00061  58995.74626   4.75496   1.26147       1989603.73071  45.26458  19.53781     59054.49    51.25964       44.45995   30.62993   44.79719   58.0    0.17062  -21.56502  0.94004 
   -8.64425  0.39549   3.19834     14.43345  1.94753  0.80609  11.29664  0.11805     0.47757   8817.81795   3036.52125  4.33538         2935.22044     17.68304  0.00027  59005.82575   5.23961    4.4677        251335.64853  46.14822  19.53675     59056.43    51.31336       44.51861   27.04615    43.7899   63.5     0.1519  -21.51551  0.83203 
  -19.01957  0.15253   2.75589     13.90246  1.53656  1.17828   7.52563  0.14214     0.06327   9159.98314   7855.83509  2.86995         2077.59544     19.83048   0.0376  58995.45043   3.76669   1.14785       1698142.56593   45.3449  19.54316     59055.43    51.20212       44.40178   30.46209   45.47902   52.0    0.15239  -21.57488  0.94719 
  -14.30421  0.07634   3.64289     13.94815  1.88292  1.38978   4.36257   0.1784     0.20879    9345.5066   3930.75436  4.66337          2122.6243     18.17998  0.00084  59000.16579   2.27287   0.33303       2946038.33742  44.95155  19.54123     59054.39    51.15339       44.28921   35.66604   50.34455   63.5    0.17261  -21.54785  0.97938 
  -18.28767  0.25818   2.93185     13.93961  1.68138  1.47002   5.18277  0.17328     0.11764   9267.38876   7222.43542  0.50478         2477.71586     17.65823  0.00025  58996.18233   2.65524   1.33811       1772320.15742  45.31168  19.50166   59055.6182    51.27646       44.51121   29.61998   40.43147   56.0    0.17728  -21.55724  0.93968 
  -21.05789  0.14407     2.824     14.08363  1.62505  0.71982   6.37826  0.16937     0.23826    8687.0664   8048.52842  0.72349         3106.04481     19.56138  0.02024  58993.41211   2.87128   0.91894        818754.88536  45.66483  19.52945     59056.49    51.31032       44.53348   28.83804    43.0053   52.0    0.16161  -21.55651  0.95871 
  -18.46913  0.39115   2.95538     14.01972  1.73655  1.31851   7.81983  0.13177     0.07606   9572.40401   6951.80044  0.47442         2318.39945     19.10825  0.00713  58996.00087   4.27432   3.05876       1286133.06317  45.45802  19.52587     59056.43    51.21807       44.39467   34.72313   46.99964   59.0    0.16836  -21.57972  0.87597 
  -13.30229  0.38609  13.23535     14.72533  1.70937  0.44203  35.25598   0.0249     0.03264  10985.78176   5126.09743   2.7998         2967.56607     18.89707  0.00438  59001.16771  25.38177  13.61188        985042.46631  44.26476  19.55072     59054.49    51.20718       44.36998   33.96308   47.75968  101.0    0.11896  -21.56192  0.06966 
  -18.19937  0.28789   2.80316      14.0605  1.71837  1.21151   9.84653  0.11352     0.16139    9030.5013   6816.32034  1.44631         2335.90457     17.35611  0.00013  58996.27063   4.78998    2.8347        948900.97572  45.63144  19.55222     59054.49    51.23489       44.41032   34.22629   47.70177   60.0    0.15456   -21.5466  0.89317 
  -16.23668  0.03727   3.41683      13.9482  1.74442  1.14039   5.92772  0.15904     0.36121   9495.79108   7265.38984  3.81884         2295.09947     18.16446  0.00081  58998.23332   3.18843   0.22095       2400547.89671  45.06294   19.5398     59054.39    51.18202        44.3318   33.49449   49.14224   58.0    0.16294  -21.56269  0.98644 
  -19.06942  0.04485   3.00263       14.097  1.76478  0.76995   7.99322  0.11013      0.4062   9072.06463   7590.16221  0.59811         2186.42606     18.28157  0.00106  58995.40058   3.92429   0.35851        945176.56943  45.58502  19.53001     59056.43    51.28155       44.49369   30.46209    43.0053   54.0    0.17342  -21.53913  0.98347 
  -19.86604  0.03794   2.89975     14.02967  1.67218  0.81985   8.89888  0.10255     0.29644    8659.0401   7638.45483   1.3564         2222.78128      18.8094  0.00358  58994.60396   3.98017   0.33765       1138887.04928  45.51093  19.52854     59055.43    51.29025       44.52863   27.52805   41.89649   56.0    0.15854  -21.53285  0.98423 
  -19.67549  0.11342   3.16791     13.93962  1.68946   1.0743   7.41334  0.14509     0.33377   9203.84302   7966.08457  2.26617         2346.06689     17.64933  0.00025  58994.79451    3.7461   0.84085       2079046.21868  45.17718  19.53565   59055.6182      51.403       44.64515   25.27687   40.54289   57.0    0.15327  -21.57534  0.95502 
  -17.14023  0.21274   3.18877     14.01587  1.65772  1.10907  12.67253   0.0847     0.09167   8824.39221   6822.98191   2.8488           2420.488      19.1271  0.00744  58997.32977   5.88654   2.69595       1454889.35148  45.31828  19.54649     59054.49    51.22412       44.41794    32.4344   45.50851   63.0     0.1521  -21.53064  0.86482 
  -15.09416  0.11564   3.55424     13.96429  1.84056  1.37364   5.38666  0.18504     0.11898  10134.81346   7781.47429   3.2456         2250.71559     17.06713    6e-05  58999.37584   3.30049   0.62293       2544998.83295  45.02662   19.5789  59058.09369     51.2555        44.2651   35.70947   84.34698   52.5    0.16862  -21.59718  0.96279 
  -17.54465  0.23671   2.91912     13.89547    1.581   1.5659   6.58463  0.15959     0.12503   9533.52717   6919.94191  2.53701         2009.77912     17.74461  0.00031  58996.92535   3.56998   1.55866       2024520.32929  45.23095  19.54642   59055.6182    51.10189        44.3086    41.0417   46.25407   58.5    0.15647  -21.57426  0.92471 
  -15.69045   0.1747   3.56993     13.97531   1.7128   1.1601  10.00009  0.10841     0.18075   9075.43402   7476.57979  3.49193         2736.25399     17.11912    7e-05  58998.77955   4.91322   1.74697       2271018.67748  45.04101  19.53441     59055.44     51.2616       44.48761   32.25397    43.0053   60.5    0.15577  -21.56423  0.89145 
  -16.06105  0.46317   2.69894     13.80268  1.30904  1.39507   7.28344   0.1205     0.14229   9357.30655   7776.25222   2.4293         2139.85637      19.2766   0.0105  58998.40895   3.80422   3.37346       2196862.04498  45.18161  19.54686   59055.6182    51.24948       44.43194   31.79153    46.1093   61.5    0.16689  -21.56841  0.83334 
  -13.62582  0.32769   3.97075     14.11066  1.94494  1.21765   7.30062    0.143     0.14302    8874.7921   4574.51901  4.69562         2708.14432     18.56084  0.00202  59000.84418   3.43007   2.39232       1710611.60232  45.12685  19.53869     59054.49    51.22045       44.36103   34.75932   50.51755   61.5     0.1622  -21.54768  0.85497 
  -14.33922  0.34919  11.81211     14.85895  1.74708  0.30194  38.36448  0.01861     0.01919  10720.13234   4252.92526  2.62463         2924.57375      18.7652  0.00324  59000.13078  26.30006  13.39634        433385.37423  44.72963  19.53976   59053.1427    51.28835       44.50308   29.67789   43.95734   89.0    0.12863  -21.54949   0.0901 
  -13.18458   0.3737   11.1636     14.40516  1.63541  0.29726   36.5905  0.02226     0.06321  10525.76492   5865.45317   3.3805         3115.13243     18.64047  0.00243  59001.28542  24.18259    13.674       2929066.72516  43.92013  19.62416     59056.43     51.2666       44.23013   34.79551  105.84963  119.5    0.11217  -21.56683  0.07468 
