 texplosion  fnickel    Pspin  log(Bfield)      Mns  thetaPB   mejecta    kappa  kappagamma      vejecta  temperature    alpha  cutoff_wavelength  log(nhhost)      A_V         MJD0   kenergy  mnickel           TSD   log(L0)  Peak_mag     Peak_MJD  log(E_rad)  log(Peak_lum)  Rise_Time    E_fold  tau_1  delta_m15     r_peak     frac 
   -6.94557  0.00785  2.65522     14.40696   1.4685  0.93315  13.25194  0.02561     0.28593   4458.12939   6027.61994  3.05033          3740.0959     16.70443    3e-05  58731.39443   1.57113  0.10396  147559.88684  46.41855  19.56059     58760.39    50.81563       44.23258    17.1609  30.36373   35.0    0.30521  -20.87699  0.99518 
   -3.60524  0.00817  1.27927     14.63897  1.69934  0.89235  11.46739   0.0618     0.01381   7196.04444   4783.57222  3.65562         3100.99552     17.14892    8e-05  58734.73476   3.54225  0.09374   13616.98797  48.15112  19.57461  58762.48794    50.83591       44.24649    17.1609  30.36373   34.5    0.27461  -21.25351   0.9996 
   -4.05894  0.00375  1.65859     14.67763  1.88446  0.90594  33.84279  0.01457     0.37403   5631.00708   3480.84709  2.63979         3620.60049     16.90214    4e-05  58734.28106   6.40126  0.12678   21242.74845  47.77735  19.61649  58762.26488    50.96678       44.40887   12.65559  31.63896   33.5    0.27775    -21.012  0.99894 
   -1.74627  0.02796  0.93651     14.65085  1.62946  0.85322  10.60103  0.04193     0.16148   5234.93979   6059.14057   2.9098         3710.22691     20.09101  0.06851  58736.59373     1.733  0.29644     6625.0248  48.71667  19.62609     58763.28     50.8363       44.24543   15.88566  31.63896   33.0    0.27559  -21.28128  0.99959 
   -5.52662  0.00385  1.16755     14.50591  1.64412   1.1005  13.66662  0.03754     0.03019   5814.38464   8344.91866  2.07146          3739.4396     20.07064  0.06537  58732.81338   2.75611  0.05268   20252.78245  48.04374  19.58616      58761.4    50.80874       44.22477    17.1609  30.36373   33.5    0.29331  -20.84447  0.99979 
   -3.78201  0.03587  1.30484     14.55467  1.76771  1.31913   8.21089  0.06473     0.26357   5721.94752   6766.45368    2.972         3600.33838     20.17229  0.08261  58734.55799   1.60363  0.29454   21726.41908  47.94816  19.60189  58762.26488    50.77997       44.19949   13.93082  32.47299   35.0    0.28252  -21.19952  0.99872 
   -1.44334  0.00204  1.10576     14.77541   2.0343  0.99477   8.14966  0.06005     0.15019   4737.44558   7697.53976  3.90611          3562.8625      19.4739  0.01654  58736.89666   1.09108  0.01665    6497.21781  48.67721  19.63795     58763.39    50.86456       44.27478    15.1328  33.38028   35.5     0.2384  -20.95562  0.99998 
   -3.43446  0.00951  1.11825     14.64406  1.85556  1.22668   9.59988  0.05504     0.15365   5036.25146   6887.46133   3.1209         3772.99348      18.2967   0.0011  58734.90554   1.45247   0.0913   11098.24291  48.39499   19.5437  58762.48794    50.87536       44.32823   11.73143  30.45386   34.5    0.28665  -21.00391  0.99983 
   -3.77949    0.017  1.26958     14.71528  1.96514   0.9519  24.83362  0.03388     0.04289    8444.6658    3330.1735  2.84073         3275.64409     19.71267  0.02867  58734.56051  10.56409  0.42211   10913.43738  48.31696  19.60482     58763.28    50.80246       44.23797   13.14438  33.25943   35.0    0.27282  -21.19332  0.99881 
   -3.28068  0.00454  0.93562     14.59743  1.65142   1.0948  19.28795  0.04241     0.27538   7631.20189   3108.61484   2.9773          3557.9387     16.64278    2e-05  58735.05932   6.70037   0.0876    8570.52135  48.61149  19.57185      58761.4     50.8521       44.31492   10.54632  31.63896   34.5    0.27951    -21.181  0.99989 
   -4.45655  0.00214  1.83564     14.56157  1.92779  1.47972  15.61943  0.03853     0.19739   6520.53011   3295.65059  2.55674          3574.4057     17.91433  0.00046  58733.88345   3.96149  0.03336    45425.5742  47.36903  19.57587  58762.26488    50.81293       44.24006   12.65559  31.63896   34.0    0.28823  -21.07041  0.99962 
   -2.65086  0.00356  0.91551      14.6863  1.75772  0.94912  15.00576  0.06191     0.01695   8221.95697   4420.96449   3.6093         3313.99271     16.30072    1e-05  58735.68914   6.05112  0.05345    5800.78704  48.82698  19.56329      58761.4    50.81785       44.25203   12.65559  31.63896   37.0    0.23412  -21.46399  0.99995 
    -4.4239  0.00464  1.45753     14.52019  1.64596  1.18044  11.11907  0.06055     0.22008   6803.68714   6836.13626  2.92704         3439.13215     18.02387  0.00059   58733.9161   3.07032  0.05164   29586.82462  47.68693  19.60148  58762.26488    50.89332       44.33087   10.86219   31.3231   34.5    0.27821  -21.02737  0.99961 
   -3.45553  0.00149  1.79341     14.57957   1.7582  1.11307  13.96824  0.04645     0.03794   6390.46928    6010.4702  3.84606         3521.08574     16.10534    1e-05  58734.88447   3.40278  0.02078   36400.40581  47.44545   19.5778     58762.29     50.8008       44.22974   13.14438  31.15017   35.0    0.29728  -21.09475  0.99975 
   -5.84771  0.00427  1.90105      14.4848  1.73522  1.49221  19.41517  0.02571     0.12574   5554.75116   6058.21478  2.68639         3729.75362     16.60329    2e-05  58732.49229   3.57353  0.08298   62454.37221  47.15465  19.62664     58761.29    50.77196       44.18637   16.40197  32.47299   35.5    0.28689  -20.86224   0.9987 
   -4.72843  0.01162  2.06428     14.64121  1.79969  0.82656  16.31074  0.04142     0.07559   7202.43704   7433.40041  3.17126         3371.65629     17.12031    7e-05  58733.61157   5.04731  0.18948   37165.08461  47.32437  19.58858  58762.48794    50.81446       44.23931   12.65559  33.74823   35.0    0.28898  -21.04124  0.99659 
   -2.90798  0.00473  1.40044     14.51643  1.60894  1.22424   25.7164  0.01712     0.01137   5013.85225   7143.62205  3.00661         3707.45652      19.6005  0.02214  58735.43202   3.85638  0.12162   27165.49949  47.74884  19.55235  58762.26488    50.83406       44.29057   11.73143  30.45386   35.0     0.3311  -21.08018  0.99918 
   -4.65291  0.01481  1.84692     14.50683  1.69483   1.1119  13.71632  0.06714     0.11159   9510.48379   4421.84301  4.81828         2739.57521      16.3372    1e-05  58733.68709   7.40065   0.2032   52020.65041   47.2489  19.61664     58763.35    50.84462       44.28037   15.25365  33.25943   35.0    0.27084  -21.08565  0.99688 
   -7.01816  0.01175  1.25943     14.61214  1.85827  1.09768  29.51297  0.03083     0.01722   9000.23194   6892.93737  2.39364         3044.73811     18.33426   0.0012  58731.32184  14.26092  0.34665   16330.19174  48.12461  19.53774  58762.26488    50.81886       44.23797     17.236   29.5297   34.0    0.29072   -20.6581  0.99878 
   -4.13387  0.00581  1.38548     14.57256  1.84703  1.49814  16.20367  0.04114     0.17286   7159.96165   6761.28727  2.70928         3400.90277     18.99845  0.00554  58734.20613   4.95521  0.09414   23570.94768  47.87974  19.58887  58762.26488    50.76393       44.16325   17.49526  32.67973   34.0    0.25108  -21.24127  0.99955 
   -5.42787  0.01612  2.45459     14.50874   1.8735  1.48014   10.3212  0.04808      0.4248   5509.10753   8562.58728  3.30265         3528.16417     19.50389  0.01773  58732.91213   1.86862  0.16643  100679.51388   46.7586  19.59076  58762.26488    50.87693       44.30088   13.93082  32.47299   35.5    0.28555  -20.96471  0.99568 
   -2.23685   0.0012  1.13169     14.61718  1.86408  1.41003  20.97465  0.02316     0.16434   4809.91567   7740.73203   4.1236         3512.99871     20.26238  0.10165  58736.10315   2.89465  0.02507   12923.52393  48.32047  19.61896  58762.26488    50.92013       44.32095   15.88566  33.74823   36.0    0.24575  -21.25553  0.99995 
   -2.94571  0.05723  0.86117     14.64943  1.77072  0.77718  10.22677  0.06473     0.21417    8942.1195   5143.23432   3.4431          2455.1679     20.53996  0.19261  58735.39429   4.87805  0.58529    6127.35013  48.85955   19.6377     58764.13    50.91637       44.35433   13.46597  32.56312   33.0    0.32683  -21.24974  0.99933 
   -3.81356  0.01095  0.98861     14.62992  1.86913   1.2057  12.61545  0.04799      0.3431   6289.91584   8244.00413  2.15605          3880.1793     18.21369  0.00091  58734.52644   2.97728   0.1381    9325.27968  48.58077  19.59701  58762.48794    50.81342       44.21085   13.14438  35.36869   33.0    0.28948  -21.15604  0.99983 
   -4.28603  0.00898  1.91903     14.51767  1.69836  1.06081  15.28233  0.05046      0.2329   7907.95837    4621.0799  3.92021          3126.4848     19.86982  0.04117  58734.05397   5.70093  0.13719   53539.10825  47.20404  19.61392  58762.48794    50.84309       44.26411   12.92681  33.47701   35.0    0.27352  -21.15394  0.99767 
   -2.24652  0.00111  1.15299     14.52534  1.58014  1.30077  16.91019  0.04355     0.08196   6776.09264   4241.33002  3.99125         3542.81404      17.5953  0.00022  58736.09348   4.63163  0.01879   17357.63602  48.10439  19.59293  58762.48794    50.82223       44.25298   16.40197  30.36373   35.0    0.28901  -21.21725  0.99994 
   -4.23852  0.07505  1.25132     14.55296  1.79248  1.31154  10.53668  0.05048     0.04138    6762.7604   6756.31781  2.27597         3522.56491      20.2452  0.09771  58734.10148   2.87461  0.79081   20421.12193  48.01748  19.59518     58762.29    50.78235       44.19915   14.75625  31.64756   34.0    0.31098  -21.25097  0.99703 
   -2.28008  0.00365  1.44222     14.55681  1.86396  1.44612  26.71949  0.02221     0.05898   6232.74165    6352.2403   3.3393         3504.25963     20.35051  0.12452  58736.05992   6.19175  0.09756   27713.80704  47.77852  19.59994     58763.28    50.81665       44.24941   12.65559  33.74823   35.0    0.29404  -21.27272  0.99945 
   -3.89113  0.02642  1.80127     14.62339   1.6348  0.81715  12.41887  0.04537     0.35804   6119.36645   7735.58407  3.21275         3594.91601     18.79647  0.00348  58734.44887    2.7741  0.32806   27903.60161  47.52549  19.58763     58763.28    50.83813       44.26359   15.61553  31.15017   34.5    0.28771   -21.0799  0.99532 
   -6.29687   0.0012  2.48869     14.55168  2.01875  1.37128  19.64314   0.0327     0.06985   6711.83802   7632.85512  2.95658         3419.49731     19.65615  0.02517  58732.04313   5.27863   0.0236   91512.74436   46.8205  19.52953  58762.26488    50.81322       44.22373   13.14438  33.25943   35.5    0.27805  -20.88874  0.99944 
   -3.08575  0.00878  0.90508     14.53699  1.49947  1.06986   15.2346  0.03301     0.01059   5310.15488   8395.62723  2.87808         3688.78757      18.8514  0.00395  58735.25425   2.56255  0.13378    9619.53799  48.54825  19.61873  58762.26488    51.04701       44.51814   16.87411  27.11646   33.5     0.2464  -21.77756   0.9998 
   -4.43352  0.00515  1.44407     14.56067  1.71803  1.12793  22.40001  0.02694     0.06113   6235.55677   4723.62908  2.66316         3566.35375      16.7612    3e-05  58733.90648   5.19548  0.11541   25157.92147  47.78402  19.61247  58762.26488    50.77041       44.17839   13.93082  34.13491   34.5    0.27065  -21.00864  0.99923 
   -4.79568  0.00613  1.04136     14.49559  1.45121  0.89602  16.64598  0.05781     0.20365    9690.1312   6448.09483  4.07214         2599.46775     19.15665  0.00797  58733.54432   9.32386  0.10204   14912.80653  48.22181  19.54446     58761.36     50.8207       44.24269   15.12673  31.63896   33.5    0.28287  -20.98511  0.99963 
   -6.71303  0.00148  1.48543     14.53188  1.86396  1.41035  14.76609  0.04863     0.12336   8003.42128   8664.09638   1.7682         3441.55083     18.59305  0.00218  58731.62697   5.64214  0.02192   32975.74076  47.67738  19.62986  58762.26488     50.8063       44.21919   14.76485  33.74823   30.0    0.32277  -20.77371  0.99985 
   -2.33729  0.00104  1.54002     14.65279  2.04085  1.41014  14.83593  0.03348     0.13125   5159.21936   9179.30918  3.21985         3568.02925     16.53883    2e-05  58736.00271   2.35564  0.01541   22238.22652   47.8565  19.57266     58761.29    50.82684       44.26619   13.46597  32.56312   34.5    0.26932   -21.0679  0.99992 
   -4.35799  0.00383  1.86732     14.71195  1.77763  0.64506  25.07205  0.01805     0.01319   5485.46659    7679.6394  2.30455         3682.12856     16.66569    3e-05  58733.98201   4.50033  0.09613   21686.37997  47.64006  19.54826     58762.29    50.84147        44.2954   14.76485   29.5297   34.0     0.2942  -21.05358  0.99861 
   -2.00962  0.00556  0.92326     14.84004  2.03501   0.7305   9.46185  0.06195     0.09377   5493.33785   6813.82409  3.51476         3519.52837     20.43013  0.14958  58736.33038   1.70324  0.05265    3364.67848  49.11982  19.56835  58762.26488    50.90197       44.35237   12.65559  31.63896   36.0    0.25335  -21.02599  0.99996 
    -2.9648   0.0019   1.3324     14.55821  1.47961  0.86459  10.65922  0.05387     0.03203   5914.60121   4471.65797  3.36306         3616.35423     17.28457  0.00011   58735.3752   2.22435  0.02026   18655.95685  47.91891  19.58882     58763.28    50.83224       44.25027   16.04008  32.47299   34.5    0.29567   -21.0714  0.99986 
   -3.89516  0.00339   1.5148     14.64776  1.54723  0.64435  19.68063  0.02335     0.08744   4968.70723   4966.82968  2.65733         3818.02835     16.40894    1e-05  58734.44484   2.89836   0.0667   16694.37101  47.87512  19.61153  58762.26488    50.80976       44.21919   11.73143  34.67239   34.5     0.2719  -21.08696  0.99931 
   -6.00415  0.00148  1.87268     14.63718  1.98432  1.09366  17.04876  0.04823     0.22871   7591.79728   5500.59255  3.32592         3449.40932     16.59125    2e-05  58732.33585   5.86151  0.02525   34355.25383  47.48554  19.56958  58762.48794     50.7987       44.20409   18.54167  31.09222   35.5    0.27892  -20.84088  0.99972 
   -5.14738  0.00154  1.58818     14.44863  1.62305  1.49212  13.90986  0.05339     0.01341   7987.65896   8602.76224  2.17959         3597.93784     18.60619  0.00224  58733.19262   5.29406  0.02137   48159.41314  47.39469  19.57086     58760.39    50.81066       44.23533   15.12673  31.63896   31.0    0.31278  -20.98899  0.99977 
   -7.10282  0.00234   1.3418     14.45671  1.62994  1.23245  15.01045  0.04727     0.06002   6920.09026   6806.16386  2.01969         3490.30988     16.81686    4e-05  58731.23718    4.2879  0.03516   33261.27329  47.70371  19.57675     58761.29    50.77759       44.21243   13.14438  31.15017   35.0    0.28603  -20.68099  0.99976 
   -6.24376  0.00118  2.20071     14.44208  1.57042  1.13621   8.48054  0.08991     0.38306    7342.8315   7742.51954  3.78192         3433.98789     16.10315    1e-05  58732.09624   2.72758  0.01002   92212.06435  46.81495  19.61182  58762.26488    50.81314       44.23214   13.45554  34.13491   35.0    0.28401  -20.89705  0.99973 
   -4.47358  0.00269  1.69863     14.49949  1.63601  1.19741  10.96297  0.04876     0.01836    5855.1238   9963.59612  2.77245         3623.91328     18.08397  0.00067  58733.86642   2.24196  0.02946   43935.84002  47.37961   19.5758     58760.39    50.79521         44.216   16.40197  30.36373   32.0    0.29469    -21.017  0.99963 
   -4.20227  0.01765  1.82092     14.75484  1.84883  0.65634  14.52969   0.0556     0.09576   8435.05175   5368.13193  3.13685         3308.85192     19.45999  0.01602  58734.13773   6.16679  0.25638   17604.07877  47.76955  19.59865  58762.26488    50.77441       44.18621   14.75625  31.64756   34.5    0.29365  -21.20647  0.99694 
   -4.67647  0.00875  0.94186     14.52861  1.63185  1.28042   13.6067  0.03479     0.01112   4841.50429   9142.42991  2.55825         3724.18443     18.45512  0.00158  58733.66353   1.90257  0.11904    11782.7261   48.4623  19.56997  58762.48794    50.86182       44.30914   10.91427  31.27102   35.0    0.27336  -20.81793  0.99982 
   -3.32554  0.00411  1.64244     14.49987  1.68417  1.46856  14.64266  0.03938     0.31372   6457.58392   7541.29696  2.78659         3583.52189     16.59366    2e-05  58735.01446    3.6424  0.06023   42212.88778  47.43881  19.62054  58763.59259    50.87571       44.28865   14.20258  34.67239   34.0    0.27283  -21.11614  0.99937 
   -4.99132  0.01047  1.31084     14.63183  2.03719   1.5344   8.87722  0.05629     0.11417   6045.57994   5726.82421  1.98691         3767.17001      17.5226  0.00019  58733.34868   1.93544  0.09291   17713.06432  48.09448   19.6162     58763.28    50.93339       44.35676   16.04008  30.36373   33.0    0.32398  -20.85892  0.99972 
   -4.09611  0.01581  1.90309     14.52372  1.78727  1.45188  10.11289  0.05538     0.04344   6255.54971    3136.4587  2.84171         3569.53908      16.1224    1e-05  58734.24389   2.36066  0.15988   53887.90848  47.23063  19.63872      58761.4    50.77041       44.17441   16.87411  31.63896   33.5    0.28632   -21.1338   0.9977 
   -2.81061  0.02111   1.3553     14.67716  1.80522  0.94895  10.29531   0.0533     0.02237   6090.42018   7677.73849  2.99692         3566.17676     16.33462    1e-05  58735.52939   2.27804  0.21737   13617.81236   48.1272  19.59844  58762.48794    50.82004       44.23994   15.61553  33.25943   33.5    0.29325  -21.10804  0.99909 
   -5.95975  0.00417  2.30037     14.81221  2.12921  0.66708  16.10263  0.03973     0.03905   6357.39806    7072.1965  3.09715         3456.86828     17.15313    8e-05  58732.38025   3.88224  0.06716   24843.83204  47.47825  19.62922  58763.59259    50.88303       44.32383   11.73143  32.56312   36.0     0.2748   -20.8518  0.99882 
   -5.07485  0.01234  1.95485      14.4843  1.72106  1.26779  15.30507  0.04307     0.02759   6844.73475   6729.00967  3.22601         3454.93344     20.03057  0.05961  58733.26515   4.27736   0.1889   65650.49748  47.10518  19.58914     58761.36    50.80996       44.24548   12.65559  31.63896   35.5    0.27723   -21.0462  0.99672 
   -5.61232  0.00333  1.76206     14.62799   1.9969  1.23644  16.16739  0.04406     0.03234   6661.12865   4502.41433   3.4298         3526.26792     19.69459   0.0275  58732.72768    4.2792  0.05386   31933.13229  47.57292  19.61193      58761.4    50.82504       44.25062   14.20258  32.56312   36.0    0.27331  -20.84696  0.99952 
    -7.9407  0.00494  2.91315     14.45632  1.83215  1.20435  11.08357  0.03142     0.16199   4287.42798   8237.67401  3.20144          3731.3872     20.13862  0.07644   58730.3993   1.21535  0.05476  176544.48428  46.35623  19.59053  58762.48794    50.84911       44.27299   15.25365  31.15017   36.5    0.29756  -20.90421   0.9978 
   -3.56841  0.00567  2.06678     14.70941  1.99214  0.90377  16.45172  0.02991     0.23552   5522.56756   5705.36238  3.22061         3603.95286     17.23372   0.0001  58734.77159   2.99309  0.09332   30122.85513  47.45868  19.58602     58761.29    50.78166       44.21682   12.65559  33.74823   34.5    0.30719  -21.04741  0.99868 
   -4.27687  0.00446  1.58536     14.40138  1.38721  1.10518  10.31424  0.06518     0.32953   6939.03353   4926.63539  3.28523         3480.52618     16.23002    1e-05  58734.06313   2.96253  0.04602   50985.77226  47.30328  19.65263     58761.29    50.80868       44.23569   15.88566  31.63896   34.5    0.28384  -21.13388  0.99932 
   -3.07871  0.00378   2.0551     14.61771  1.87666  1.11649  28.19631  0.01939     0.24031   6162.80161   4895.35353  3.19827          3625.9263     18.46578  0.00162  58735.26129   6.38816  0.10662   42799.73072  47.28512  19.58264  58762.26488    50.81965       44.24258   13.46597  32.56312   32.5    0.31739  -21.06666  0.99834 
   -7.38018  0.00309  2.55542     14.45854   1.6715  1.06161   8.44868  0.05492     0.45352   5643.05753   8044.53019  2.57804         3701.05622     16.73053    3e-05  58730.95982   1.60489   0.0261  122675.53767  46.58827  19.58215     58761.29    50.78906       44.21602   13.93082  30.36373   35.0    0.30205  -20.84535  0.99909 
   -2.76415  0.02279  0.87966      14.7069  1.77643  0.91553  10.85876  0.08039     0.18344    7940.8444   5185.05823  3.42462         3282.16234     16.07728    1e-05  58735.57585   4.08452  0.24747     4922.5904  48.93757  19.61029     58764.13     50.8496       44.26614   15.61553  31.15017   35.5    0.26866  -21.15307  0.99981 
   -4.21605  0.00554  0.94939     14.75956   2.0263  0.87571  19.42695  0.05031     0.22652   9305.22419   7184.28877  2.79771         3201.87324     20.17451  0.08303  58734.12395  10.03426  0.10765    5131.95353  48.91038  19.56572  58762.26488    50.83041       44.27171   14.39013  31.63896   33.0    0.29819  -21.34416  0.99991 
   -4.92089  0.00916  1.50521     14.37284  1.40498  1.47241   8.03061  0.06402     0.02492   5435.91866   8325.77807  3.18678         3587.97019     18.04497  0.00062  58733.41911   1.41554  0.07356   53088.45908  47.33632  19.60909  58763.59259    50.84583       44.25088   13.14438  34.92135   34.5    0.27357  -20.92875   0.9991 
    -5.3552  0.00874  2.53395     14.53372  1.89657  1.29007  14.76381  0.05031      0.0308   7480.37229   3401.47806  3.47571         3326.38738     16.08128    1e-05   58732.9848   4.92801  0.12906   96815.52575  46.75327   19.5321  58762.26488    50.87925       44.32165   13.14438  31.15017   36.0     0.2689  -20.97935  0.99647 
   -1.82447  0.00565  0.87345     14.77081  1.89957  0.88184  26.02428  0.04026     0.05782   9189.64359    5533.2327  4.44205         3025.72251     17.29019  0.00011  58736.51553  13.11001  0.14713    3866.62805  49.07769  19.58552     58762.29    50.84368       44.27041   13.84069  32.56312   34.5    0.24181  -21.07242  0.99991 
   -7.30482  0.00174  1.58958     14.53712  1.91304  1.37197  22.80216  0.02692     0.06874   6614.06288   5644.54052  1.77625         3831.93063     16.93356    5e-05  58731.03518   5.95031  0.03956   37832.18418  47.57015  19.57214      58761.4    50.86236       44.28228   16.87411   29.5297   35.0    0.29279  -20.74101  0.99968 
   -3.76483  0.00727  1.75658     14.61755  1.82951  0.78669  11.55259  0.04699     0.37387   6606.48073   5319.36614  2.99477         3499.20028     20.67429  0.26243  58734.57517   3.00779  0.08402   30506.33483  47.55745  19.62976      58761.4     50.8149       44.25597    10.8101  33.48445   33.0     0.2902  -21.40962  0.99896 
   -3.61078  0.00374  1.93495     14.64306  1.59617  0.69569  22.94939  0.01873     0.01681   5123.93858   8931.89254   3.1394         3678.76338     17.13639    8e-05  58734.72922   3.59423  0.08583   28715.68112  47.44047  19.59525     58761.29    50.74997        44.1693   13.93082  34.13491   33.5    0.33748  -21.11352  0.99839 
   -3.16225  0.00696  1.00803     14.39311   1.3601  1.44472   8.17839  0.04052     0.03051   3731.23806   8344.06273  2.79534         3896.35766     17.39648  0.00014  58735.17775   0.67921  0.05691    20995.1225  48.07335  19.51421     58761.29    50.77698       44.20587   13.93082  32.47299   32.0    0.27626  -21.22836  0.99981 
   -5.33019  0.00506  1.19408     14.63422  1.89076  1.15637  26.63007  0.02803     0.28646     7183.163   3250.59639  2.35147         3615.33768     18.65762  0.00253  58733.00981   8.19655  0.13471   13492.07539  48.26133  19.52749  58762.26488    50.87895       44.33785   12.65559   29.5297   34.5    0.27969  -20.77857  0.99966 
   -6.39431   0.0217  1.51433     14.41312   1.5281  1.06885   9.51532  0.03687     0.32539   4598.15521    5537.5172  2.21458         3788.80864     20.19423  0.08689  58731.94569    1.2001  0.20648   48548.41167  47.40638  19.56097     58761.29    50.82189       44.22498   13.14438  33.25943   35.5    0.30766  -20.87013  0.99756 
   -3.47229  0.00472  1.65413     14.68024   1.6855  0.74357  16.89051   0.0285     0.13307   5311.57847   5729.42612  3.05931         3667.93443     16.06964    1e-05  58734.86771   2.84261  0.07967   18672.38634  47.78723  19.58668     58760.39    50.78427       44.22043   12.65559  33.74823   33.5    0.30314  -21.03547  0.99917 
   -4.03613  0.01671  1.64575     14.54606  1.62114  0.96464    8.3946  0.05781     0.22698   5100.39428   5991.80635  3.11494         3645.73335     17.06482    6e-05  58734.30387   1.30267  0.14024   32978.94605   47.5277   19.6065  58762.48794    50.80602       44.22216   12.65559  33.74823   35.0    0.26288  -21.04851  0.99835 
   -6.15814  0.00644  1.98307     14.57705  1.92883  1.29424  17.47753  0.03883       0.012   7461.15875    4182.7675  2.45888         3419.32486     18.47051  0.00164  58732.18186    5.8039  0.11264   49394.78225  47.26578  19.56644  58762.26488    50.83188       44.25735   15.12673  31.63896   34.0    0.30873  -20.80747  0.99842 
   -2.76868  0.00357  1.28338     14.58399    1.525  0.84266  14.00646  0.03527     0.30052   5425.57057   4682.69914  2.85564         3711.31065     17.60448  0.00022  58735.57132    2.4595  0.04994   15842.20378  48.03559  19.59616  58762.48794    50.80379       44.22541   13.14438  33.25943   33.0    0.29879  -21.12924  0.99971 
   -4.70916  0.00366  2.10989     14.61579  1.84214  0.99702   15.3543  0.04381     0.03456   6403.04348   7394.37089  4.19038         3445.54314     18.45578  0.00159  58733.63084   3.75517  0.05621   44676.59842  47.23557   19.5728     58761.29    50.79186       44.24777    12.6691  31.15017   36.0    0.26963   -21.0156    0.999 
   -4.06511  0.00513  1.74127     14.51533   1.7617  1.48647  20.60911  0.04326      0.0938   8013.43215   5108.09412  3.93367         3213.13229     16.84971    4e-05  58734.27489   7.89448  0.10564   46220.00454  47.36821  19.64279     58763.28    50.79676       44.18641   16.49079  33.75682   36.0    0.26918  -21.06196  0.99878 
   -1.23426  0.00319  1.00073     14.56886  1.62074  1.22573  11.22651  0.02958     0.01644   3560.31766   4375.92292  3.22525          3794.4437     18.07335  0.00066  58737.10574   0.84889  0.03576   10975.94369  48.43748  19.59593     58761.29    50.76549       44.16542   16.86552  33.30948   34.0    0.25457  -21.12892  0.99994 
   -2.04916  0.00192  0.84101     14.59437  1.56441  1.03445  13.36768  0.04251     0.02706   5416.34498   5346.49367  3.41798         3612.64357     18.39075  0.00137  58736.29084   2.33935  0.02562    6653.27792  48.79056  19.58254  58762.26488     50.8288       44.23394   16.40197  32.47299   35.5    0.26821  -20.88923  0.99998 
   -4.45961  0.00637  2.02894     14.30306   1.3311  1.50853  14.11014  0.04476     0.04418   6521.52646   5617.95585   4.3903         3405.58629      16.1447    1e-05  58733.88039   3.57979   0.0899  126021.12893  46.67807   19.5982  58759.43003     50.8135       44.24669   13.14438  31.15017   35.0    0.27955  -21.08752  0.99732 
   -2.30817  0.00654  1.28852     14.62521  1.58213  0.70423  11.86918   0.0537     0.20146   6509.42115    5914.5345  3.73718         3452.49184     20.50648  0.17832  58736.03183   3.00008  0.07768    13703.1197  48.11109  19.62225     58763.28    51.06533       44.54366    10.8101  27.15665   35.0    0.26451  -21.32189  0.99953 
   -6.32059  0.01253  1.53129     14.59478  1.54107  0.63192  20.09342  0.03626     0.15466   7372.67172   4975.74738  2.82673         3449.00727     20.45355  0.15786  58732.01941   6.51525  0.25179   21686.46532  47.75036  19.53194     58763.28    50.87186        44.3143   10.91427  31.27102   36.5     0.2704  -20.99211  0.99701 
   -4.22594  0.00843  1.02228     14.57995  1.73887  1.02774  13.23039  0.06067     0.29957   8272.38984   4378.83621  2.69654         2985.73205     19.97146  0.05202  58734.11406   5.40085  0.11151   11676.58258  48.42265  19.62353     58763.28    50.83692       44.24119   16.49079  31.64756   34.0    0.27377  -21.21746  0.99977 
   -2.97968  0.00447  0.92439     14.68483  1.72076  0.83825  14.38471   0.0717     0.34187    8506.9021   3917.15354  3.57174         3306.40191      18.7947  0.00346  58735.36032   6.20971   0.0643    5828.79209  48.80728  19.54844     58761.29    50.76355        44.1798   13.93082  34.13491   36.5    0.25958  -21.04737  0.99992 
   -4.46371  0.00806  0.73991      14.5883  1.56588  1.00531  31.06789  0.02562     0.09321   7537.70952   8478.45347  2.38246         3577.31712     16.66036    3e-05  58733.87629  10.52974  0.25034     5300.7664   49.0009   19.5815     58762.29    50.94474       44.39124   12.64881  29.64286   32.5    0.27469    -20.931  0.99985 
   -5.70974   0.0041  2.72308     14.60183  2.03401  1.08628  14.09815  0.03529     0.01598   5879.12377   7503.10446  2.82501         3537.21498     16.62797    2e-05  58732.63026    2.9068  0.05785   87625.67615  46.76445  19.57962  58762.48794    50.86946       44.29964   13.93082  32.47299   35.0    0.30415   -20.9354  0.99833 
   -3.09577   0.0046  2.18153     14.86237  2.06997  0.63032  30.51579   0.0201     0.02944   6495.06565   5902.49488  3.66941         3444.03191      17.2615   0.0001  58735.24423   7.67925  0.14041   17240.94469  47.67072  19.60127  58762.26488     50.7985        44.2057   13.93082  32.47299   34.5    0.26369   -21.1363  0.99788 
   -3.31298   0.0025  1.02982     14.61691  1.81538  1.21889   17.7336  0.04223     0.01204   7032.34955   7371.39606  2.70955         3552.53248     16.20473    1e-05  58735.02702   5.23149  0.04442   10434.62623  48.48381  19.63001  58762.48794    50.83401       44.23986    17.1609  32.47299   34.0    0.27348  -21.11722  0.99993 
   -4.98863  0.00536  1.59436     14.40254  1.51461  1.43119  22.47285  0.02953     0.01876   7040.30847   4035.36763  2.62818         3488.74466     17.00699    6e-05  58733.35137    6.6446  0.12046   56002.55783  47.29576  19.56601     58761.29    50.81957       44.26963   11.73143  32.56312   34.5    0.28564  -20.98276  0.99846 
   -3.48674  0.03407  1.78057      14.6251  1.97977  1.55294  12.46867  0.04837     0.05394   6452.25813   7692.86504  3.04127         3709.99652     16.06382    1e-05  58734.85326    3.0965  0.42484   32761.22347  47.54898  19.61935  58762.48794    50.82926       44.25552   14.76485  31.63896   35.0    0.29495  -21.11889  0.99627 
  -10.09985  0.07805  2.70663     14.43274  1.98096  1.14573  10.62826  0.05284     0.01327   9221.85252   6605.74837  2.50083          2386.7492     20.43236  0.15034  58728.24015    5.3917  0.82953   183679.9372   46.4368  19.61924     58763.39    50.89194       44.32015   13.84069  32.56312   35.5    0.31803  -21.06834  0.97489 
   -2.40779    0.002  1.33509       14.626  1.85507  1.28481  27.81648  0.02596     0.16005   6565.58527   6262.56686  3.81928          3488.4881     18.97832  0.00529  58735.93221    7.1528  0.05575   17186.88598  48.05098  19.59297  58763.59259    50.90681       44.35211    13.7764   30.0108   35.0    0.27816  -21.05384   0.9998 
   -5.22474   0.0026  1.83152     14.59493  1.97031  1.41591  21.39548  0.02886     0.13413   6388.36469   4874.02931  2.84005         3673.92256     17.40695  0.00014  58733.11526   5.20869  0.05557   39638.94609  47.43963  19.58495     58762.29    50.81027       44.24508   13.93082  30.36373   34.5    0.27727  -20.92978  0.99942 
   -4.74636  0.00588  1.66209     14.66149  1.97054  1.10279  21.50381  0.03255     0.15558   6892.08042   5778.67254  2.98315         3492.07292     18.65115  0.00249  58733.59364   6.09317  0.12636   24028.94006  47.74138  19.59908     58762.29    50.84243       44.28182   13.46597  32.56312   35.0    0.26779  -20.93472  0.99907 
   -5.37947  0.00325  2.91641     14.53659   1.8254  0.98658  19.83748  0.02146     0.04279   5302.10277    6364.9937  3.13952         3637.66216     18.79285  0.00345  58732.96053   3.32667  0.06449  121810.34732  46.51482  19.58697  58763.59259    50.86608       44.31567   14.87892   29.0409   34.0    0.31338  -21.03622  0.99741 
   -4.57276  0.00163   1.7153     14.75012  2.07418    0.796  17.20326  0.05741     0.01148   9795.76847   6756.95992  4.90252         2623.58785     16.22833    1e-05  58733.76724   9.84725  0.02803   17910.12658  47.86391  19.65156  58762.48794    50.87861         44.297   13.47358  34.05104   33.0    0.26338  -21.07894  0.99978 
   -2.06828  0.00112  0.78468     14.58781  1.67913  1.26298   8.03981  0.06414     0.28085   5427.59565   7087.06534  2.74913         3695.76318      16.8341    4e-05  58736.27172   1.41282  0.00902    6407.33933  48.89786  19.56367      58761.4    50.81631       44.26409   13.14438  31.15017   33.0    0.30415  -20.89267  0.99999 
   -2.92011  0.00144  0.72608     14.43555  1.43514  1.42964  13.58512  0.04426     0.03617   6213.66887   9647.90478  2.54055          3676.9588     19.92887  0.04716  58735.41989   3.12887  0.01962    9453.30364  48.72818  19.66134  58762.26488    50.80469       44.24534   12.65559  31.63896   32.0    0.30056  -21.09643  0.99998 
   -6.32722  0.01258  2.22452     14.38183  1.54015  1.29729  13.05135  0.04894     0.12886   7357.75133   6924.76452  2.75923         3461.76317     16.07679    1e-05  58732.01278   4.21476  0.16421  121950.85011  46.67575  19.59602  58762.26488      50.838       44.27899   14.39013   29.5297   34.5    0.29922   -20.9518  0.99521 
   -3.37245  0.02146    1.006     14.33059  1.26368  1.00701  14.16594  0.05737     0.05827   9237.99158   8200.26531  4.37778         2789.73319     20.60386  0.22315  58734.96755   7.21153    0.304   25909.80554  47.95182  19.52122     58761.29     50.8718       44.32775   12.65559   29.5297   33.0    0.28126   -21.3784  0.99844 
   -7.05449  0.00115  1.94969     14.67858  1.95273  0.84064   21.0968  0.03702     0.03979   7616.49033   8518.35259  2.35159         3517.93391     16.70644    3e-05  58731.28551   7.30052  0.02432   30285.25805  47.49833  19.59227  58762.48794    50.92223        44.3783   13.01747   30.0108   32.5    0.27831  -20.75701  0.99967 
   -6.14446  0.00702  2.25665     14.47713  1.63324  1.05331  14.67898   0.0356     0.01639   5747.71918   4759.57675  3.22077         3519.27249     16.38775    1e-05  58732.19554   2.89277  0.10306   85808.19385  46.84144  19.59442      58761.4    50.86694       44.29435   12.65559  31.63896   36.0    0.29438  -20.88046   0.9972 
   -3.71143  0.00213   1.7772     14.58905  1.85524  1.26646  15.21657  0.04678     0.06514    7105.5363   8014.60855  3.30526         3501.10464      18.0874  0.00068  58734.62857   4.58287  0.03234    36106.3908  47.48019  19.58826     58760.39    50.77312       44.20915    12.6691  33.25943   35.0    0.24794  -21.14812  0.99966 
   -7.53176  0.00746   1.4732     14.64623  2.08259  1.17909  19.18098  0.05769     0.01564   9897.17769   9781.71675   2.4507          3017.0341     18.55659    0.002  58730.80824  11.20781  0.14312   21403.43843  47.92044  19.56843     58761.29    50.79718       44.22061   12.65559  33.74823   28.0    0.29702  -20.68915  0.99931 
   -2.34633  0.00354   1.0518     14.69653  1.73373  0.83551  22.40552  0.03768     0.01048   8155.08465   6650.57702  2.99968         3466.64717     19.74491  0.03088  58735.99367   8.88872  0.07927    7204.53627  48.60635  19.62114     58763.28     50.8561       44.26975   12.65559  31.63896   34.5    0.26239  -21.15092  0.99986 
   -2.34939  0.01181  0.96582     14.60419  1.56104   0.9229   14.0734  0.04413     0.26848   6162.06988   6064.66255  3.04322         3578.19783     17.96998  0.00052  58735.99061   3.18771  0.16614    8368.43602  48.56983  19.57854  58762.26488    50.80266        44.2241   11.73143  34.67239   34.5     0.2619  -21.07161  0.99971 
   -3.64044  0.00451  0.96272      14.7347  1.96125  0.97927  15.80485  0.03204     0.08157   5586.54668   9361.28961  2.44078         3713.76148     17.33295  0.00012  58734.69956   2.94242  0.07124    5727.25738  48.83643  19.57726     58763.28    50.84452       44.27531   15.25365  31.15017   33.0    0.25144  -21.47396  0.99994 
   -3.89801  0.00432  1.10046     14.63748  1.59553  0.80671  14.66888  0.04447     0.05682   6308.18472   8028.08498  2.76398         3702.89528     18.62811  0.00236  58734.44199   3.48203   0.0633    9526.16975  48.40968  19.62484  58762.26488    50.77845        44.2018   12.65559  33.74823   34.5    0.26357  -21.08205  0.99982 
   -3.28875  0.00313  1.34008     14.55122  1.71583  1.30487  25.48263  0.02345     0.29912   6304.21867   3903.97255  3.05831         3539.17511     16.36889    1e-05  58735.05125   6.04135  0.07979   22599.89581  47.89496  19.62451  58762.48794    50.81609        44.2394   14.76485  31.63896   34.5    0.29083  -21.14266  0.99961 
   -3.33824  0.01665  0.72702     14.80077   1.8336  0.70058  17.61837  0.03516     0.32635   6340.14142   9549.26071  2.61501         3581.73551     20.16746  0.08169  58735.00176   4.22465  0.29334    2252.47493   49.4564   19.5704      58761.4    50.76645       44.18284   13.93082  32.47299   33.5    0.24331  -21.12121  0.99989 
   -2.49758   0.0142  1.13479     14.59417  1.49421  0.85483  14.24881  0.04548     0.18872   6840.92753   3547.90154  2.86988         3665.12988     18.87835   0.0042  58735.84242   3.97773  0.20228   11580.55359  48.26969  19.55196     58761.32    50.83675       44.26287   15.12673  31.63896   34.0    0.29193  -21.04695  0.99927 
   -5.73173  0.00173  1.75115     14.36658  1.37116  1.21021  18.54184  0.03224     0.01054   5999.15645   4848.04193  3.34964         3548.97684     16.34284    1e-05  58732.60827   3.98071   0.0321   72174.19135   47.0609   19.5959  58762.48794    50.82137       44.23182   16.04008  32.47299   35.5    0.27455  -20.83893  0.99937 
   -4.38153  0.00459   1.3427     14.66051  1.96478  1.17918  10.32978   0.0491     0.16864   5272.47845   8418.98002  2.85158         3670.90123      16.7386    3e-05  58733.95847   1.71296  0.04746   15705.94911  48.11014  19.62112     58763.35    50.84501       44.25251   16.04008  32.47299   34.5    0.29456  -21.01521  0.99984 
    -4.6543  0.01142  2.00402     14.64389  1.90862   0.9179  10.17952   0.0483      0.0104   5856.02683    8185.1097  2.57595         3630.77215     17.68123  0.00027   58733.6857   2.08238  0.11622   36691.27672   47.3812  19.61698  58762.48794    50.78373        44.1995   15.31159  32.75414   33.5    0.29703  -21.04408  0.99826 
   -2.06083  0.00576  0.81323     14.61888  1.50477  0.72812   9.75267   0.0583     0.07793   6006.85112   4111.70514  3.02503         3597.31199     20.47476  0.16576  58736.27917   2.09915  0.05613    5345.11865  48.89794  19.64701      58761.4    50.85714       44.28596   12.65559  33.74823   33.5    0.29448  -21.14033  0.99993 
   -4.50493  0.00407  1.65692     14.43921  1.48042  1.06393  17.65656  0.03701     0.43765   6941.60177   7832.84837  2.84156         3460.78022     18.02708  0.00059  58733.83507   5.07519  0.07195   49931.50204  47.30225  19.55166  58762.48794    50.83855       44.26879   13.14438  31.15017   34.0    0.28499  -21.07232  0.99893 
   -3.41273  0.03485  1.72155     14.70009  1.71921  0.74706   9.22357  0.04931     0.01597   5018.07282   6575.73639  3.60277         3556.40643     18.77868  0.00334  58734.92727   1.38548   0.3214   18828.32806  47.75753  19.63436  58762.48794    50.81085       44.21968   12.65559  33.74823   36.5    0.32046  -21.04874  0.99648 
    -4.9905  0.00532  1.71591     14.57122  1.77316  1.02272  21.41826   0.0345     0.24419   7669.85537   5185.68367  2.36075          3504.5767     19.19408  0.00869   58733.3495   7.51598  0.11389   34922.77937  47.50549    19.615  58762.48794    50.88384       44.31297   12.64881  33.38028   34.5    0.28701  -20.98806  0.99872 
   -4.35272  0.01231  1.50524     14.53045  1.52408  0.90776  15.99301  0.03331     0.01306   6020.48272   6219.84282  2.61022         3683.56246     18.83559   0.0038  58733.98728   3.45796  0.19689   27869.62861  47.65151  19.57882     58761.29    50.80251       44.23307   15.12673  31.63896   33.5    0.28678  -21.08995  0.99799 
   -3.19599  0.00882  0.80449     14.32495  1.23528  1.37023  13.91905  0.08411     0.17163  10295.46223   4691.01694  4.70761         2779.26996     17.68008  0.00027  58735.14401   8.80093  0.12273   16623.60984  48.32884  19.63546     58763.35    50.79352       44.18992     17.236  33.30088   34.5    0.20467  -21.31587  0.99976 
   -2.79739  0.00472  1.15231     14.53535  1.48306  0.83343  10.63732  0.06159     0.07964   7058.96496   3574.45466  2.85273         3672.52906     20.38158  0.13375  58735.54261   3.16185  0.05018   15538.81708  48.12545  19.66263  58762.48794    50.78939       44.20077   13.14438  34.92135   33.5    0.27993  -21.34368  0.99976 
   -4.51358  0.02712  1.39602     14.53531  1.73568   1.4152   8.55003  0.07345     0.36258   6722.18682     7468.614  2.59086         3565.71637     16.89608    4e-05  58733.82642   2.30471  0.23191   26696.41228  47.79208  19.55015     58763.39     50.9132       44.34716   14.76485  31.63896   34.0    0.28497  -21.01817  0.99868 
   -7.81937  0.01176  2.41003     14.41764  1.64889  1.22486  13.03389  0.04014     0.14587   6477.51665   6456.04808  2.28864          3651.5418     16.79554    3e-05  58730.52063   3.26226  0.15327  129950.05553  46.60821  19.59519  58762.26488     50.9511       44.39615   13.14438   29.0409   35.5    0.31795   -20.8461   0.9952 
   -3.69341  0.00271  0.75613     14.76472  1.90782  0.90151  16.38965   0.0385       0.021   5922.74081   6967.28067  2.81776         3566.77764     16.36468    1e-05  58734.64659   3.42959  0.04434    2993.01186  49.31608  19.55591      58761.4    50.79464       44.23607   13.93082  30.36373   35.5    0.23016  -21.28084  0.99998 
   -2.60721  0.00322  1.39376     14.54078  1.67388  1.43167  12.16074   0.0542     0.01916    6194.6085   7750.68911  4.01836          3516.0129     16.74405    3e-05  58735.73279   2.78365  0.03912   25023.93451  47.80584  19.53525     58761.29    50.83773       44.29426   11.73143  30.45386   34.0    0.23042  -21.27009  0.99978 
   -2.04254  0.01401  1.50186     14.60643  1.78591  1.24588  12.62048   0.0453     0.07848   6091.59892    6492.6552  3.54233         3680.57952     18.42364  0.00147  58736.29746   2.79361   0.1768   22912.67282  47.80737  19.60848  58762.48794    50.84671       44.26523   13.38542  33.38028   33.5    0.29661  -21.08062  0.99893 
   -3.90936  0.00201  1.80147     14.64757  2.18695   1.4968   6.58307  0.06021     0.24215   4767.63202   7907.95833  2.54397         3726.46525      19.1555  0.00795  58734.43064   0.89261  0.01321   33401.20471  47.57367  19.55532     58761.29    50.96581       44.42094   14.14435  29.16175   33.0    0.31214  -21.09485  0.99989 
   -3.30784   0.0387  1.37711     14.69188  1.79928  0.88408  10.96239  0.05575     0.49282   6211.01839   7775.31769  3.46751         3608.15594     19.85425  0.03972  58735.03216   2.52266  0.42422   13094.47357  48.12892  19.58738      58761.4    50.79681       44.23066   13.14438  31.15017   35.5    0.26551  -21.18464  0.99807 
   -2.07653   0.0014  0.95889     14.71638  1.83999  0.95146  15.21736  0.04362     0.01082   6231.18729   3865.27467  3.88547         3500.49455     19.95269  0.04982  58736.26347   3.52458  0.02134    5799.78778  48.80671  19.56357  58762.26488     50.8232       44.24073   15.66536  32.47299   34.5    0.30409  -20.95481  0.99998 
   -2.75469  0.00405  0.70023     14.54023  1.31218  0.81178  16.39824  0.04892     0.21573   7151.46256   7095.69156  3.07277         3507.87552     16.05448    1e-05  58735.58531   5.00281  0.06633    4963.81624  49.00055   19.6418     58762.29    50.82209       44.25956    14.9615  32.56312   36.0     0.2471  -21.17826  0.99995 
   -5.10292  0.00774  1.51289     14.40731  1.41512  1.11291  19.34563  0.03107     0.01594    6391.1038   7420.04811  2.91209          3514.6997     17.77908  0.00033  58733.23708    4.7137  0.14982   46088.81649  47.39643  19.56001  58762.26488    50.81632        44.2585   13.14438  31.15017   35.5    0.28372  -20.95322  0.99811 
   -4.05232  0.00373   1.0118     14.53515  1.52135  1.03287  25.41227   0.0287      0.2444   7009.37139   6641.98271  2.76567         3596.08814     17.26237   0.0001  58734.28768   7.44781  0.09482   12300.96631  48.35095  19.57786      58761.4    50.83698       44.25593   17.36291  31.15017   35.5    0.25397   -21.0134  0.99977 
   -2.59209  0.01543  1.57449     14.87641  2.13163  0.71242  13.23184  0.04837     0.30697   6627.71461   8221.76717  3.13676         3527.60371     18.15715   0.0008  58735.74791   3.46717  0.20423    8669.51527  48.26528  19.55682      58761.4     50.7815       44.21582   13.14438  33.25943   33.5    0.30132  -21.33074  0.99905 
   -6.55397  0.01308  2.03828      14.5782  1.99549   1.3981  10.01376  0.07921     0.01019   7858.81664   9564.79144  4.60258         2885.52491     18.13415  0.00076  58731.78603   3.68926  0.13097   53701.20735  47.22039  19.57138  58762.26488    50.78612       44.21398   13.93082  30.36373   30.5    0.26331  -20.75991  0.99812 
    -4.7715  0.01568  1.73126     14.52593  1.61885  0.95096  16.15662  0.03537     0.01585   6239.02274   3739.93431  2.72392         3625.43716     19.94547    0.049   58733.5685   3.75155   0.2534    39983.3039  47.39945  19.56959      58761.4    50.80022       44.23031   13.93082  30.36373   35.0    0.28335  -21.05635  0.99644 
   -3.01961  0.00642  0.84832     14.72941   2.0487  1.23458  24.81786  0.03789     0.17029   8190.77813   6483.24655  3.30702         3354.56918     18.19987  0.00088  58735.32039   9.93212  0.15932    4759.84631  49.04562  19.57558     58761.29    50.80791       44.20695   15.88566  33.74823   35.0    0.29483   -20.9383  0.99993 
   -6.50345  0.00121  3.37231      14.5256   2.0734  1.55962  10.61271  0.05094     0.03188   6176.97575   6156.80011  3.36229         3520.73235     16.10645    1e-05  58731.83655   2.41549  0.01288  194607.01173  46.24051  19.57642     58763.39    50.83372       44.27776   15.12673  31.63896   35.5    0.29339   -20.9691  0.99942 
   -4.94584  0.00563  1.80508     14.59524  1.94822  1.43742  19.67735  0.03373     0.03727   6918.14095   8140.36512  3.35905         3458.21842     19.56972  0.02063  58733.39416   5.61788  0.11082   38015.61961  47.46553   19.6263     58764.13    50.89539       44.31324   14.14435  33.38028   34.0    0.28881  -20.97978  0.99889 
   -3.30028  0.00187  1.67199     14.63132  1.95735  1.43297  13.73861  0.03905     0.09212   5648.66461   8701.42871  3.28626         3647.57279     16.45142    2e-05  58735.03972   2.61494   0.0257   27752.75144  47.67074  19.61005      58761.4    50.77648       44.16409   17.98633  33.30948   34.0     0.2732   -21.1063  0.99981 
   -1.49674  0.00314  0.91499     14.52009  1.59146  1.40115  28.31443  0.02985     0.36752   7814.07244   7060.67583  4.32287         3187.91671     19.88784  0.04291  58736.84326  10.31311  0.08904   11279.01395  48.49554  19.60725  58762.26488    50.80448       44.24528   15.25365  31.15017   34.5    0.21575   -21.0346  0.99988 
   -5.49419  0.00592  2.55849     14.58277  1.86312  1.04311   12.5391  0.03706     0.41416   5443.47753   9940.03207  3.42041         3551.60092     17.20435    9e-05  58732.84581   2.21639  0.07426   77353.86213  46.83464  19.57584  58762.48794     50.8364       44.24799   15.66536  32.47299   33.0    0.29508  -20.93332  0.99788 
   -3.41582  0.00467  2.19679     14.63521   1.9922  1.19854   18.9458  0.03291     0.28593   6492.58516   5807.53024  3.62931         3500.61038     17.12485    7e-05  58734.92418   4.76404  0.08857   47896.74506   47.2043  19.59466      58761.4    50.85508       44.29984   12.92681  31.36774   34.5    0.29263  -21.08563  0.99852 
   -3.34929  0.02439  0.79707     14.46135   1.4521  1.40333  14.01624     0.04     0.01709   6090.93488   3160.56374  2.40732         3671.06639       17.644  0.00024  58734.99071   3.10189  0.34182   10235.47231  48.61775  19.57722  58762.48794     50.8181       44.25516   13.14438  31.15017   34.0    0.25913  -21.07331  0.99965 
   -5.41207  0.00313  1.13706     14.52253  1.60506  1.01096  28.07839  0.03145     0.02638   8137.07072   5789.95347  2.46776         3391.76167     19.95208  0.04975  58732.92793   11.0901    0.088   17370.86858  48.12295  19.56354     58762.29    50.89268       44.36233   12.71465  29.83252   35.0    0.26982  -20.88635  0.99967 
   -4.54114  0.01349  1.66885     14.46083  1.54876  0.89667  15.90269  0.04664     0.08641    8401.4129   5028.10269  3.57395          2955.4628     20.41788  0.14542  58733.79886    6.6958  0.21458   47971.11202  47.33302   19.5861  58762.48794    50.81749        44.2479   14.87892  31.15017   35.0    0.28323  -21.24668  0.99679 
   -4.43874  0.01297   2.1283       14.446  1.52078  1.15102  10.65035  0.06302     0.43299   7217.24774   4918.11467  4.84822         3165.17037       17.475  0.00017  58733.90126   3.30929  0.13811   82025.28719   46.8809  19.57968      58761.4    50.80731       44.25264   12.65559  31.63896   34.5    0.30091  -21.05047  0.99639 
   -5.44171   0.0028  1.94714     14.44126  1.65531  1.51445  19.42871  0.03016     0.01472   6163.34806   6907.37282  2.91464         3521.84516     18.05636  0.00063  58732.89829   4.40255  0.05437    76379.4234  47.02596  19.60539     58762.29    50.82263       44.22763   16.37446  33.25943   35.5    0.27917   -20.9167  0.99899 
   -3.54102   0.0043  1.16459     14.59953  1.86287  1.23227  27.42907  0.03259     0.48738   9512.90983   6345.36193  4.24232         2568.45103     17.02473    6e-05  58734.79898  14.80693  0.11788   14834.81649   48.2354  19.59965     58762.29    50.83809       44.24824   16.40197  32.47299   32.5     0.3139  -21.04243   0.9997 
   -2.12303  0.02537  1.19423     14.63922  1.67272  0.99693   19.7794  0.02346     0.01045   5310.62227   4351.12608  3.18044         3589.97233      18.1396  0.00077  58736.21697    3.3276  0.50176   11667.29904  48.27112  19.58944     58760.39    50.80285       44.21104   15.12673  33.74823   33.0    0.28941  -21.34168   0.9985 
   -5.21131  0.00107  1.29487     14.45516  1.48626  1.14646  11.97692  0.07893     0.14582   9407.16112   6727.69633  3.53045         3011.19193     17.47476  0.00017  58733.12869   6.32251  0.01285   28447.47122  47.76244  19.54462     58760.32    50.86244       44.27127   17.36291  31.15017   33.0    0.29343  -20.91957  0.99991 
   -3.88889  0.00402  2.23155     14.55974  1.77147  1.01632  11.33068  0.06157     0.02145   7183.29304   8710.15904  3.81191          3394.7969     19.88418  0.04255  58734.45111   3.48763  0.04553   62212.05449  47.02609  19.56923  58762.26488    50.80396       44.21985   15.66536  32.47299   34.0    0.26201  -21.14745  0.99897 
    -6.0775  0.07725  1.29533     14.71986  1.77456   0.7519  13.38896  0.06016      0.0925   8638.63869   5958.70028  2.26255         3201.08711       18.654   0.0025   58732.2625   5.96025  1.03432   10044.66045  48.29124  19.65309     58763.39    50.90021       44.28865   14.14435  33.38028   37.5    0.27784  -20.76327  0.99584 
