 texplosion  fnickel     Pspin  log(Bfield)      Mns  thetaPB   mejecta    kappa  kappagamma     vejecta  temperature    alpha  cutoff_wavelength  log(nhhost)      A_V         MJD0   kenergy   mnickel                TSD   log(L0)  Peak_mag     Peak_MJD  log(E_rad)  log(Peak_lum)  Rise_Time     E_fold  tau_1  delta_m15     r_peak     frac 
  -72.76784  0.39036   3.67302     12.65997  1.92834  1.21755  63.13375  0.03659     0.02207  3731.07766   6686.73354  1.28254         5986.06571     17.22027    9e-05  55341.83216   5.24273  24.64459   1156381088.62765  42.36088  23.00541  55526.65142       51.39       44.16213  102.42889  136.95548  132.0    0.02612  -21.68899  0.05233 
  -67.41141  0.11356   4.16197     14.09541  1.90306  0.76297  75.48424  0.02255     0.16868  2927.39623   6340.69892  1.58972          4925.0429     17.55047   0.0002  55347.18859   3.85875   8.57222      1972651.16262  45.01465  23.06874      55508.3    51.77659        44.6613   70.31553   97.71389  122.0    0.03275  -21.26989  0.58739 
 -130.96335  0.31257  19.81327     13.52477  1.73616  0.43808   66.7026  0.02819     0.19984  2803.78595   3982.91303  0.67072         4632.46069     16.61667    2e-05  55283.63665   3.12795  20.84952    564641973.43277  41.16275  22.91847  55538.73573    51.31924       44.08769    101.278  136.95548  130.5    0.03184  -20.96075  0.00089 
  -42.37118  0.28939   0.79978     14.77472  1.66621  0.09984  48.45907  0.18611     0.05993  4466.01603    9441.7439  2.12013         3557.88543     20.97924  0.52962  55372.22882   5.76558  14.02352         2792.80687   49.2386  23.10115  55550.82003    51.40222       43.99581  115.08864   245.1388  126.0    0.01348  -21.88038  0.95281 
  -55.12959  0.04305   1.24697     13.65453  1.69025   1.5514  60.13463  0.17943     0.01212  2986.32491   6204.16255  1.67343         3637.19665     19.39783  0.01389  55359.47041   3.19909   2.58901      1197871.01024  46.22667  23.15336   55521.8177     51.6923       44.48187  100.12712  130.05016  176.0      0.009  -21.33044   0.9783 
   -83.9005  0.03482   1.75767     13.58125  1.53354  1.54128  86.56435   0.0345     0.08842  1168.52683   3514.72225  2.83055         3762.08881     17.35173  0.00012   55330.6995   0.70509   3.01392      3026130.13076  45.48378  22.93693  55550.82003    51.45331       44.22272  110.48509  135.80459  198.0    0.00974  -20.84687  0.94322 
  -45.62304  0.32802   4.84209     14.06391  1.59403  0.65249    11.976  0.05001      0.2832  2390.65264   7120.86123  3.40807         3544.42493     19.71052  0.02853  55368.97696   0.40829   3.92832      2585548.41796  44.68872   23.1029  55516.98397     51.1997       44.02691   77.10939  124.29573  126.5    0.06024  -20.74577  0.63331 
  -83.67821  0.07174   1.53179     13.40178  1.63068  1.36431  77.26155  0.21706     0.03706  4088.18095   6801.93679   2.5027         3374.93216     18.38811  0.00136  55330.92179   7.70284   5.54297      5585085.83392  45.36378  23.04092      55508.3    51.51189       44.32519   84.01471  127.74839  206.0    0.00919  -21.67735  0.92733 
  -45.26028  0.01894   1.20001     14.56563  1.80879  0.16893   78.0437  0.05809     0.28967  1332.72517   9106.64915  3.24143         4007.62684     18.53688  0.00191  55369.33972   0.82689   1.47822        17877.85559  48.11555  23.05221      55502.3    51.19178       43.99645   89.76914  128.89928  186.0    0.01048  -21.07359  0.98958 
  -32.39221  0.22012   1.50955     14.36695  1.85092  0.77155   57.5478  0.07692     0.01618  4972.88082   6986.15107  4.59159         3174.22532      20.6474  0.24668  55382.20779    8.4893  12.66726        72275.85967  47.31954  22.95116  55531.48514     51.2543       44.01463  102.42889  141.55903  120.0    0.02075  -21.38021  0.88311 
 -160.76096  0.49591    4.4698     12.50898  2.08656  0.21502  69.01808  0.06481      0.1881  1704.00457   7248.33488  3.06441         3525.96906     19.65607  0.02516  55253.83904   1.19545  34.22709   3714203170.10712  41.71783  23.14754  55507.31653    51.37453       44.11406  104.73066    151.917  162.0    0.01311  -20.84832  0.00051 
  -81.07819  0.00101   2.21432     14.08628  1.67691   0.3352  50.91151  0.06609     0.01688  4132.98178   4544.28869  1.72599         3776.00537     20.89151  0.43275  55333.52181   5.18764   0.05158       513154.27789  46.09262  23.10132   55565.3212    51.54269       44.14813  156.52055   262.4021  118.0    0.03318  -21.54568  0.99856 
  -49.34639  0.11683   2.27019     14.05121   1.8626  0.78856  44.45842  0.15618     0.03374  4462.46274   8953.88471  3.48656         3223.21478     18.75151  0.00313  55365.25361   5.28117   5.19412       704114.88573   45.9792  23.00027  55529.06828     51.3156       44.07022   98.97623  145.01169  118.0    0.01764  -21.23379  0.88668 
   -91.5426  0.07169   2.33972      13.4047  1.56386  0.65337  20.30712   0.0952     0.11141  4737.24363   9975.14513  0.83094         3845.48171     20.54463   0.1947   55323.0574   2.71849    1.4559     12329589.34371  44.63377  23.06817  55487.98164    51.23986       44.14533   69.05318   98.97623  177.5    0.03674  -21.46458  0.94216 
   -27.1069    0.006   1.95965      14.2909  1.65558  0.49833  53.15982  0.06792     0.20982  3306.96677   3961.21483  3.34837         3560.19068     18.63572   0.0024   55387.4931   3.46793   0.31896       154638.27761  46.71412  23.30577  55519.40083    51.24895       44.03372  102.42889  132.35194  104.0    0.02736  -20.89648  0.99313 
  -64.04714  0.21219  11.92398      14.8757  1.35601  0.73026  76.10572  0.01515      0.2778  2178.56215   6803.48621   2.8819         3630.97743     17.44938  0.00016  55350.55286   2.15469  16.14859       317331.58458  44.74675   23.2543  55519.40083    51.16432       43.91431   95.52357  148.46435  146.0    0.02622  -20.92157  0.05406 
 -111.93393  0.29172   5.21506     12.68941  1.79436  0.72446  93.28714  0.02454     0.03394  1575.54055   7643.85464  3.38518         3717.97906     17.10742    7e-05  55302.66607   1.38136  27.21334   1894207268.93828  41.81081  23.05634   55502.4828    51.09077       43.99004   55.24255  108.18332  156.0    0.01631  -21.01973  0.00739 
   -6.62943  0.22591   0.71347      14.3107  1.72205  1.52306  48.46428  0.04123     0.31878  1955.02415   9801.85426  3.88758         3686.33388     16.94698    5e-05  55407.97057   1.10498  10.94849        19463.19295  48.50893  23.11239  55526.65142    51.27591       44.05182   90.92003  139.25725  134.0    0.02099   -20.9191  0.98727 
  -95.04022  0.05468   1.38973     13.50451  1.89124  1.12825  70.18106  0.09198     0.03485   3545.8042   9311.27934  1.65767         3685.24256     21.13001  0.74944  55319.55978   5.26352    3.8378      3321991.87883  45.73834  23.14841  55567.73806    51.34859        44.0258  157.67144  165.72764  144.0    0.01425  -22.07162  0.96584 
  -55.93392  0.33482   2.91036     12.37994  1.99618  1.44948   52.5022  0.02257     0.04587  3668.52979   8020.01219  1.15938         5909.50519     17.76801  0.00033  55358.66608   4.21491  17.57862   2729197324.22475  42.20512  23.13331  55555.65376    51.33666       44.02641  150.76612   161.1241  130.0    0.03458  -21.42832  0.05955 
  -35.33095   0.1337   1.22931     13.84355  1.71013  0.91403  53.89322  0.17068     0.05133  3744.51763   5271.76203  1.65849         4555.59704     20.13117  0.07514  55379.26905   4.50768   7.20549       493254.32794  46.62948  23.10489  55509.73339     51.4948       44.20971   82.86382  173.78385  148.0    0.01543  -21.66279  0.94455 
 -160.92536  0.10214   1.36014     13.41455  1.81145  0.53713  95.10659  0.21458     0.32048  2199.74376   4861.08177  3.19646         3218.72745     16.97716    5e-05  55253.67464   2.74525   9.71383        4612093.382  45.59581  23.05584  55492.81536    51.31052       44.17704   63.29875  116.23953  334.0    0.00347  -21.65663  0.90802 
  -92.54402  0.22487  25.39788     14.14829  1.45797  0.51593   93.5936  0.01755     0.02194  2005.86932   4081.05708  2.70664         3524.75584     18.24634  0.00098  55322.05598   2.24636  21.04596     44113482.19555  41.97843  23.17673  55492.81536    51.13983       43.99229   82.86382  111.63598  150.0    0.01831  -20.95033   0.0046 
  -93.46448  0.33022  16.89776     13.98823  1.68155  0.70722  86.21149  0.02127     0.07196  2474.27465   8638.60199  2.04496         4737.69558     20.36124  0.12763  55321.13552   3.14839  28.46892     47067148.44238  42.36618  23.04139  55495.23222    51.25588       44.09199     69.323   125.1768  134.0    0.02362  -21.54348  0.01172 
  -44.33559  0.00474   1.36219     14.01297  1.87739  0.81199  97.64009  0.05241     0.18209  2047.94331   3100.52918  2.36607          4156.4365     16.24617    1e-05  55370.26441   2.44282   0.46273       304727.45041  46.79001  23.00737  55531.48514    51.59593       44.30427  112.78687  158.82232  156.0     0.0138  -21.09376    0.996 
   -76.7569  0.02249   2.57027     13.81016  1.63413   0.6663  38.55192  0.12758     0.40887  4210.49154    8226.5682  4.14851         2922.28197     19.40023  0.01396   55337.8431   4.07698   0.86706      2402886.82272  45.28144  23.16212  55526.65142    51.69324       44.53384   84.01471  110.48509  122.0    0.02397  -21.22628  0.96663 
  -78.15865  0.00938   2.39304     13.93325  1.72442  0.82002  73.90734  0.03657     0.13735  2268.96636   4497.22222  1.90573          3881.5967     17.83646  0.00038  55336.44135   2.26971    0.6934      1246972.98763  45.65173  22.89408  55589.48982    51.42424       44.12259  146.16257  158.82232  130.0    0.02374  -20.86849  0.97902 
  -32.18787  0.03306     1.671     14.79597  1.75542  0.14495  37.87402  0.08625     0.39945   1916.5254    6955.6838  3.82324         3562.54121     16.78584    3e-05  55382.41213   0.82985   1.25202        11646.76794  48.00107  22.96426  55538.73573    51.35902       44.10416    75.9585  162.27498  140.0    0.01711   -20.7845  0.98225 
  -58.53917  0.07926   2.61564     14.03113  1.47796  0.67923   33.6953  0.05321     0.01974   2088.9664   9625.54915  3.06717         3765.46111     19.46575  0.01624  55356.06083   0.87712   2.67079       813536.94175  45.69298  23.15601  55514.56711    51.17914        43.9954   86.31648  123.14484  112.0    0.02765   -20.8184  0.88977 
  -63.99778   0.2177   20.9593     14.81247   1.3183  0.22832   60.8036  0.01315     0.11511  2365.81687   3560.17186   2.5759         3628.05325     19.74631  0.03098  55350.60222   2.03011  13.23705      1275380.01108  43.64047  23.11418  55509.73339    51.23473       44.06065   84.01471  120.84307  146.0    0.03275  -20.80906  0.01813 
  -94.77316  0.38512  16.51843     15.13856  1.78368  0.71421   67.7956  0.05545     0.15755  3184.08746     5422.447  2.08499         3731.96617     18.57418  0.00208  55319.82684   4.10014  26.10954       238749.13752  44.70628  22.95143  55531.48514    51.28642       44.01249  104.73066  156.52055  136.0    0.01771  -21.26241  0.02707 
  -43.73492  0.02993   1.14828     13.63132  1.63576  1.22926  69.86695  0.11737      0.0104  2189.15646   7490.91552  2.94014         3699.42272     20.19336  0.08671  55370.86508   1.99734   2.09125      1093948.33249  46.32347   23.1594  55495.23222    51.11093       43.96354   70.20407  113.93775  192.0    0.00797   -21.3796  0.98429 
  -91.80144  0.11722   1.85452      14.6022  2.17987  0.12776  72.26356  0.14672     0.09803  2716.03925   5085.76324  2.13046         3928.99387     19.63645  0.02405  55322.79856   3.17994   8.47069        43481.57609  47.43251  22.80857  55606.40785    51.83162       44.42023  170.33119  232.47905  190.0    0.00768  -21.41124  0.89988 
  -46.93592  0.00536   1.59885     14.04557   1.6684  0.68057  44.21029  0.10568     0.06738  3314.83631   6492.10611  1.81007         4661.46411     17.07105    7e-05  55367.66408   2.89784   0.23677         321070.068  46.57693  22.82083  55591.90668    51.55119       44.16626  132.35194   219.8193  116.0    0.02421  -21.32382  0.99662 
  -34.42521  0.05303   1.29753     14.79452  2.05373  0.16321  53.71907  0.03601     0.18978  2061.94952   5244.62527  2.18725         4320.19409     20.88033  0.42175  55380.17479   1.36242    2.8489         8270.83129   48.4376  23.21609  55514.56711    51.21836       43.99781  104.73066  133.50282  116.0    0.02349  -21.49958  0.98093 
  -96.93535  0.43898   3.68454     14.11357  1.48855  0.44266  62.14612  0.05294     0.01704  2353.41567   6952.82714   2.1426         4586.10916     19.72478  0.02948  55317.66465   2.05323  27.28067      1112273.17531  45.26263  23.01343  55526.65142    51.23678       44.05387   86.31648  125.44662  150.0      0.016  -21.54055  0.28104 
  -87.80437  0.02383   2.95648     13.69223  1.77945    1.398   24.5319  0.11091     0.07399  3202.27118   3002.74373  1.38895         4033.65656     17.62187  0.00023  55326.79563   1.50063   0.58463      5959091.18074   44.8024  23.04712      55507.3    51.31299       44.09019   90.92003  136.95548  128.0    0.02937  -21.06476  0.97359 
  -57.26049  0.10108   1.14892     13.91981  1.61134  1.05132  39.68658  0.13306     0.03468  2589.76305   4842.33787  1.39348         4130.32952     18.76333  0.00322  55357.33951   1.58778   4.01168       285737.54886  46.89949  23.08479  55572.57179    51.57435       44.17536  178.38739  216.36664  140.0     0.0138  -21.04713     0.97 
 -127.10196  0.06271   1.78149     13.50679  2.17554  0.75093  72.84124  0.21989     0.13169  3470.86401   9727.74264   1.5773         4152.79936     17.76019  0.00032  55287.49804   5.23455   4.56773      6213868.80995  45.31148  23.03976   55521.8177    51.21179       44.01892   89.23635   127.1303  274.0     0.0043  -21.72307  0.94273 
   -60.1912  0.31329    3.1915     13.80589  1.36348  1.11339  23.12523  0.08271     0.01179  3002.88384   9667.25683   1.9625         3815.85282     19.46439  0.01619   55354.4088   1.24391   7.24488      3152700.32852  44.89682  23.09174  55555.65376     51.3654       44.08168  132.35194  153.06789  106.0    0.03425   -21.0161  0.63621 
  -42.67024  0.01892   0.86109     14.44801  1.38066  0.25521  62.28987   0.0698     0.46104  2203.37608   4563.65516  2.60346         3678.77827     16.57415    2e-05  55371.92976   1.80394   1.17872        12077.40443  48.45686  23.04211  55514.56711    51.34332       44.12712  116.23953  128.89928  140.0    0.01627  -20.79489  0.99378 
 -142.44991  0.00704   1.55843      12.9654  1.36664  0.92411  33.24075  0.20258     0.10718  4981.22985   4936.32062   0.0161         4887.83434     16.31114    1e-05  55272.15009   4.92007   0.23399     36145532.78254  44.46107  23.06997  55589.48982    51.48655       44.03509    151.917  273.91096  288.0    0.01485  -21.67725  0.99403 
  -54.28782  0.02531   0.71014     13.84296  1.67442  0.99712  73.78616   0.2993     0.01009   5236.8872   3870.78165   1.0514          4093.2972     17.66264  0.00026  55360.31218  12.07115   1.86719       161603.85104  47.58157  23.11254  55524.23456    51.23652       43.96241  104.73066  153.06789  140.0    0.01122  -21.43203   0.9949 
  -89.96657  0.02289   1.79695     13.34488  1.35346  1.37081  45.34087  0.07076     0.05953  1717.43461   3690.03024  2.27246         4140.55684     17.73924   0.0003  55324.63343   0.79777   1.03779      8290307.51444  44.97265  23.08152      55535.2    51.48323        44.2557    93.2218  139.25725  192.0     0.0134  -21.24455   0.9736 
  -100.6262  0.33504   2.79932     13.28106  1.68263   1.4043  20.72813  0.16397     0.01582  5427.08947   9982.15896  0.25802         3580.97654     19.75342  0.03149   55313.9738   3.64184   6.94473     33557548.86649  44.07494  23.08216      55504.4    51.22996       44.02143   85.35512   133.3133  119.5    0.03092  -21.20883  0.72404 
  -92.44526  0.46114   2.03085      14.1841  1.91486  0.71356  62.73258  0.13754     0.04061  2715.67124   5637.23422  2.28145         3573.66793     16.25196    1e-05  55322.15474   2.75978   28.9287       314132.61722  46.43851  23.05828   55521.8177    51.52324       44.32839    67.9023  138.10637  172.0    0.01088  -21.23821  0.64814 
   -65.5318  0.31549    4.9525     14.14053    1.617   0.4844  49.05678  0.05378     0.02158  3338.32966   8795.44014  2.37858         3715.22758     18.69826  0.00277   55349.0682   3.26125  15.47707      1928065.48352  44.80278  23.09836      55477.3     51.2994       44.12888   60.11591  132.08212  124.0    0.02616  -21.26836  0.29683 
 -112.70182  0.22173   1.18421     12.74591  1.64767  0.52984  52.62127  0.03193     0.18292  1785.02736   9039.39828   2.1165         4729.14335      16.2194    1e-05  55301.89818   1.00018  11.66793     69140801.58611  44.49912  22.96819  55587.07295    51.49884       44.12105  159.97321  208.31044  628.0    0.00816  -21.73589  0.77513 
  -30.08866  0.02598   1.46475     14.10286  2.13284  1.31111  95.01567  0.02054     0.06942  1346.54209   6967.40289  2.48975         4357.37499     20.02275  0.05854  55384.51134   1.02769   2.46818        264593.6389   46.8437    23.023  55480.73105    51.30994       44.04805   97.82534  166.87853  138.0    0.01505   -21.0005  0.98015 
  -72.53952  0.01201   3.19517     13.94278  1.80665  0.56371  92.68655  0.01322     0.03279  1481.77189   3620.15225   3.1559         3796.33941     17.32756  0.00012  55342.06048   1.21397   1.11317      2229040.82909  45.16861  23.13316  55504.89967    51.12291        43.9906   60.99698  116.23953  162.0    0.02445  -20.89939   0.9436 
  -66.33981  0.03818    1.8568     13.86482  2.14014  0.76723  60.59338  0.03575     0.01169  1873.71384   6463.61536  1.83771         4448.51745     20.90191  0.44323  55348.26019   1.26899   2.31372      1276874.85911  45.95561  23.20651      55510.3    51.21438       44.01774   90.92003  127.74839  152.0    0.02053  -21.73567  0.96965 
  -92.06786  0.29902     8.505     14.13637  1.74541  0.45323  68.37242  0.03561     0.02742  2638.46613   6509.88393  2.70028         3385.58726     19.84294   0.0387  55322.53214    2.8393  20.44472      6256342.13826  43.85507  22.90704  55553.23689    51.29689       44.03177  127.74839  146.16257  148.0    0.01835  -21.08545  0.09323 
 -103.62957  0.45855  13.00587     14.18394  1.76148  0.47287  66.65754  0.04873     0.15939  2641.07593   6347.40959  2.13683         4399.47873     16.88772    4e-05  55310.97043   2.77356  30.56568     11860164.08995  43.21235  23.10361  55514.56711     51.1706       43.99496   81.71293  124.29573  144.0    0.01744  -21.44817  0.02509 
  -29.86214  0.00218   2.00951     14.37555  1.62726   0.4866  89.89609  0.01165     0.15702  1629.63348   4417.85519  2.83067         3865.01818     16.94533    5e-05  55384.73786   1.42412   0.19586        108230.7532  46.83977  23.01316  55584.65609    51.60366       44.23429  157.67144  207.15955   96.0    0.04465  -20.66055  0.99545 
   -71.0842  0.00181   2.75797     13.28442  1.65331  0.77775  15.57164  0.03217     0.02335  2854.39095   9348.04065  4.80078         3249.41541     18.08427  0.00067   55343.5158   0.75681   0.02824     31514861.22298  44.10751  23.00978  55497.64908    51.14595       44.07537   59.75904   93.30885  272.0    0.02653  -20.86548  0.99818 
  -79.78765  0.49924   2.28382     15.09296  1.95184  0.40566  41.80391  0.09706     0.01356  4150.66637    9976.6839  3.58722         3170.33887     16.55957    2e-05  55334.81235   4.29615  20.87028         6161.21699   48.0523   23.1252   55490.3985    51.09267       43.95788    67.9023  111.63598  130.0    0.01886  -21.14259  0.74668 
 -105.17966  0.20527   1.39776     14.39236  2.05621  0.16929  42.06913  0.19242     0.01533  4688.38583   3822.37501  0.59265         4028.16347     21.10781   0.7121  55309.42034   5.51617   8.63564        61238.22687  47.50402  22.78889  55570.15492    51.47129       44.20584   118.5413  149.61523  128.0    0.01855  -21.95797  0.93461 
  -120.4362  0.42781   8.37489     12.51282  1.86246  0.67201  91.36164  0.05905     0.01702  2466.18139   8706.12928  3.69331         3214.01705     18.13051  0.00075   55294.1638   3.31468  39.08498  11434456270.52833  40.63476   23.0653  55526.65142    51.47015       44.18359  120.84307  156.52055  146.0    0.01373  -21.26431  0.00031 
  -52.81762   0.3507   2.35331     14.31428  1.70386  0.33479  49.43684  0.10971     0.03251  3655.34012   8213.66289  2.33814         3849.58436     20.04113  0.06107  55361.78238   3.94034  17.33729       206081.73602  46.44288  23.23514  55529.06828    51.27237        43.9867   98.97623  172.63296  134.0    0.01443  -21.56312  0.65535 
  -92.43736  0.27372  19.26587     14.82257  1.62701  0.84686  81.03133  0.03033     0.02308  2748.90308   5917.96986  1.90937         4015.29789     17.41032  0.00014  55322.16264   3.65257  22.17971      1269511.95631  43.80702  23.14902  55524.23456    51.27035       44.02749  115.08864  139.25725  136.0    0.01962  -21.16044  0.02023 
  -57.48897  0.17751   10.4924     14.95556  1.48256  0.68957  75.78766  0.01013     0.29034  2037.00634   6753.66815  2.79509         3815.94896     16.97951    5e-05  55357.11103    1.8759  13.45332       185974.56369  45.12865  22.86998  55538.73573    51.42572       44.19337  107.03244  136.95548  146.0    0.03353   -20.8298  0.09237 
  -99.15059  0.00105   2.83467     14.15621  1.97307  0.19195  39.63658  0.04984     0.08591  2120.68104   9283.50261  2.06255         3927.09334     17.51587  0.00018  55315.44941   1.06334   0.04156       717050.28754  45.80343  23.20973  55495.23222    51.20512       44.01805   84.01471  124.29573  200.0    0.01564  -21.17195  0.99831 
  -66.65917  0.00323   1.99287     13.87171  1.62203  0.72618  38.29148  0.06565     0.15651    1716.446   9095.21174   2.9185         3787.86153     20.28517  0.10713  55347.94083   0.67296   0.12364      1079989.16417  45.84653  23.28138  55529.06828    51.25882       43.98459  132.35194  148.46435  140.0    0.01739   -21.0478   0.9971 
  -36.28812  0.02002   1.79045      14.5388  1.72164  0.27347  57.27066  0.02608     0.03989  1479.90403   3562.24995   2.5388         4262.73766     18.28807  0.00108  55378.31188   0.74822   1.14638        42863.80609  47.36677  23.12765      55479.3     51.2284       44.05191   80.56205  123.14484  120.0    0.02824   -20.8991  0.98081 
  -63.70017  0.07677   4.41662     13.96949  1.81752  0.82612  74.85517  0.01025     0.18501  2587.51053   5692.48974  1.43768         4928.88812     17.19411    9e-05  55350.89983    2.9896   5.74632      3788799.81689  44.65964    22.778  55591.90668    51.56807       44.20766  140.40814  199.10335  131.5    0.04825  -21.09472   0.6326 
 -100.88032  0.02683   0.99516     14.50885  1.90882  0.22348  75.92573   0.1366     0.07266  3133.00447   4417.20458  1.36569         4851.57122     20.00488  0.05618  55313.71968   4.44568   2.03745        16852.90537  48.32715   22.9145   55521.8177    51.29313       44.09585   88.61825  127.74839  154.0    0.01275  -20.77501  0.99094 
 -144.88886  0.12478   1.18691     13.53526  1.64406  1.12594  81.88757  0.25263     0.28344  2778.08876    3608.5777  0.88025         3330.20167     19.24235  0.00971  55269.71114   3.76997  10.21814      1828283.98818  46.07388  23.06987  55538.73573    51.23813       43.99552  116.23953  138.10637  214.0    0.00699  -20.88089  0.92304 
 -143.00644  0.13008   2.44005     13.40863  1.67519  0.57559  98.00168  0.04928     0.02831  2380.24362   6033.21734  2.85649         3220.98303     19.00612  0.00563  55271.59356    3.3121  12.74854     14106482.69816  44.56869   23.0856  55492.81536    51.23994       44.01555   85.43541  151.64719  276.0    0.01103  -21.22614  0.63354 
 -166.09817  0.34244   1.36101     13.04992  1.80491  1.29427  89.42312  0.22244     0.24337  2461.77922   5857.64187  1.38564         3720.13837     19.92463   0.0467  55248.50183   3.23277  30.62242     24669107.83064  44.86542  23.04737  55519.40083    51.32024       44.07445  116.23953  140.40814  356.0    0.00369  -21.92382  0.74503 
  -65.35387  0.01516   3.10713       13.989  1.59337  0.67234  56.58347  0.04149     0.02616  3101.13577   6102.29451  3.19002         3462.35395     18.81781  0.00365  55349.24613   3.24607   0.85796      1502626.86223  45.30959  23.14374  55531.48514    51.27079        44.0238   118.5413  140.40814  112.0    0.03376  -20.87624  0.95157 
  -66.04452  0.00287   1.71272     13.83119  1.42166  0.79925  59.84939  0.05947     0.09674  2393.05417    5316.9109  1.85042         4065.53419     19.66678  0.02579  55348.55548   2.04452   0.17156       842556.57279  46.02867  22.89442  55579.82237    51.60777       44.13982  164.57675  339.51149  132.0    0.01844  -21.00889   0.9964 
  -80.16386   0.1116   2.80648     14.05127  2.03607  0.69487   66.4783  0.05413     0.04801  2628.57602   6786.56506  1.82467         4572.12833     18.74919  0.00312  55334.43614   2.73998   7.41899      1175982.69585  45.61091  23.09121  55504.89967    51.27468       44.14077   73.65673  108.18332  142.0    0.01603  -21.30556  0.80166 
  -57.44365  0.03228   1.88415     13.59087  1.50801  1.51526  84.92917  0.02123     0.04325  1544.24496   5552.65082  3.11282         5501.37686     18.18484  0.00085  55357.15635   1.20814   2.74138      3271258.64497  45.38231  23.18522      55499.3    51.15876       43.98448    75.9585  123.14484  130.0    0.02194  -21.95117   0.9393 
  -92.15231  0.03992   2.56744     13.65083  1.85654  0.67226  47.19352  0.05396     0.01913  1904.03449   3220.09881  2.32048         3733.24439     16.98639    5e-05  55322.44769   1.02061   1.88393      5673587.91125  44.96469  22.95701  55587.07295    51.61187       44.23448  136.95548   211.7631  214.0    0.01295  -21.20142    0.938 
  -62.09178  0.00706   2.31715     13.63744  1.48132  1.23924  82.09093  0.01478     0.01034  1412.65201   3578.27281  2.35458         4590.33979     17.58208  0.00021  55352.50822   0.97722   0.57925      3921773.04041  45.11611  22.93272  55526.65142    51.28828       44.11799   85.16559  116.23953  136.0    0.02417  -21.14726  0.97906 
  -66.14886  0.01818   1.31136     13.94036  1.86652  0.44312  55.08924  0.09862     0.01303  1408.47535   5888.23554   2.7854         5188.04948     19.56268   0.0203  55348.45114   0.65192   1.00148       392259.99276  46.71086  22.80816  55582.23923    51.44959       44.12374  134.65371  184.14182  208.0    0.00849  -21.88047  0.99182 
  -38.23431  0.07439   2.32934     13.93705  1.60263  1.56083  25.92319  0.05131     0.01053  2053.38011   5425.28175  2.30436         4215.40388     19.69675  0.02764  55376.36569   0.65201   1.92845      1078977.00132   45.7062  22.96508  55538.73573    51.49261       44.19233  102.42889  172.63296  104.0    0.03122  -20.94906   0.9413 
 -133.15055  0.36037    9.7098     13.86642  2.12739  0.07952   79.0973  0.05055     0.39877  2263.39342   5271.02312  2.26809         3564.40127     18.99149  0.00545  55281.44945   2.41718  28.50453     34454572.67399  43.08502  22.64591  55727.25092    51.74413       44.24244  293.47603  220.97019  146.0    0.01765  -20.98099  0.00193 
  -32.24337  0.01411   0.80364     13.90496  1.97345  1.23128  92.81712  0.06536     0.11873  2140.88871   4786.30136  2.66963         5667.31643     19.97886  0.05292  55382.35663   2.53772   1.31006       183332.60716  47.49071   22.9537  55541.15259    51.27815       44.03953  113.93775  138.10637  160.0    0.01401  -21.93808  0.99642 
  -21.36615  0.00264   1.52567     14.68976   2.0694  0.21528  37.67483  0.13097     0.12029  4022.07187   5509.68974  2.19748         5194.76924     19.88234  0.04237  55393.23385   3.63562   0.09931        18666.31159  47.94671   23.1012  55526.65142    51.42182       44.18968  110.48509  135.80459  104.0    0.03186  -21.71997  0.99907 
  -58.22346  0.11515   2.89454     13.74624  1.45825  1.17188  19.85042  0.17322     0.02995  4612.32529   5578.37298  4.39582         3227.07327     18.79429  0.00346  55356.37654   2.51905   2.28583      3650231.62311   44.9472  23.07534  55529.06828    51.32161       44.04566   89.76914  165.72764  104.0    0.04224  -21.12767  0.88132 
  -50.39504  0.33286   2.83914     12.34601  2.03829  1.50246  46.63348  0.02164     0.03778  3952.86367   8199.52714  1.15291         5944.83831     17.43395  0.00015  55364.20496   4.34659  15.52235   3100595466.54605  42.18029  22.89583  55514.56711     51.2925       44.04898  105.88155  140.40814  126.0    0.04383  -21.37552  0.06432 
  -67.61069  0.48597   1.64769     14.45976  2.14865  0.44098  63.24418  0.14082     0.19079  5628.55186   3402.57128  0.48131         3633.21658     20.76372  0.32244  55346.98931  11.95201  30.73479        65195.17454  47.35305    23.007      55504.4    51.22596       44.03339   86.31648  125.44662  126.0    0.01537  -21.86648   0.7593 
  -62.30963  0.00443   1.47366     14.32558  1.43954  0.11101    55.749  0.03715     0.29943  2783.93515    5005.5225  2.27996         3650.55399     21.16063  0.80419  55352.29037    2.5774   0.24689        64814.61058   47.2786   23.1765  55516.98397    51.16464       43.95078   78.26028  140.40814  146.0    0.02377  -21.93484  0.99614 
  -92.84769  0.38339  14.95423     14.61071  1.56274  0.47314  88.38189  0.04743     0.12863  2531.61487   5349.47742  2.29519         3608.03622     17.54609   0.0002  55321.75231   3.37898  33.88478      1948983.51028  43.82339    23.237      55498.3    51.11868       43.96671    75.9585  113.93775  150.0     0.0155  -21.32201  0.01965 
   -21.6631  0.01636   0.80004     13.94733  1.73694  1.09698  81.11009  0.04324     0.01676  1444.46169    9052.6505  2.57263         4488.08727      16.1526    1e-05   55392.9369   1.00952   1.32685       131571.64593  47.58324  23.15467      55502.3    51.15177       43.98274   78.26028  124.29573  158.0     0.0114  -21.16238  0.99571 
  -52.93357  0.25714   4.51507     14.30848  1.76683  0.57651  37.94607  0.05097     0.15689  2971.48643   5417.86138  2.82715         3595.23438     17.93354  0.00048  55361.66643   1.99867   9.75758       807948.79335  45.29933  23.13931  55548.40317    51.33942       44.06975  130.05016  147.31346  126.0    0.02401  -20.99478  0.49046 
  -50.85178  0.01881   2.41661     13.87233  1.70822  0.95617  45.57267  0.08488     0.01335  3601.44986   4863.33893  2.00543         4106.49827     18.24255  0.00097  55363.74822   3.52603   0.85723      1667671.81089  45.51287   22.9436  55572.57179    51.50723        44.1463  121.99396  206.00867  112.0    0.02992  -21.24171  0.97329 
  -58.41346  0.16388   2.47992      14.2943  2.10887  0.53393  47.06177  0.09915     0.02894  2647.27964   8576.90643  3.27781         3281.19902     17.80152  0.00035  55356.18654   1.96741   7.71264       310559.55315  46.31187  22.99206  55567.73806    51.54085       44.14719  153.06789  217.51753  136.0    0.01661  -21.02779  0.84192 
  -48.29816   0.2925   3.82848     14.63664  1.82866  0.36365  25.21238  0.05873     0.13585  2595.48277   3088.54668  2.67948         3653.78296     17.31059  0.00011  55366.30184   1.01316   7.37459       132655.13268   46.2422  23.03141  55497.64908    51.26915       44.09213   73.65673   126.5975  126.0    0.03378  -20.79593  0.65414 
 -126.86973  0.00925   1.27906     13.85582  1.79116  0.27573  52.28185  0.17626     0.06238  2493.63502   7297.22795  1.16876         5064.43763     20.78263  0.33679  55287.73027    1.9393   0.48379       528562.39543   46.5851  23.06985  55504.89967     51.4495       44.35164    56.0287  106.24628  230.0    0.00824  -21.93422  0.99583 
  -68.02972  0.00205   1.08231     13.52375  1.53055  1.21667  99.02985  0.06453     0.06243  1502.98639   7186.44239  2.16492         4511.69383     16.30327    1e-05  55346.57028   1.33445   0.20334      1492324.03361  46.21112  22.99467  55504.89967    51.29321       44.11268   77.10939  127.74839  216.0    0.00823  -21.41423  0.99848 
 -134.99951  0.31564  10.67904     12.30901  1.89725  0.15236  96.01237  0.03978     0.05403  1900.44029   9342.66362  3.11067         3558.34589     18.48663   0.0017  55279.60049   2.06853  30.30492  48414766264.70969  39.80493  22.97789  55558.07062    51.46672       44.18211  131.20105  154.21878  142.0    0.01347   -20.9657      0.0 
  -61.92135  0.01428   3.23074     13.54606  1.74334  1.23575  44.75656  0.02639      0.0201  2408.48965   4246.85035  2.88676         3919.48451     16.40696    1e-05  55352.67865   1.54872   0.63935     13667041.52697  44.35595  23.11787  55545.98631    51.82148        44.5325  116.23953  159.97321  168.0    0.02741   -21.1348  0.96238 
   -21.2921  0.00398   1.41598     14.16876  1.73792  0.94729  98.45811  0.01791     0.10149  1623.98942   5249.97091  3.04615         3744.22941     18.42167  0.00147   55393.3079   1.54898   0.39215       148744.76953  47.03432  23.09474  55567.73806    51.33821       44.04648  140.40814  155.36966  116.0    0.02538  -20.64866  0.99597 
  -55.48732  0.19328   1.82246     14.02469  1.85982  0.61554  41.69735   0.1493     0.02477  5485.14731   7770.83949  0.82917          5503.5889     20.77904  0.33401  55359.11268   7.48363   8.05946       511942.64537  46.30778  23.05235      55504.4    51.24989       44.08422   82.86382  116.23953  110.0    0.02947    -21.945  0.88634 
  -64.03085  0.00221   1.45796     13.35423  1.34798  0.85868  68.05749  0.01244     0.01393  2307.45886   9022.93387  1.94715         3981.08954     21.19061  0.86166  55350.56915   2.16158   0.15027      5206211.53243  45.35451  22.95917  55492.81536    51.29048        44.0679  104.73066  134.65371  165.5    0.03971  -21.99805   0.9974 
  -67.24388  0.00151   2.42723     13.64922  1.66058  1.15941  60.15443  0.05216      0.0286  2693.04134   5095.71204  1.77529         3889.51968     17.03211    6e-05  55347.35612   2.60244    0.0907      4569444.85555  45.05902  23.15574  55514.56711    51.62543       44.35351   87.46737  162.27498  140.0    0.01788   -21.1632  0.99688 
  -41.70271  0.00101   0.75353     14.08449  1.69266  0.46093  89.63927  0.09951     0.01718  1555.63638   5408.79803   3.4438         3642.90966     16.88111    4e-05  55372.89729   1.29402   0.09061         60478.7979  47.96161  22.86892  55558.07062    51.46644       44.11047  121.99396  201.40512  226.0    0.00516  -20.96596  0.99972 
  -74.96897   0.1113   1.52601     13.88526  1.47739  0.28927  30.10599  0.15215     0.02311  4574.81185   8502.65157   4.0982         3156.01566     21.15193  0.78824  55339.63103    3.7586   3.35076       541895.55912  46.33731  22.93379  55572.57179    51.38068       44.05323  125.44662  180.68916  126.0    0.02416  -22.15523  0.94811 
  -87.24663    0.391  25.08507     14.66807  1.62735   0.6564  79.07638  0.01352     0.02252  1414.17335    8806.6962  2.29231          4802.5625     20.33013  0.11881  55327.35337   0.94336  30.91897      4385269.59008   43.0395  23.12215  55487.98164    51.05996       43.97716   60.99698   95.52357  152.0    0.01908    -21.477  0.00808 
  -41.34881  0.27247   4.55473     13.72169  1.49141  0.93213  28.55253  0.03863     0.16831  3348.20091   6037.55205  2.81189         3641.52613     18.76088   0.0032  55373.25119   1.90939   7.77982     10350236.86228  44.11057  22.95487  55582.23923    51.59164       44.18198  171.48207  232.47905  140.0    0.03178  -21.07118   0.4564 
  -90.96141  0.17346  13.57771     14.78549  1.96677  1.03813  87.59566  0.01286     0.03955  2257.05442   4485.47961  1.94768         3640.28207     18.05063  0.00062  55323.63859   2.66191  15.19408       904156.81331   44.3407  23.08186  55555.65376    51.38502       44.04953  107.03244  193.34891  144.0    0.03056  -20.77158  0.07514 
  -63.10303  0.08871   2.27779      14.1947   1.6571  0.52755  49.63449  0.05519     0.26456  1704.63717   4139.87435  3.91885         3483.28468      16.9829    5e-05  55351.49697   0.86035   4.40332       325684.83641  46.26037  23.14514      55482.3    51.30856       44.10902   73.65673  133.50282  154.0    0.01661  -20.70487  0.88515 
  -59.98965  0.25028   2.59345     14.22303  1.53864  0.32343   23.5778  0.16487     0.11152  3063.73611   6372.90893  3.73251         3194.10932     17.03388    6e-05  55354.61035   1.32018   5.90115       344064.91883  46.09159  23.17374  55570.15492    51.37293       44.02068  171.48207  178.38739  136.0    0.02059   -21.0723  0.79616 
  -92.24599  0.00191   2.52607     13.49182  1.54355  0.88481  43.92827  0.06231     0.05301  3914.11927   9300.40011  1.70523         4556.59412      16.0623    1e-05  55322.35401   4.01457   0.08378      9497143.20849  44.67488  23.29149  55495.23222    51.42061        44.2542   85.16559  115.08864  136.0    0.03176  -21.46515  0.99626 
 -108.52021  0.41778   2.14569     12.89303  1.86039  0.85245  58.55112  0.09671     0.47943  3997.42163   8231.95052  1.79119         3722.52347      16.8952    4e-05  55306.07979   5.58113  24.46159     130164455.2331  43.76082  23.06014      55507.3    51.27064        44.0275   95.52357  146.16257  240.0     0.0145  -21.56254  0.39174 
  -74.42187  0.00567   1.90327     13.68334  1.58169  1.33726  85.23541  0.03535     0.12234  1807.16507   8453.25783  2.14951         4237.09636     16.77287    3e-05  55340.17813   1.66052   0.48294       2286917.7437  45.54971  23.07306  55504.89967    51.48575       44.18509   98.97623  197.95246  146.0    0.01721   -21.0533  0.98936 
  -50.28502  0.14054   2.88295     14.75614  1.65933  0.12355  32.51507  0.06823     0.01185  3999.99963   6561.31853  1.98659         5088.35384     19.46938  0.01637  55364.31498   3.10336   4.56981        39368.41925  46.97396  23.22623  55492.81536    51.08148       43.95498   65.73877  110.48509   98.0    0.05026  -21.58412   0.8213 
  -80.23264  0.21244   6.84613     12.12173   1.7817  0.03819  88.57887    0.018     0.27403  2536.38612   8122.12447  3.35031         3917.39429     16.48633    2e-05  55334.36736   3.39929   18.8174  44266508762.95765  40.20271  23.09014  55529.06828    51.20366       44.00302   94.37268  128.89928  132.0    0.02734  -21.18519      0.0 
   -91.2611  0.18254  14.44559     14.14615  1.57547  1.34669  92.27495  0.01899     0.07278  2680.59347    7067.2911  2.15396          3768.7606     19.37405  0.01315   55323.3389   3.95524  16.84376     15573688.82817  42.95439  23.15841  55526.65142    51.21945       43.98645   77.10939  142.70991  136.0    0.02673  -20.97287  0.03998 
   -50.7613  0.22959  11.20074     15.11794  1.33972  0.53519  73.39651  0.01247      0.4173  2176.62547   7530.02185  2.81306         3844.14519     16.71202    3e-05   55363.8387   2.07429  16.85142         90666.0005  45.33992  22.99029  55553.23689    51.35477        44.1097   118.5413  139.25725  144.0    0.02678  -21.04303  0.05803 
  -74.72622  0.00517   1.99836     13.77937  1.78473  1.55275   59.0594  0.07215     0.01955  2763.85479   3716.45628  1.44861         5040.06035     19.36633  0.01291  55339.87378    2.6912   0.30508      1828052.85658  45.65708  23.01943      55502.3    51.25861       44.05693    93.2218  124.29573  128.0    0.01932  -21.26663  0.99381 
 -115.47718  0.26343   1.91642     13.44373  1.56127  1.07895  69.02881  0.19963     0.13653  3983.27351   6349.06064  2.57728         3408.25661     19.67235  0.02613  55299.12282   6.53338  18.18406      6899457.74378  45.05853  22.85667  55746.58581    51.72811        44.2748  217.51753  280.81628  198.0    0.01009  -21.56838  0.69505 
 -117.93402  0.28428   2.94675     12.88911  1.45736  0.80284  99.37776  0.02124     0.36384  2367.92571   6478.26144  1.51854          5050.1982     20.37583    0.132  55296.66598   3.32393  28.25072     195818347.7064  43.20187  23.00335  55545.98631    51.43959       44.16793  112.78687  153.06789  166.0    0.02218  -21.45634  0.13609 
  -68.72894  0.20522   3.67453     13.34566  1.58681  0.58191  58.51987  0.01929     0.06944  2328.49601   7272.11433  3.27762         3655.41472     18.75597  0.00317  55345.87106    1.8927  12.00955     40496904.80501  43.73155   23.1342      55536.3     51.2962       44.05164  117.39041  139.25725  204.0    0.02512  -20.98225  0.33569 
 -100.22181  0.40604  20.65204     14.91188  1.68885  0.61523  51.11231  0.04844     0.04183  2833.05418   8045.12476   2.2264         3687.39789     16.00817    1e-05  55314.37819   2.44716  20.75367       1003615.7899  43.86494  23.17575  55512.15025    51.15333        43.9794   80.56205  124.29573  128.0    0.02253  -21.07183  0.01978 
  -76.10874  0.41324   4.74596     14.45851  1.87918  0.25582  50.69722  0.04381     0.11085  2719.30449   8328.95867  1.72727         5182.98956     18.32827  0.00118  55338.49126   2.23628  20.95024       475783.33123  45.51276  22.94535  55555.65376     51.4164       44.09249   126.5975  192.19803  136.0    0.02333  -21.64533  0.29981 
  -64.73697  0.04472    2.3593     14.08138  1.60144  0.57618  63.40937  0.05149     0.02922  2948.23572   3847.33609  2.26621         4108.00579     18.62755  0.00236  55349.86303    3.2878   2.83537       569031.41686  45.97265  23.07872  55526.65142    51.30844       44.08539    93.2218  135.80459  120.0      0.025  -21.10526  0.91338 
 -125.25422  0.23468   3.47315     12.07941  1.89698   0.5068  93.32189  0.02866     0.02551  2193.51813   7940.94791  2.88979         3644.75407     17.65214  0.00025  55289.34578   2.67851  21.90067  14740271975.84921  41.29696  23.00323      55508.3    51.18377       44.06527   63.29875  109.33421  138.0    0.02078  -20.90316  0.00156 
  -69.85067  0.00559   2.08244     13.92304  1.68912  0.90374  43.34849  0.12926     0.02835  4507.68471   5467.27276  1.23912         4432.17491     18.56143  0.00202  55344.74933   5.25422   0.24229       969478.96314  45.87282  22.90868  55487.98164    51.21757       44.11045   65.60052    101.278  108.0    0.02983  -21.25738  0.99422 
  -98.56412  0.00231   1.75676     13.96608  1.96625  0.41066  97.61132  0.03835     0.44099  1266.53569   3388.97975  1.97277          5252.7395     16.24407    1e-05  55316.03588   0.93403   0.22501       658754.22509  46.25433  23.10023      55468.4    51.42475       44.09712   97.82534  189.89626  210.0    0.00948  -21.44339  0.99687 
  -58.34162  0.04967   1.99611     14.19673  1.46026  0.28147  17.65956  0.18894     0.02814  2761.23811     9326.283  1.87954         4037.56271     16.79044    3e-05  55356.25838   0.80318   0.87717       218354.64191  46.49374  22.98527  55558.07062    51.55778        44.0793  188.74537  284.26894  116.0    0.02202   -21.1838  0.97631 
 -107.16768  0.22463  29.90837     14.96095  1.53538  0.42516   86.0079  0.01359     0.01005  1351.11368   6501.52624  2.67577         3707.38112     17.45852  0.00016  55307.43232   0.93659  19.31958      1526558.47424  43.31976  22.94022   55596.7404     51.4964       44.07919  182.99094   262.4021  160.0    0.02088  -20.70652  0.00852 
  -84.09341  0.00283   3.22431     13.56933  1.65683  0.83063  14.05836  0.08409     0.03348  3403.24654   6119.05023  1.64289         3707.85337     17.07793    7e-05  55330.50659   0.97129   0.03975     11622793.45946  44.40594  22.56191  55739.33523    51.84294       44.34702  292.32515  225.57373  178.5    0.03606  -20.99408  0.99729 
 -106.53594  0.36449  15.71832      14.1183  1.72964  0.56561  62.73143  0.04004     0.04455  2958.40737   4314.13633  1.93945         3847.83038     16.45653    2e-05  55308.06406   3.27513  22.86508      23013769.1689    42.752  23.24312  55492.81536    51.09737       43.94765   80.56205  109.33421  134.0    0.02297  -21.17789     0.02 
  -98.87999  0.26861  22.29472     13.97641  1.74337  0.41718  78.68433    0.031     0.10751  2698.50528   6045.51635  2.13719         3703.28363     17.30074  0.00011  55315.72001   3.41792  21.13523     89698995.16966  41.86104  23.06932      55510.3    51.25131       44.04403   85.16559  133.50282  138.0    0.02326  -21.05197  0.00336 
 -137.12129  0.01614   1.64332     12.81079  1.62328  1.29396  43.32532   0.0406     0.05651  2088.22701   3811.36734  1.58091         4235.60654     18.54443  0.00195  55277.47871     1.127   0.69943     97293295.25188  44.05971  23.03882  55524.23456    51.35251       44.10197  104.73066  145.01169  484.0    0.00863  -21.41834  0.98046 
  -45.51328   0.3494   3.25187     15.00266   1.7788  0.08288  21.37576  0.06216     0.04044  2315.29594   8675.53187  2.64425         5072.61563     18.51673  0.00183  55369.08672   0.68354   7.46866        17254.13961  47.25781  23.08095  55526.65142    51.42387       44.21662    93.2218  128.89928  112.0     0.0321  -21.56256  0.71038 
  -68.74758  0.31784   2.83937     13.89369  1.63521  0.53868   51.0131  0.06449     0.01698   2771.7001   7810.24318  2.10643         3617.47304     20.29299  0.10907  55345.85242   2.33777  16.21376      1997368.90831  45.27551  22.78234  55584.65609    51.44906       44.11829  162.27498  170.33119  150.0    0.01669  -21.45943  0.55716 
  -46.30231   0.0616   2.10899     14.03957  1.62867  0.82372  37.67354  0.09138     0.04279  2949.58539   4388.16552   2.6574         3740.59754      16.1213    1e-05  55368.29769   1.95517   2.32062       560596.77638  46.08388  22.95694  55516.98397    51.31861       44.06263   84.20423  156.33103  118.0    0.02399  -20.96055  0.94337 
  -45.91776   0.1666   2.19903     13.93549  1.38452  1.09869   18.8161  0.12431     0.02944  2773.29763   5502.31169   2.9657         3502.48656     17.68958  0.00027  55368.68224   0.86328   3.13474       836749.85596  45.80308  23.07712  55516.98397    51.77981       44.53269  103.57978  145.01169  114.0    0.03037  -20.79292  0.89896 
  -88.98846  0.02612   2.03802      13.8854  2.00878  0.37521    60.009  0.15542     0.12683  3863.59376   8303.50183  2.14791         3688.21308     20.26608  0.10252  55325.61154   5.34351   1.56764      1313270.81988  45.83501  23.11158  55487.98164    51.28892       43.94455   79.41116  272.76008  180.0    0.01213  -21.76666  0.97109 
  -68.92963  0.20199  10.27093     14.86294  1.47422  0.62922  79.08018  0.01181     0.24627  1936.43442   6549.24817  2.61305         3756.98787     17.25225   0.0001  55345.67037   1.76889  15.97357       271465.02253  44.98047   23.0769      55508.3    51.18675       44.03159   82.86382  115.08864  150.0    0.02443  -20.88687  0.08102 
   -97.9531  0.39994   8.95726     13.91816  1.82432  0.48503  65.38954  0.05047     0.15231  2753.11024   7375.37314  2.48608         3718.94033     18.96308   0.0051   55316.6469   2.95653  26.15195     19812735.31568  43.32865   23.0948  55495.23222    51.19516       43.97543   70.20407  147.31346  146.0    0.01839  -21.25896  0.05287 
  -96.56859  0.11899   2.52095     14.01588  1.72961  0.17597   17.0294  0.25588      0.0222   6200.4662   8657.96124   1.9511         3025.02979     17.52323  0.00019  55318.03141   3.90549   2.02632       948697.71987  45.72654   22.9686  55560.48748    51.62531       44.19162  176.08562   330.3044  120.0    0.02412  -21.44767  0.92178 
  -66.07806  0.05165   0.96276     13.85133  1.79195  0.70073  89.89057  0.11331     0.18013  1450.93729   8550.22637  3.03633         3743.66443      18.5155  0.00182  55348.52194   1.12886   4.64248       305863.00634  47.06961  23.05903      55480.4    51.41253        44.0744  100.12712  193.34891  242.0    0.00448  -21.10517  0.97883 
  -52.24753  0.44043   2.06941     14.52442  1.56359  0.29446  25.69682  0.17171     0.12836  2923.39526    6842.7498  4.27676         3220.03796     17.58811  0.00022  55362.35247   1.31003  11.31754        55562.54111  47.08649   22.8781  55577.40551    51.45289       44.13177  132.35194  176.08562  142.0    0.01532  -20.98972  0.77026 
  -62.20535  0.08934   1.56575      13.8112   1.5161  0.71075  60.85062   0.0324     0.03497  1372.00922   5435.17344  2.74649         4738.35118      20.5994  0.22086  55352.39465   0.68329   5.43667       823338.80064  46.14455  22.92998  55550.82003     51.3461       44.13062  111.63598  128.89928  148.0    0.01761  -21.62823  0.92004 
  -60.29062   0.0062   1.89815     13.90613  1.61792  0.87789  76.17024  0.06591     0.10272  3330.97173   4486.54728  1.60947         3854.94831     17.88718  0.00043  55354.30938   5.04144   0.47242       834005.56711  45.99997  23.04627  55579.82237    51.46169       44.08436  158.82232   194.4998  120.0    0.01986  -21.05663  0.99007 
  -23.16704  0.02014   0.75382     13.82268  1.51856  0.91081  39.03137  0.08454     0.05794  1879.33408    9243.2755  4.40341         3313.79745     21.02533  0.58892  55391.43296   0.82234   0.78595       181314.65612  47.43731  23.10025  55538.73573    51.29763       44.06786  107.03244  136.95548  142.0    0.01545  -21.45972  0.99717 
  -32.16879  0.00362   0.99869     14.38646  2.16712  0.55613  65.37701  0.15798     0.12245  6229.23897   8139.76135  0.98882         4173.57773     20.42645  0.14831  55382.43121   15.1329   0.23677         33856.7042  48.07622   22.7538  55601.57412    51.71331        44.2394   161.1241   330.3044  102.0    0.02426  -21.42795  0.99916 
  -93.81376  0.05307   2.30493      13.7821  2.10527   0.6865  74.20846  0.11106     0.02661  2847.56039   9258.31717  2.54496         3514.13329     18.43138   0.0015  55320.78624   3.58944   3.93799      2833006.19313  45.41459  23.03984  55526.65142    51.28179       44.10033    67.9023  131.20105  178.0    0.01041  -21.39067  0.91967 
  -117.0334  0.05751   2.89321     13.25662  1.83206  1.43149  27.31273  0.05492     0.01019  4229.16958   8602.86943  0.35953         3819.63501     17.07998    7e-05   55297.5666   2.91409    1.5707     43680292.25785  43.96874  23.05689    55533.902    51.24189       44.02398   97.82534  131.20105  138.0     0.0321  -21.12774  0.91988 
  -20.58997  0.01908   1.73769     14.39468  2.02927  0.57329  31.18633  0.08554     0.12165  2207.12896   8059.33549  2.85148         3877.82738     16.46583    2e-05  55394.01003   0.90625   0.59504        92412.50198  47.13051  22.88784  55543.56945    51.63999       44.44032   89.76914   126.5975  114.0    0.02133  -20.84162  0.99264 
  -61.23312  0.32126   8.21332     14.90791  1.75302  0.69171  49.82122  0.03483     0.24945  3426.29786   9734.30791  3.13603         3592.18297     18.58624  0.00214  55353.36688   3.48893  16.00581       167807.40845  45.45878  23.04671  55543.56945    51.30549       44.04506  120.84307  145.01169  114.0    0.02789  -21.13703  0.15222 
  -99.66181  0.33105  17.39342     13.78358  1.60994  0.45683  70.70553  0.03638     0.02851  2321.27791   5464.25269  2.73871         3250.06917     16.82221    4e-05  55314.93819   2.27266  23.40672    122527485.85566  41.90665  23.07126  55550.82003    51.41538       44.13669  133.50282  150.76612  144.0    0.01737  -20.98112  0.00407 
  -58.16271  0.19047  10.87156     15.02818  1.47552  0.70714  74.21101  0.01102     0.32549  2141.26889   6647.10956  2.68627         3736.88668     17.08535    7e-05  55356.43729   2.02973  14.13476       142226.98082  45.21222  23.00819  55487.98164    51.03836        44.0221   48.33723   85.16559  146.0    0.02908  -20.84856  0.08264 
  -76.51869  0.42763  16.77597     14.46233  1.95288  0.76689  58.28935  0.04496     0.17367  2929.46927   3369.92508  2.14997         3662.69413     19.91807    0.046  55338.08131   2.98397  24.92613      6070186.74773  43.32694  23.09919   55521.8177    51.28137       44.03609  115.08864  139.25725  138.0     0.0184  -21.29443  0.02843 
  -99.22939  0.21371  23.34347     14.42635  1.42191  0.55659  92.64002  0.02129     0.03636  2379.15216   4371.27993  2.65522         3321.56125     18.10915  0.00071  55315.37061   3.12803   19.7985     10099725.63315  42.68108  22.96956  55529.06828    51.25408       44.01397  115.08864  138.10637  142.0    0.02122  -20.91899  0.01025 
