 texplosion  fnickel    Pspin  log(Bfield)      Mns  thetaPB  mejecta    kappa  kappagamma     vejecta  temperature    alpha  cutoff_wavelength  log(nhhost)      A_V         MJD0  kenergy  mnickel            TSD   log(L0)  Peak_mag     Peak_MJD  log(E_rad)  log(Peak_lum)  Rise_Time    E_fold  tau_1  delta_m15     r_peak     frac 
  -20.19721  0.00213  2.23788     14.15784  1.74205  0.66997  6.09867  0.33112     0.01125  5186.59136   9255.91067  0.28969         2001.30724     18.49955  0.00176  58894.32279  0.97865    0.013   391627.11826  46.21736   19.8503  58984.56336    51.15922       44.28751   46.00871  58.07892   45.5     0.0957  -21.08664  0.99966 
  -19.02816  0.04048  1.71455     14.48188  1.32658  0.21728  6.65382  0.31081     0.01088  5247.12789   9267.20364  0.16673         3699.25594     18.30585  0.00112  58895.49184   1.0928  0.26936    39362.82308  47.32819  19.84745   58982.0313     51.1628       44.29398   46.65969  56.80355   46.0    0.09858   -21.0993  0.99379 
  -21.99696  0.01116   1.8321     14.10613  1.48684  0.62889   7.7974  0.23959     0.01055  4955.64523   9935.18518  0.03415         2995.01783     16.23162    1e-05  58892.52304  1.14229  0.08703   284256.75392   46.4615  19.81051   58982.0313    51.15597       44.28714   48.71135  54.75189   43.5    0.09033  -21.06823  0.99806 
  -21.47704  0.00519  3.18155     14.06081  1.88266  0.64836  6.45487  0.19665     0.01013  5277.70818   7266.77226  0.14357         2476.46029     19.34183  0.01221  58893.04296  1.07252   0.0335  1337342.42769   45.4121   19.7986   58982.0313    51.15237        44.2924   50.33708  53.12616   57.5    0.10941   -21.1292  0.99838 
  -19.87869  0.00404  2.12088     14.25155  1.72558  0.54195   5.8166  0.30013     0.01174   4986.8748   5933.51369  0.02582         2165.32031     17.74722  0.00031  58894.64131  0.86289  0.02348   226295.42425  46.49807  19.83459   58982.0313     51.1508       44.28804   46.83784  55.88548   56.0     0.0993  -21.05947  0.99944 
  -22.00373  0.10674  2.43829     14.22155  1.77669  0.60115  5.60163  0.32703     0.01471  5237.08348   6127.38341  0.12284         2971.76277     18.87098  0.00413  58892.51627  0.91648  0.59794   353579.15321   46.1958  19.84033   58982.0313    51.15668       44.28269   50.58486   56.2054   57.5    0.09462  -21.09323  0.98216 
  -23.13916  0.00176  2.87089     14.02319  1.86286  0.80464  5.26344  0.33822     0.01006  5066.56871   9187.86747  0.06501          3441.4397     17.18616    9e-05  58891.38084  0.80598  0.00925  1281266.51835  45.51535  19.85437     58983.36     51.1621       44.27232   50.58486  59.95243   49.0    0.10547  -21.07342  0.99963 
  -21.86497  0.15685  2.69055     14.34189  1.45614  0.22282  4.96469   0.2951     0.01272  5426.99387   6929.21629  0.03165         3763.46854     16.36807    1e-05  58892.65503  0.87224  0.77872   202732.39294  46.26544   19.8303   58982.0313    51.14357       44.27916   50.58486  54.33189   57.0    0.10541  -21.11969  0.96183 
  -19.59285   0.1814  2.25791     14.60924  1.86208  0.26778  6.82783  0.32548     0.01029   5458.4112   6936.28659  0.08565         3185.59451     16.93828    5e-05  58894.92715  1.21351  1.23859    53302.13524  47.10469  19.86618     58985.41    51.13888       44.25715    51.1288  56.82575   54.0    0.10407  -21.11519   0.9709 
  -21.40985  0.00405  2.65855     14.29189  1.57862  0.28938  5.19968  0.29367        0.01  5154.22431   5907.32494  0.00314         2478.13339      18.7412  0.00306  58893.11015  0.82401  0.02108   270143.87638  46.18624  19.84596  58984.56336    51.16386       44.28912   50.14637   56.2054   56.5    0.11077  -21.07748  0.99908 
  -20.85146  0.00367  2.45717     14.27085  1.56388  0.37283  5.81567  0.25251     0.01299  5095.00205   4157.99915  0.05069         3557.46941     18.80698  0.00356  58893.66854  0.90057  0.02134   251873.69493    46.281  19.86307     58983.36    51.14302       44.28063   47.88222  54.75189   57.0    0.10532  -21.08418   0.9992 
  -23.17321  0.01663  2.41319     14.38772  1.48364  0.23172  6.23967  0.26584     0.01074  5057.79548    9857.5737  0.06097         2746.55946     16.99951    6e-05  58891.34679  0.95216  0.10378   134549.53288  46.54611  19.83297     58983.36    51.15236       44.27685    52.2106  54.57967   46.0    0.09627  -21.09632  0.99593 
  -19.18551  0.00291  2.41436     14.64789  1.98004  0.24874  5.58616  0.33641     0.01088  5015.94333   9089.67851  0.29811         2018.71707     17.72169  0.00029  58895.33449  0.83839  0.01624    54238.11345  47.06561  19.83682     58983.36    51.15718       44.30669   48.46357  52.38624   47.5    0.09943  -21.06092  0.99959 
   -23.1404  0.00205  2.88067     14.23448  1.81576  0.44479  6.16354  0.24961     0.01158  5275.88946     9202.997  0.00956         5957.16603     19.27396  0.01044   58891.3796  1.02341  0.01262   475223.12714  45.93202  19.80408   58982.0313    51.16347       44.29726   46.00871   56.6254   47.5    0.10177  -21.13449  0.99948 
  -18.66874  0.16006  2.57932     14.37871   1.6917  0.35902  5.67438  0.28214     0.01083  4956.89785   7740.18609  0.18687         4441.19118     17.58419  0.00021  58895.85126   0.8317  0.90823   182697.92413  46.41243   19.8287  58984.56336     51.1332       44.25813    51.1288  55.66147   54.0     0.1054  -21.06842  0.96774 
  -21.20369  0.00905  2.32219      14.1359  1.60109  0.55092  5.89161   0.3075     0.01099  5140.25544   8588.29091  0.00373          3042.3253     17.51358  0.00018  58893.31631   0.9286  0.05332   428775.66663  46.10923  19.83555     58983.36    51.16593       44.30337   43.33593  57.83379   50.0    0.09982  -21.08355  0.99828 
  -21.80989  0.01529  1.92682     14.82012   1.8215  0.16892  8.40326  0.26695     0.01232  5407.26148   9659.06664   0.0184         3520.45272     16.52903    2e-05  58892.71011  1.46565  0.12846    14377.51918  47.80191  19.82657     58983.36    51.13681       44.25535   54.33189  55.49617   44.0     0.0903  -21.11581  0.99768 
  -25.48381  0.00198  2.80083     14.00487   1.6964  0.55205  5.34508  0.33413     0.01012  5258.69522   9926.25922  0.12827         2028.32496     19.25719  0.01004  58889.03619  0.88173  0.01057  1208284.02166  45.52163  19.82402     58983.36    51.16182       44.27954   50.58486  58.07892   47.0    0.09632  -21.12763  0.99953 
  -21.76265  0.00341  2.63271      14.4568  1.78653  0.29017  5.97821  0.28964     0.01334  5465.58079   5974.47918  0.02842         3232.83667     19.03234  0.00598  58892.75735   1.0653  0.02038   140293.00839  46.53301   19.8272   58982.0313    51.17911       44.32727   46.00871  54.33189   55.5    0.10474  -21.15306  0.99928 
  -23.77634  0.02992  2.33255     14.15517  1.71091  0.45055  6.03439  0.30097     0.01092  5310.75001   9977.83563  0.01448         3727.34752     20.46839  0.16335  58890.74366  1.01525  0.18056   423026.85782  46.14004   19.8487  58984.56336    51.16434       44.30147   46.00871   56.2054   46.0    0.09681  -21.27942  0.99467 
  -20.26124  0.09165  2.28379     14.35591  1.57948  0.32363   5.3568  0.33217     0.01217  5071.10796   9435.02074  0.00531          5106.4495     16.26683    1e-05  58894.25876  0.82175  0.49093   148531.71584  46.57823  19.80921     58983.36     51.1447        44.2887   48.46357  53.12616   46.5    0.10229  -21.07653  0.98459 
  -21.42699  0.08261  2.84036      14.3277  2.15388  0.53107  6.15837  0.33635     0.01056  5399.53628   9761.52946  0.05233          5906.7646     19.79278  0.03448  58893.09301  1.07104  0.50877   356770.43168  46.14293  19.83731   58982.0313    51.14046       44.27019   50.58486   56.2054   44.5    0.10493  -21.17879  0.98447 
  -25.31961   0.0205  2.57038     14.25132  1.65827  0.40211  6.84176  0.22462     0.01051  4873.28798   9756.70956  0.02151         5717.49401     18.44224  0.00154  58889.20039  0.96926  0.14026   319755.57329  46.16369  19.81726     58983.36    51.16581       44.29812   42.55162  59.03811   47.5    0.09711  -21.06845  0.99474 
  -23.33836  0.03989  2.35387     14.31792  1.82652  0.46434  6.13684  0.29566     0.01194  4918.38602   9992.49374  0.05754         2558.84264     16.70857    3e-05  58891.18164  0.88556  0.24482   217348.16248  46.44975  19.83444     58983.36    51.14821       44.28084   48.71135   56.2054   44.0    0.09401  -21.07318   0.9934 
  -23.74517  0.13107  2.51267     14.04697  1.49662  0.52685  5.17873  0.30137     0.01128   5065.7063   9587.14843  0.16083         2601.98027     18.73733  0.00303  58890.77483  0.79274  0.67875   706725.50517  45.79444  19.83017   58982.0313      51.215       44.34868   42.26168  58.07892   46.0    0.10177  -21.08999  0.97212 
  -19.70197  0.06054  2.76481     14.17791  2.01349  0.79606  7.02007  0.25827     0.01055   5309.2565   6162.13436  0.04059         3268.61923     17.57538  0.00021  58894.81803  1.18042  0.42496   629909.76309  45.89018  19.85609     58983.36    51.19664        44.3146   40.38817  61.50602   55.5    0.10382  -21.09982   0.9864 
  -19.36211  0.00487  2.98375     14.33525  1.82773  0.38027  6.30224  0.19716     0.01142  5053.46452   7713.77102  0.09436         4800.51236     18.35017  0.00124  58895.15789  0.96006  0.03067   322659.64333  46.07249  19.81835   58982.0313     51.1582       44.29592   50.58486  54.01197   55.0    0.10731  -21.09407  0.99865 
  -23.20405  0.00209  3.02207     14.26019  1.92705  0.46318  5.28878  0.30137     0.01265  5231.96109   9599.72981    0.034         2629.72388      16.5039    2e-05  58891.31595   0.8636  0.01104   493099.82538  45.90019   19.8178   58982.0313    51.16786       44.31357   46.00871  54.50184   45.5     0.1008  -21.10775  0.99954 
  -24.16992  0.00423  2.32951     14.09529  1.48711  0.48948  5.44779  0.32887     0.01033  5011.67458   5362.61084  0.10301         3313.05477     17.29053  0.00011  58890.35008  0.81623  0.02302   483184.16842  46.02255  19.85535     58983.36    51.18254       44.29401   46.28385  60.50642   58.5    0.10209  -21.06955  0.99916 
  -21.51072  0.06794  2.46292     14.44153  1.56175  0.24089  5.98187  0.22856     0.01011  4862.68282   5101.82299  0.01312         2988.65371     17.76033  0.00032  58893.00928  0.84375  0.40639   115151.72345  46.61828  19.82386     58983.36    51.12815       44.25576   50.33708  56.45318   57.0    0.10759  -21.04619  0.98484 
  -19.76879   0.0617  2.08695     14.55993  1.66303  0.25525  6.71323   0.3275     0.01477   5656.2066   9502.04422  0.02557         4171.01343     16.40174    1e-05  58894.75121  1.28118  0.41418    51035.48888  47.14285  19.82864     58983.36    51.14341       44.27553    51.1288  53.78796   45.5    0.10032   -21.1411  0.98996 
  -24.64636  0.01971  2.26001     14.28226  1.61434  0.39187  6.31551  0.32941     0.01101  5326.25787   5835.10154  0.00052         3943.30008     17.61533  0.00023  58889.87364  1.06876  0.12447   208697.50014   46.4491  19.81977     58983.36    51.16013        44.2607   52.45838  59.95243   56.5    0.10096  -21.10576  0.99625 
  -23.64428  0.09021  2.06994     14.47867  1.49685  0.22804  5.96003  0.32256     0.01104  5001.44132   9474.68233  0.08938         2312.17096     17.40505  0.00014  58890.87572  0.88934  0.53768    65700.80479  46.99454  19.83388   58982.0313    51.15988       44.28026   46.83784  58.07892   46.5    0.09642  -21.07408    0.985 
  -22.04832  0.00676  2.60933     14.44968  1.73135  0.28307  5.75169  0.31898     0.01255  5244.78917   9177.54557  0.11033         3614.15424     17.40096  0.00014  58892.47168   0.9438  0.03886   138006.28562  46.53427  19.85067     58983.36    51.13983       44.28076   49.50795  53.12616   47.0    0.09794  -21.10745  0.99859 
  -20.59849  0.03425  1.59656     14.31268  1.11116  0.22287  6.41379  0.31577     0.01034  5153.34515   9504.44401  0.05964         3677.42674     18.12905  0.00075  58893.92151  1.01606  0.21966    62315.58845  47.11365  19.82085   58982.0313    51.17632       44.31757   44.38032  56.13023   45.5    0.10291  -21.09057  0.99425 
  -23.31968   0.0232  2.82889     14.23508  1.79423   0.4167  5.25207  0.33631     0.01108  5194.92733   9727.94805  0.02475         2306.60404     16.68512    3e-05  58891.20032  0.84551  0.12185   451616.44143  45.96472  19.81301   58982.0313    51.16306       44.29178    52.2106  54.57967   46.5    0.10491   -21.1031  0.99505 
  -21.12877  0.00871  2.81726     14.27828  2.07339  0.63502  6.10897  0.27278     0.01473  5288.90679   8688.32128  0.20861         2046.11421     18.48286  0.00169  58893.39123  1.01936  0.05321   424214.24747  46.05829  19.83856     58983.36    51.17022       44.31161   44.96432  55.88548   49.0    0.09836  -21.11117  0.99829 
  -20.04342   0.0473  2.03058     14.19756  1.44936   0.4633  7.42738  0.26629     0.01024  5392.49734   8366.15848   0.0675         3761.36069     17.39532  0.00014  58894.47658  1.28838  0.35128   223411.29336  46.46567   19.8394   58982.0313    51.15497       44.29274   50.14637  54.01197   48.5    0.10008  -21.10112  0.99006 
  -26.51891  0.01141  2.77153     14.40986   1.9606  0.27224  5.64441  0.32787       0.011  5347.12618   9904.28544  0.03948         2019.55749     20.32253  0.11675  58888.00109  0.96269   0.0644    211798.0644  46.34987  19.80613     58983.36    51.13657       44.26707   50.29967  55.66147   45.5    0.09623  -21.24999  0.99779 
   -24.5558  0.00544  1.91074     14.00688  1.52144   0.9112   8.1126  0.22036     0.01233  5000.83397   5641.41327  0.16334         3370.79133     18.21736  0.00092   58889.9642  1.21024   0.0441   499700.66515  46.18999  19.85855     58983.36    51.16542       44.29447   46.65969  56.80355   57.5    0.08942  -21.05618  0.99897 
  -21.52489  0.00471  2.49363     13.87824  1.63804  1.19891  5.55383  0.33028      0.0112  5336.09176   5874.81756  0.01688         2249.38524     17.06965    7e-05  58892.99511  0.94334  0.02615  1657018.95721  45.47018  19.84822   58982.0313     51.1321       44.25503   50.14637   56.2054   55.5    0.10688  -21.09778  0.99906 
  -20.49038  0.00451  2.72348     14.04683  1.66363  0.63064  4.98472  0.32997      0.0114  5190.62539   3822.52271  0.08118         3574.57151     18.34934  0.00124  58894.02962  0.80114  0.02247   923560.49368  45.65419  19.84118     58983.36    51.15551       44.28072    52.2106  54.57967   56.0    0.11036  -21.08317  0.99905 
  -21.47159  0.01119  2.75486     14.02961  1.64363  0.58825  5.26933  0.26478     0.01024   5048.9992   6731.99279  0.01992         3942.77309      17.3962  0.00014  58893.04841   0.8013  0.05898  1010652.51085  45.59985  19.83371  58984.56336    51.15781       44.28611   50.33708  56.45318   57.0    0.10975  -21.08065  0.99739 
  -21.82683  0.00149  2.87525     14.29464  1.76844   0.3567  5.25184  0.28924     0.01123  5218.90294   4600.93837  0.06747         2306.99641     17.32486  0.00012  58892.69317  0.85329   0.0078   349528.79281   46.0556  19.86543     58983.36    51.14859        44.2749   46.65969  56.80355   57.5    0.10527  -21.10077  0.99966 
  -19.32767  0.03491  1.96881     14.28481  1.81809  0.62147  7.40699  0.20227     0.01024  4577.48288   6746.19781  0.22812         3793.41538     16.78479    3e-05  58895.19233  0.92581  0.25855   176284.57089  46.69384  19.79062   58982.0313    51.22762       44.36713   40.38817  58.62034   55.5    0.09028  -21.03532  0.99511 
  -21.08936  0.02169  2.72948     14.08399   1.7938  0.77514   5.6448  0.30712     0.01395  5344.17608   5924.64222  0.00947         3259.45729     17.64312  0.00024  58893.43064   0.9617  0.12246   842893.07142  45.72469  19.85288   58982.0313    51.20594       44.33946    41.2173  58.62034   56.0     0.1061  -21.09306   0.9954 
  -20.64602  0.01618  2.33758     14.33135  1.85726  0.46999  5.82362  0.31143     0.01042  4978.65345   6776.26738  0.00166         2323.16078      16.0338    1e-05  58893.87398  0.86108   0.0942   204889.73433  46.48866  19.83706  58984.56336    51.15531       44.27622   46.83784  59.95243   54.0    0.09961  -21.05976  0.99755 
  -20.64643  0.00224  2.75577     14.46197  1.81606  0.28226  5.28616  0.32189     0.01207  5260.64013   5581.05618  0.09396         2793.72731     17.72124  0.00029  58893.87357  0.87266  0.01184   152580.33936  46.46399  19.83235     58983.36    51.18254       44.32257   46.00871  55.88548   56.5    0.10954  -21.10289  0.99955 
  -19.98756  0.00829  2.04017     14.09144     1.65  0.81428  7.02451  0.29041     0.01085  5147.13149   4579.29427  0.07577         2778.30143     16.43744    2e-05  58894.53244  1.11013  0.05826   418563.20316  46.24523  19.86378     58983.36    51.16121        44.2829   46.83784  58.07892   55.0    0.09784  -21.05536  0.99862 
  -23.56462   0.0097  2.71467     14.16869  1.67431   0.4641  5.79208  0.26285     0.01085  4979.49597   9297.17613  0.01248         2549.13876     17.76932  0.00033  58890.95538  0.85671  0.05619   526867.19825  45.90355  19.87222  58984.56336    51.15792       44.26911   50.58486  58.53287   48.5    0.10142  -21.06646  0.99766 
  -20.13176  0.00133  2.46345     14.35433  1.79938  0.43043  6.12923  0.25434     0.01359  4940.82582   9258.34525  0.14506           5383.662      16.1011    1e-05  58894.38824  0.89255  0.00814   198318.22372  46.44352  19.81527   58982.0313    51.15773        44.2931   50.14637  54.33189   49.0    0.09712  -21.11214  0.99975 
  -19.97929  0.00419  2.23855     14.55614  1.58441  0.21256  6.06575  0.27873     0.01243  5053.69129   5889.41301  0.41459         2222.79673     19.35144  0.01248  58894.54071  0.92412  0.02543    56928.26204  47.01345  19.81639  58984.56336     51.1526       44.28303   50.58486  54.33189   56.0    0.09488  -21.08059  0.99923 
  -21.97451  0.00564  2.46523     14.20107  1.89269  0.69189  6.71218  0.27305     0.01178  5084.63401   6284.67859   0.9814         2215.25635     19.50159  0.01763  58892.54549  1.03517  0.03785   423132.15916  46.13573  19.84357     58983.36    51.13923       44.27527   49.50795  54.57967   58.5    0.09369  -21.10771  0.99893 
  -21.98753  0.19234  2.54332     14.37113  1.69593  0.32741   6.6232  0.28833     0.01029  5454.40795   9049.16651  0.09824         3634.54256     19.90456   0.0446  58892.53247  1.17541  1.27389   184402.61645  46.42169   19.8261     58985.41    51.20867       44.35175   49.50795  53.12616   47.5    0.10565  -21.17026  0.95657 
  -22.82606  0.01894  2.46103      14.1855  1.55484  0.40452  5.37066  0.30086     0.01125  5097.50825   6253.30666  0.12773         2610.09396     19.35096  0.01246  58891.69394  0.83247   0.1017   372165.39743  46.10756   19.8375  58984.56336    51.13497       44.25817   54.33189  55.49617   57.5    0.10035  -21.10815  0.99613 
  -23.19324  0.30072  3.61783     14.29029  2.04447  0.51725  7.67239  0.17716     0.01128  5268.50182   9807.85903  0.03616          2423.6674     18.70265   0.0028  58891.32676  1.27038  2.30723   652686.21868  45.64783  19.81236     58983.36     51.1697       44.28821   48.09471  58.25707   48.5    0.09589  -21.08517  0.88742 
   -21.0122  0.00147  2.90485     14.07898  1.83143  0.76152  4.83859  0.30636     0.01735  5271.23365   3238.23476  0.01697         3188.47629     16.04948    1e-05   58893.5078  0.80199  0.00711    997432.0324  45.60651   19.8438   58982.0313    51.17595        44.2947   48.71135  58.07892   58.5      0.101  -21.09806   0.9997 
  -21.61456    0.037    2.643     14.19272  1.66349  0.44592  5.57041  0.28014     0.01027  5087.50212   8262.12772  0.10017         4602.77498     18.71688  0.00289  58892.90544  0.86005  0.20611   444211.86226  45.99808  19.83269  58984.56336    51.20037       44.32023   54.08411  56.45318   52.0    0.10904  -21.11584  0.99186 
  -19.10041  0.00385  2.19356     14.55301  1.75316  0.26601  6.40665  0.29803     0.01081  5122.01854   9368.85579  0.00823         3823.46385     16.69237    3e-05  58895.41959  1.00263  0.02467    61363.57161  47.04246   19.8235     58983.36    51.13469       44.26685   49.50795  54.57967   45.0    0.09907  -21.06485  0.99938 
  -21.14314  0.00671  2.89346     14.53653  1.81737  0.22226  6.66379  0.26356     0.01235  5610.70091   9884.88669  0.00296         5777.43185     16.85625    4e-05  58893.37686  1.25136  0.04471   119406.26793  46.52843  19.82612  58984.56336      51.128       44.25578   51.62925  54.78585   43.5    0.10427  -21.16638  0.99813 
  -23.36796  0.02363  2.94569     14.48308  2.07783  0.32648  5.54273   0.3255     0.01175  5230.40502   9859.85955   0.0312         5289.93339     19.03746  0.00606  58891.15204  0.90453  0.13097   180980.50449  46.39045   19.8318   58982.0313    51.18838       44.31468   48.71135   56.6254   43.5    0.10255  -21.13116   0.9954 
  -17.60141  0.00168  2.88798     14.19468  1.83446  0.56267  6.23354  0.29619     0.01112  5670.67359   5737.23127  0.13825         3603.45313     18.48173  0.00168  58896.91859  1.19573  0.01047    579639.0535  45.84801  19.86921     58983.36    51.14009       44.26447   48.71135   56.2054   54.0    0.10883  -21.13699  0.99957 
  -21.47147  0.00118  2.91541     14.23669  1.67849  0.38891  5.15351  0.28929     0.01302  5320.42739   7876.85315   0.1635         3477.74679     17.69229  0.00027  58893.04853  0.87021   0.0061   445403.43112  45.91561   19.8705     58983.36    51.15864       44.28933     43.596  58.61811   52.0    0.10866  -21.10507  0.99971 
  -24.30779  0.04801  2.35261     13.88785  1.33394  0.66311  6.35436  0.24071     0.01045  5042.98707   7586.30162  0.03533         4594.74553     18.59853   0.0022  58890.21221  0.96399  0.30508  1149086.01713  45.59053  19.84329   58982.0313    51.14526       44.27067   50.14637   56.2054   55.5    0.10057  -21.07275  0.98674 
  -20.80375  0.00195  2.80111      14.1399  1.74426  0.52666  5.17338  0.29746     0.01098  5187.12071   7495.85006  0.03623         5006.76372     18.43611  0.00152  58893.71625  0.83034  0.01006   667258.38245   45.7915    19.815   58982.0313    51.15562       44.28391   46.83784  58.07892   53.0    0.10629  -21.10299  0.99958 
  -26.11306  0.01385  2.77959     14.38238  1.69228  0.27622  6.22624  0.24694     0.01159  5071.53439   9362.25576  0.01371         3233.60237     17.39824  0.00014  58888.40694  0.95528  0.08625   208687.24247  46.28986   19.8335   58982.0313    51.15196       44.27443   54.08411  54.57967   48.0    0.10009  -21.08696   0.9963 
  -20.51261  0.00212  2.80613     14.49098  1.78047  0.25024  5.37762  0.33674     0.01139  5287.21916   4340.07844  0.48567         2171.99587     16.70442    3e-05  58894.00739  0.89675  0.01141   135709.07272  46.49056  19.81053     58983.36    51.14371       44.26558   52.45838   56.2054   56.5    0.10057  -21.08494  0.99954 
  -24.05725  0.00597  2.16154      14.2034  1.59254  0.49556   7.0906   0.2785     0.01027  5073.04376   3058.57869  0.11479          2624.8763     18.90906  0.00451  58890.46275  1.08855  0.04233   270791.79645  46.36877  19.83083     58983.36    51.15594       44.28467   50.14637   56.2054   57.5    0.09306  -21.07094  0.99881 
   -20.1617  0.03291  3.08082     14.12767  1.80097  0.57177  5.55817  0.25361     0.01111  5003.89111   7181.84439  0.31423         3285.33237     19.57547   0.0209   58894.3583  0.83018  0.18294   881693.42315   45.6017  19.87015  58984.56336    51.13952       44.26611   46.83784  58.07892   56.5    0.10016  -21.08075  0.99124 
  -23.05629  0.01141  2.45136     14.15084  1.51397   0.3812  6.15807  0.29289     0.01033  5343.36476   9445.97102  0.31193         2133.92541     19.97657  0.05264  58891.46371  1.04882  0.07026   421766.28076  46.04508   19.8605     58983.36    51.16686       44.29489   48.27286   56.6254   46.5    0.10009   -21.1661  0.99723 
  -22.83886   0.0043    2.267     14.18164  1.56794  0.48028  5.96625  0.31284     0.01144  5127.36245   8141.24894  0.04329          4389.7281     18.61905  0.00231  58891.68114  0.93566  0.02568   324162.43137  46.24251  19.85429     58983.36    51.18232       44.31762   46.83784   56.2054   51.0    0.10197  -21.09365  0.99919 
  -21.09388  0.00913  2.62343     14.34081  1.73137  0.37223   5.5904   0.3248     0.01433  5404.08703   9566.74927  0.00511         2183.88121      19.2871  0.01076  58893.42612   0.9739  0.05106   230317.49056  46.30717  19.83045     58985.41    51.12591       44.25229   49.75573  56.65936   43.5    0.10053  -21.10951  0.99813 
  -19.68106  0.00277  1.98477     14.17121  1.63803  0.64653  6.98015  0.31809     0.01016  5273.78878   6035.56745  0.39065         2664.27538     16.26213    1e-05  58894.83894  1.15808  0.01933   272356.27378  46.45261  19.86662   58982.0313    51.21775       44.32004   46.83784  62.24594   55.0    0.10015  -21.08496  0.99956 
  -21.81782  0.04934  2.17643     14.12114  1.70336  0.74709  7.04752  0.29121       0.011  5139.79105    9667.8209  0.08545         3278.90085     18.01154  0.00057  58892.70218  1.11059   0.3477   428875.34043  46.19233  19.82834     58983.36     51.2231       44.37201   44.38032  54.62819   45.5    0.09169  -21.08276  0.99113 
  -23.68799   0.2939  2.86031     14.13988  1.63917  0.45262   5.2913  0.30741     0.01107  5177.67836   9818.42037  0.28401         2433.62924     16.37237    1e-05  58890.83201  0.84617  1.55512   653901.41015  45.75513  19.83959     58983.36    51.13628       44.25302   54.33189   56.2054   47.0    0.09849  -21.10547  0.93049 
  -20.09024  0.00197  2.18257      14.2633  1.70612  0.44706  6.61681  0.26969     0.01092  5426.99047   6889.14758  0.01123          4122.9061     20.22086  0.09238  58894.42976   1.1625  0.01305   224467.65006  46.47176  19.85957  58984.56336    51.16082       44.27571   45.20945  61.58082   53.0    0.10836  -21.20781  0.99966 
  -24.20869   0.0064  2.94401     14.02394  1.81187  0.65191  5.26849  0.32937     0.01062  5268.67272    9543.3181  0.01233         4605.69126     18.44071  0.00153  58890.31131   0.8724  0.03374  1305969.67824  45.47316  19.85564     58985.49      51.164       44.29342   47.88222   56.2054   47.0    0.10041  -21.11594  0.99852 
  -20.25058  0.00356  2.42735     14.25379  1.86312  0.55945  5.97997  0.30977     0.01023  5055.31038   5890.96768  0.02939         4879.14628     17.12798    7e-05  58894.26942  0.91164  0.02127   316759.90931  46.26809  19.82069  58984.56336     51.1677       44.29339   48.71135  58.07892   56.0    0.10472   -21.0776   0.9994 
  -19.04169  0.07035  2.78937     14.23623  1.75285  0.45791  5.29374  0.29629     0.01238  5343.13819   7143.62288  0.17928         2851.09506     18.05453  0.00063  58895.47831  0.90154   0.3724   426694.26817  45.99146  19.85687     58983.36    51.17557       44.29465    48.5332  58.25707   54.5    0.10867  -21.12265  0.98498 
  -24.83146   0.0073  2.18149     14.04317  1.27696  0.39373    5.497  0.31487     0.01014  5143.87947    6042.6603  0.05736         3818.18727     17.13506    8e-05  58889.68854  0.86763  0.04013   462549.82808  46.03236  19.84781  58984.56336    51.18905       44.30853   46.39934  59.95243   59.0    0.10304  -21.09638  0.99838 
  -19.39916  0.00286  2.13487     14.16109  1.71713  0.70953  7.05659  0.28822     0.01318  5564.23145   5170.48335  0.01492         3244.57447     17.85383   0.0004  58895.12084  1.30326   0.0202   346087.55784  46.30572  19.84117   58982.0313    51.15135       44.28194   50.58486   56.2054   54.0    0.10044  -21.13224  0.99951 
  -21.20172  0.02071  2.06335     14.10172  1.38094  0.46264  5.89821  0.33862     0.01046  5311.30347   3225.01766  0.01364         4519.59497     17.56961  0.00021  58893.31828  0.99254  0.12213   341744.15185  46.24618  19.84068  58984.56336    51.15295       44.28516   46.83784   56.2054   56.5    0.10112  -21.10896  0.99612 
  -20.90079  0.34268  2.19083     14.19287  1.74006  0.65574  6.42436  0.26921      0.0113  5219.28479   8982.96474   0.0428         5783.03371     19.94134  0.04854  58893.61921  1.04395   2.2015   319045.27877  46.32434   19.8261   58982.0313     51.1587       44.30662   46.83784  53.27945   49.0    0.09717  -21.16056  0.94736 
  -20.21639  0.35094  1.59868     14.43175  1.59422  0.38467  5.97489  0.33337     0.01279  5034.56303   9501.53154  0.10695         3324.40874      17.0499    6e-05  58894.30361   0.9034   2.0968    51806.33489  47.34949  19.83242     58983.36    51.15009       44.28006   50.14637   56.2054   47.5    0.09201  -21.06753  0.96919 
  -23.83203  0.00265  2.53189     13.84835  1.44281  0.77267  5.59886  0.24307      0.0116  5192.30073   6644.46557  0.01986         4205.86753     17.77847  0.00033  58890.68797  0.90042  0.01482  1726659.11942  45.38396  19.85722   58982.0313    51.14247        44.2709   50.58486   56.2054   57.0     0.1072  -21.11166  0.99932 
  -20.44594  0.00767  2.23923     14.14659  1.49888  0.48286  5.48546  0.29336     0.01169  5104.30853   6070.74118  0.06393         4086.01093     16.75019    3e-05  58894.07406  0.85254  0.04205   355301.97079  46.19382  19.86307     58983.36    51.17473       44.32075   46.65969  54.51004   55.0    0.10312  -21.09978  0.99861 
  -24.38797  0.01052   2.0029     14.37387  1.69667  0.37536  6.34478  0.33753     0.01038  4888.22454   9877.10649  0.04648         5931.03512      16.4699    2e-05  58890.13203  0.90437  0.06675   112976.20846  46.84214  19.82103  58984.56336    51.15695       44.27562   43.33593  61.58082   44.5     0.0933  -21.06808  0.99854 
   -22.2929  0.00246  3.07944     14.35167  2.12012  0.45767  6.42998  0.31461     0.01025  5524.03069   9220.07353  0.06182         3483.76637      18.3239  0.00117   58892.2271  1.17044  0.01583   369639.28511  46.05048  19.83292   58982.0313    51.15667       44.27844    48.5332  56.80355   45.5     0.1027  -21.13608  0.99941 
  -22.48247  0.01731  2.72033     14.17398  1.69836  0.44469  5.46612  0.31288     0.01046  5236.78568   9245.06417  0.02109         5566.55282      17.0508    6e-05  58892.03753   0.8942  0.09459   523767.20932  45.91049  19.85156     58983.36     51.1737       44.29308    48.5332  58.25707   47.0    0.10421  -21.11782  0.99613 
  -27.09874  0.03473  2.68223     14.49589  1.70162  0.22428   7.4321  0.26178     0.01249  5555.35583   9664.19058  0.02442         2084.09554     19.56956  0.02062  58887.42126  1.36824  0.25813   115849.13986  46.57882  19.83729     58983.36    51.14038       44.26335   48.71135  58.07892   46.0    0.09235  -21.16077  0.98988 
  -22.40487  0.41764  2.89344     14.47816  1.92028  0.35238   6.5812  0.25301      0.0106  5202.72951   9589.11884  0.07864          4000.7228     17.54697   0.0002  58892.11513  1.06266  2.74859   165077.18339  46.41169  19.84484  58984.56336      51.161       44.28786   46.00871  58.07892   47.5    0.09535  -21.10325  0.90501 
  -20.89786  0.00386  2.29642     14.34972   1.3498  0.22392  5.36398  0.28454      0.0108  5051.65228   4921.29495  0.06332         4472.88132     16.58545    2e-05  58893.62214  0.81655  0.02068   132053.38498  46.55626  19.84412     58986.39    51.25834       44.38444   50.58486   56.2054   57.0    0.10336  -21.07594  0.99915 
  -20.69558  0.22629  2.85724     14.37291  1.81473  0.34838   5.6042  0.24114     0.01073  5068.26126   8437.24814  0.23943         2056.49273     19.35683  0.01263  58893.82442  0.85873   1.2682    247002.3554  46.22306  19.84257  58984.56336    51.14301       44.26756   52.56382  56.01924   51.5     0.1085  -21.09896  0.95084 
  -25.75702  0.01213  3.11336     14.17048  2.01343  0.58278  6.07942  0.28636     0.01208   5445.6383    5999.6806  0.13657          2271.2455     19.82136  0.03682  58888.76298  1.07544  0.07373   826502.81451  45.66908  19.79696   58982.0313    51.16682       44.30161   46.83784   56.2054   58.5    0.10348  -21.16855  0.99694 
   -24.0915  0.00204  3.17595     14.08316  1.92561   0.6208  5.51377  0.28924     0.01125  5233.70922   9828.44186  0.16722          2837.1969     18.40342  0.00141   58890.4285  0.90094  0.01124  1229748.78367  45.45985  19.83564   58982.0313    51.18114       44.29573    41.2173  63.69946   45.5    0.10161  -21.12291  0.99947 
  -22.96975  0.02389  3.03142     14.31053  1.79931  0.32146     5.67  0.24836     0.01002  5158.94129   8557.68306  0.28283         2093.97364     16.45418    2e-05  58891.55025  0.90018  0.13546   367405.63451  45.99551  19.83387     58983.36    51.15211       44.28208   43.33593  58.25379   52.0    0.10647  -21.10177  0.99366 
   -21.2846  0.08881  2.76977     14.36237  1.88467  0.43093  7.17425  0.21742     0.01102   5112.5203    4084.9669  0.21702         2803.89651     19.24168  0.00969   58893.2354   1.1186  0.63714   253040.78985    46.256  19.85688  58984.56336    51.19304       44.31586   43.09081  59.95243   57.5    0.10011   -21.0895  0.97757 
  -22.65643  0.00239  2.42324     14.19668  1.56096  0.42886  6.20047  0.28462     0.01216   5420.4761    6339.9859  0.10469         2023.85314     18.13655  0.00076  58891.86357  1.08674  0.01481   344069.15375   46.1568  19.81686   58982.0313    51.15667       44.29666   50.33708  53.12616   56.0    0.10182  -21.13565  0.99946 
  -22.00856  0.00796  3.20807     14.13769  1.96949  0.59597  6.27366  0.22835      0.0105  5412.04447   3337.18304  0.03832         4983.57056     19.25343  0.00996  58892.51144  1.09615  0.04993   998332.78499  45.55144  19.85578     58983.36    51.18585       44.32849   42.53682  56.75939   58.0    0.11064  -21.15672  0.99771 
  -22.52519  0.01207  2.72597     14.12554  1.68329  0.56011  6.29063  0.23778     0.01134  5222.53801   7587.79833  0.03244         5875.75447     17.86637  0.00041  58891.99481  1.02349  0.07594   651520.70209  45.81003  19.85121   58982.0313    51.15784       44.28162   45.20945  58.25379   54.5    0.10664  -21.10775  0.99685 
  -24.59741  0.05006  2.64518     14.43514  1.49912  0.19789  6.29176   0.2102      0.0105  4954.42924   9049.86509  0.09112         4603.52521     19.10361  0.00705  58889.92259  0.92127  0.31494   131306.87658  46.48148  19.86401     58983.36    51.13221       44.26124   52.01989   56.2054   51.0    0.10023  -21.09323  0.98544 
  -26.52145  0.00914  1.94165     14.14042  1.19882  0.31788  6.43789  0.27903     0.01013  4860.83524   9456.94676  0.06503         4916.66823     16.81531    4e-05  58887.99855  0.90739  0.05886   219826.46237  46.42918  19.83282     58983.36    51.12714       44.25911    51.1288  55.66147   47.5    0.09268  -21.06701  0.99795 
  -22.73281   0.0022   2.6247     13.77636  1.51474  1.14845  5.77544  0.27071     0.01189  5145.46892   9748.95826  0.00613         2821.45541     16.54743    2e-05  58891.78719  0.91214  0.01269  2713887.32046  45.17743  19.83282     58983.36    51.15276        44.2767   44.80837  58.23487   45.5    0.09822  -21.08332  0.99942 
  -18.78195  0.02525  2.57346     14.25097  1.80782  0.56312  7.44259  0.21242     0.01271   5263.7481   8094.16173  0.04859         5850.04539     16.50391    2e-05  58895.73805   1.2301  0.18789   350001.50222   46.1609  19.86045     58983.36    51.13484       44.27814    51.1288  53.78796   51.5    0.09993  -21.10744  0.99383 
  -23.58856  0.14218   2.9195     14.39805  1.92579  0.34689  5.42473  0.30142     0.01117  5019.88216   9995.37755   0.0175         2563.39432     16.99905    6e-05  58890.93144  0.81544  0.77131   243747.47127   46.2359  19.84363     58983.36    51.16563       44.30506   45.85276  56.04144   44.5    0.10136  -21.08436  0.97083 
  -20.46536  0.21578   2.8157     14.33561  1.67545  0.34062  5.52589  0.24933     0.01043   4906.1795   6394.60871  0.22244         3107.96384     18.65706  0.00252  58894.05464  0.79344   1.1924   262963.49438  46.17391  19.84073  58984.56336    51.15996       44.27942   51.77211  56.45318   59.0    0.10386  -21.05414  0.94941 
  -24.16797  0.03829  2.65356     14.29288  1.60196   0.3051  5.12304  0.31107      0.0121  5118.84013   9623.24811  0.08046         3013.97101      18.6965  0.00276  58890.35203  0.80075  0.19617    271874.6625  46.19147  19.85691  58984.56336    51.16723       44.30609   44.78617  56.38355   47.5    0.09935   -21.1057   0.9917 
  -19.76365  0.01741  2.89582      14.1636  1.96361  0.63782  5.16252  0.31446     0.01062  5198.17373   8391.17842  0.08461         3253.54171     19.63795  0.02414  58894.75635  0.83213  0.08987   719812.43595  45.78114  19.81947     58983.36    51.16449       44.29523   50.14637   56.2054   50.5    0.10965  -21.11534  0.99667 
  -20.63641  0.01549  2.06366     14.31788  1.33461  0.26932  5.42512   0.3157     0.01374  5233.81428   9270.71447  0.22924         4016.73183     19.81039   0.0359  58893.88359  0.88649  0.08403   122090.45497  46.67824  19.85195     58983.36    51.13296       44.26878   46.83784   56.2054   48.0    0.10435  -21.16437  0.99719 
  -22.74858  0.11821   2.9963     14.33938  1.74595  0.31221  5.82052  0.25995     0.01073   5183.4416   9466.31421  0.09707          5108.0298     16.30431    1e-05  58891.77142  0.93288  0.68803   304963.37599  46.07346  19.85097  58984.56336    51.15812        44.2906   48.71135   56.2054   47.5    0.10424  -21.12301  0.96808 
  -20.77823  0.00642  2.41638     14.12709  1.76443  0.71789  6.74136  0.23964     0.01032  5001.87504   6838.18068  0.09746         5529.76521     18.73718  0.00303  58893.74177   1.0061  0.04326   532797.65951  46.02256  19.83861     58985.41     51.1393       44.25354   54.42295  56.85535   55.5    0.09935  -21.11496   0.9987 
  -23.83886  0.02373  2.99991     14.05282  1.88259  0.69612  6.07295  0.25205     0.01021  5173.50242   9601.03189  0.26702         2357.88655     19.41761  0.01453  58890.68114  0.96961  0.14413  1233547.10472  45.49823  19.82587     58983.36    51.13151       44.27147   51.62925  52.45838   46.0    0.09989  -21.13534  0.99386 
  -19.24576  0.11553  2.52295     14.60502  1.84641  0.23855  6.26512    0.268     0.01011  5082.73841   4970.47507  0.11854         3031.93303     19.12001  0.00732  58895.27424   0.9655  0.72384    67286.95119  46.90343  19.82443   58982.0313    51.17207       44.30553   45.20945  57.51387   56.0     0.1003  -21.08763  0.97824 
  -23.12924  0.00289  2.95335     14.06892  1.67634  0.54805  5.49069  0.21548     0.01249  5096.53966   8907.77326  0.08778          2905.9468      17.4256  0.00015  58891.39076  0.85076  0.01588   988467.39793  45.55761   19.8236  58984.56336    51.22603       44.34406   54.08411  56.45318   51.0    0.10626  -21.08508  0.99921 
  -26.17934  0.03129  2.45137     14.18218  1.62836  0.37688   5.4586  0.33402     0.01069  5182.96875    9920.4683  0.00561         5982.97654     20.09426  0.06902  58888.34066  0.87471  0.17081   392672.88154  46.10775  19.86484  58984.56336    51.16457       44.29956   44.78617  56.80355   45.5    0.09686    -21.182  0.99397 
   -20.0555  0.00635  2.78566     14.05614  1.63782  0.63471  5.72557  0.27426      0.0154  5644.45502    7236.7179  0.09811         3229.23514     19.43632  0.01517   58894.4645  1.08815  0.03634   911310.96159  45.63359  19.79668     58985.49     51.1481       44.27085    51.1288  56.82575   55.0    0.10936  -21.15128  0.99835 
  -20.56151   0.2708  2.64377     14.48052  1.50115   0.1939  5.51819  0.31252     0.01248  5611.85841   3495.05401  0.05452         2946.51495     18.94867  0.00494  58893.95849  1.03666  1.49432   106570.55545  46.57319  19.81721   58982.0313    51.16269       44.29136   50.14637   56.2054   56.0    0.10676  -21.14126  0.93492 
   -24.6825  0.17353  2.67514     14.68591  1.83319  0.16683  5.83535   0.2879     0.01049   5042.4787   9598.98977  0.10483          2837.2908     19.74364  0.03079   58889.8375  0.88508  1.01262    51748.26979  46.96346  19.82047  58984.56336     51.1086       44.24986   48.71135  54.33189   46.0    0.10077  -21.12365  0.96565 
  -21.51029   0.0465  2.81623     14.31797  1.93408  0.49141  5.52046  0.32511     0.01405   5273.2382   6229.49776  0.06107         2210.70954     17.08904    7e-05  58893.00971  0.91571  0.25669   329372.84888   46.1383  19.83808   58982.0313    51.11773       44.25243   50.58486  54.33189   56.0    0.09886  -21.07969  0.99089 
  -20.51565  0.00243  1.86986     14.03995  1.30759  0.58743   5.3404  0.33043     0.01552  5099.23535   5949.69436  0.04296         5122.46944     16.88731    4e-05  58894.00435  0.82834    0.013    353189.5006  46.29369  19.86661     58983.36    51.14335       44.26565   50.58486   56.2054   56.0    0.09724   -21.0667  0.99963 
  -23.10822  0.05125  2.52276     14.18913  1.65492  0.49515  5.19024  0.33573     0.01254  5059.05854      3183.32  0.09813         4339.02742     16.20076    1e-05  58891.41178  0.79242  0.26602   409331.82106   46.0718  19.83218     58983.36    51.14358       44.28801   49.50795  53.12616   58.0    0.10203   -21.0885  0.99042 
   -21.2765  0.00901  2.89507     14.21861  1.93472  0.60896  5.96863  0.28213     0.01568  5508.61051   4476.06122  0.10834          2305.1911     18.59207  0.00217   58893.2435   1.0804  0.05376   550210.89953  45.89162  19.84673   58982.0313    51.15941       44.27559   50.58486   56.2054   57.0    0.09799   -21.1382  0.99797 
  -26.66209  0.07278  2.74025     14.14515  1.65535  0.42049  5.27526  0.30323     0.01009   5013.7793   9348.69932   0.1207         2729.97482      16.7764    3e-05  58887.85791  0.79105  0.38392   591537.41191  45.84017  19.85972     58983.36    51.11651       44.24815   50.29967  55.66147   49.0    0.09724   -21.0927  0.98358 
  -23.95412  0.01843  2.70863     13.97946  1.57481  0.63043  5.34014  0.29599     0.01315  5334.63636   9561.80044  0.05471         5760.40906     17.44329  0.00015  58890.56588  0.90655  0.09841  1179279.56014  45.52896  19.86303   58982.0313    51.16253       44.28004   47.08296  59.70731   46.0    0.10575  -21.15013  0.99552 
  -23.37972  0.15191  2.85079     14.33086  1.78558  0.35686  5.31565  0.30173     0.01211  5206.39779   9547.40038  0.00894         5130.31625     18.05986  0.00064  58891.14028  0.85953  0.80752   293636.16883  46.14289    19.872     58983.36     51.1232       44.25255   51.62925  54.78585   45.5    0.10104  -21.10904  0.96744 
  -19.30289  0.01013   2.1284     14.30658  1.47866  0.34725  6.56113  0.29124     0.01047  5117.45993   9103.91796  0.23856         2657.74332     16.15244    1e-05  58895.21711  1.02498  0.06648   151576.61029  46.60198  19.84468     58985.41    51.16173       44.28396   52.56382  56.82575   47.0    0.09932  -21.06433  0.99798 
  -23.14635  0.00267  2.46525       14.071  1.66933  0.67458  5.22942  0.33025     0.01335   5124.6533   5628.22981  0.01606         2886.93027     19.53433  0.01901  58891.37365  0.81924  0.01397   679341.64929  45.87558   19.8445     58983.36     51.1572        44.2828   46.83784  58.07892   57.0    0.10163  -21.09627  0.99952 
  -22.18204  0.00107  2.34013     14.22415  1.50117  0.36663  5.56258   0.2876     0.01366  5304.71976    5194.3154  0.00298         2073.35808     19.97837  0.05286  58892.33796  0.93375  0.00594   271913.47364  46.27237   19.8582     58985.41    51.14312        44.2683   47.88222  58.07892   57.0    0.10459  -21.14628  0.99978 
  -20.02931  0.00415  2.88057     14.12643  1.88326  0.71433  6.86993  0.26427      0.0104  5343.09776   9357.99065  0.11482         5900.46081     17.80115  0.00035  58894.49069  1.16994  0.02849   810638.06043  45.71597  19.85122   58982.0313     51.1398       44.26534   43.33593  59.70731   46.0    0.10717  -21.14528  0.99889 
  -25.52369   0.0016   2.7109     14.41151  1.94215  0.34436  5.71778   0.3326     0.01163  5154.93899   6722.74341  0.29327         3095.45164     20.07991  0.06678  58888.99631  0.90636  0.00916   199208.94401  46.39159  19.81284   58982.0313     51.1518       44.29241   48.71135  54.75189   57.5    0.09588  -21.15753   0.9997 
   -28.8017   0.1503  1.93074     14.31586  1.42069  0.30784  6.56833  0.28136     0.01226  4877.42855   9863.42018  0.02655         3515.91433     19.87568  0.04173   58885.7183   0.9321  0.98724   114825.45945  46.78986  19.84354   58982.0313    51.14392       44.27529   45.83056  56.80355   46.0    0.08813  -21.06455  0.97437 
  -23.07517  0.00944  2.31748     14.04705  1.77396  0.92125  6.54766  0.31501     0.01197  5299.57952   9613.65727  0.05142          3848.9076     17.18928    9e-05  58891.44483  1.09697  0.06181   712338.55295  45.93507  19.84166     58983.36    51.15472        44.2869   47.88222   56.2054   45.0    0.09659  -21.12939   0.9983 
  -20.49878  0.01409  2.40073     14.19782  1.43283  0.29607  5.54127  0.23855     0.01211     5311.75    9323.7282  0.03152         5573.00939     20.20696  0.08947  58894.02122  0.93264  0.07808   308356.32364   46.1753  19.83343     58983.36    51.16352       44.29802   48.71135  54.75189   48.0    0.10904  -21.21277  0.99678 
  -20.71402  0.00268  3.07219     14.46429  1.73079  0.22085  4.87773  0.28137     0.01671  5587.34083   9145.74534  0.20386         2802.54803     19.27516  0.01047  58893.80598  0.90835  0.01305   178806.55155  46.27981  19.84481  58979.49925    51.18467       44.30764    41.2173  61.82594   47.5    0.10779  -21.15898  0.99933 
  -22.38173  0.01228  2.40739     14.29366  1.72816  0.43719  5.96099  0.28912     0.01098   4909.6674   9042.65624  0.17303         2831.49524     18.69458  0.00275  58892.13827  0.85714   0.0732   240529.85533  46.36217  19.84569     58983.36    51.13803       44.27604   48.71135  54.75189   49.0    0.10003  -21.06377  0.99774 
  -23.47656  0.03383  3.23234     14.10132  1.97273  0.78271  6.81366  0.22346     0.01179  5290.89558   3521.04433  0.22388         2696.00789     16.33944    1e-05  58891.04344   1.1378  0.23049  1200275.86381   45.4656  19.85606  58984.56336    51.12521       44.26306   50.29967  53.78796   58.5    0.10367  -21.09699  0.98947 
  -24.56329  0.07244  3.32019     14.50158  2.13685  0.27955  5.53582  0.28091      0.0104  5059.15698    9601.4868  0.02371         2304.24145     18.00869  0.00057  58889.95671  0.84521    0.401   217151.95937  46.21953  19.84372     58983.36    51.15015       44.29344   50.33708  53.12616   47.5     0.1022  -21.09319  0.98288 
  -22.23033  0.00803   2.5994     14.23604  1.77437  0.44784  5.42451  0.33701     0.01021  5029.11386    9998.0418  0.05098         3969.82624     17.78076  0.00034  58892.28967  0.81841  0.04358   375431.27524  46.11361   19.8336     58983.36    51.14469       44.28519   50.33708  53.12616   44.0    0.10357  -21.09728  0.99848 
   -21.7866  0.02989  2.57182     14.20026  1.85281    0.656   6.7976   0.2517     0.01001   4874.5702   8506.13868  0.13327         4858.19706     17.12898    7e-05   58892.7334  0.96351  0.20315   452495.60544  46.06058  19.84176   58982.0313     51.2097       44.35886   37.47027   58.2963   51.0    0.09892  -21.06531  0.99359 
  -20.22347   0.0072  1.90338     14.57655  1.74955  0.26461  6.90548  0.27058     0.01425  5345.02365   3573.11362  0.03092         3742.36441     19.70659  0.02827  58894.29653  1.17685  0.04972    41370.15028  47.33604  19.85702     58983.36    51.14012        44.2685   47.88222   56.2054   54.5    0.09385  -21.16664  0.99906 
  -21.18483  0.08076  1.83487     14.21909  1.65734   0.6128  6.47742  0.27879      0.0127  4989.71613   4139.32135  0.05072         2935.00753     19.08874  0.00682  58893.33517  0.96201  0.52312   188911.71441  46.68478  19.85921  58984.56336    51.17612       44.31506   44.38032  56.78135   56.5    0.09745  -21.07146  0.99018 
  -21.84107  0.00791  2.28627      13.9778  1.55573  0.83538  5.70637  0.33225     0.01417  5312.56026   9466.02951  0.07353         5949.52103     19.46645  0.01626  58892.67893  0.96072  0.04513   836370.60329  45.82012  19.83339     58983.36    51.14418       44.28218   47.88222   56.2054   46.5    0.09725  -21.14703  0.99853 
  -20.41159  0.42731  2.25245     13.93091  1.37781  0.74601  5.55044   0.2675     0.01084  5111.13583   9497.90449  0.10313         5992.04711     19.86308  0.04053  58894.10841  0.86495  2.37176   892286.74068  45.75222  19.88395  58984.56336     51.1526       44.27691   44.35812  59.70731   47.5    0.10603  -21.16008    0.917 
  -22.98757   0.0904  2.66561     14.11204  1.75421  0.66979  6.06486  0.26651     0.01151  4966.11377   9366.53353  0.04608         5567.05736     18.92605  0.00469  58891.53243  0.89224  0.54825   690897.70515  45.82192  19.86479  58984.56336    51.15439       44.28104   50.14637   56.2054   48.5    0.09921  -21.08125     0.98 
  -24.53803  0.00398  2.52341     14.45404  1.74527  0.27675  6.59733  0.29338     0.01054  5072.50935   9486.31057  0.00937         2328.46214     19.24163  0.00969  58889.98197  1.01261  0.02626     127521.154  46.60115  19.82479   58982.0313    51.17466       44.30978     43.596  58.29819   46.0     0.0939  -21.07955  0.99912 
  -23.13238  0.03313  2.88934     14.12895  1.68226  0.48686  5.39427  0.24165     0.01265  5156.66989   4438.12509  0.09041         3413.52585     16.46271    2e-05  58891.38762  0.85565  0.17871   720133.86005  45.71573  19.85531     58983.36    51.16773       44.30103   45.80836  56.80355   58.5    0.10262  -21.11187  0.99165 
  -22.33956  0.00919  2.39541     14.16277  1.52262  0.40439  5.71698  0.31643     0.01014  5203.44283   9616.67891  0.03775         4387.42042     17.62296  0.00023  58892.18044  0.92337  0.05253   383380.04961  46.10905  19.83261  58979.49925    51.16782       44.29239   44.96432  58.49892   46.5     0.1002  -21.12264  0.99804 
  -20.33455  0.12909  2.84209     14.22972   1.7918  0.49213  5.24733  0.31173     0.01255  5310.22958    8062.8489  0.02281         4114.51415     17.46123  0.00016  58894.18545  0.88266  0.67738    466604.4373  45.94591  19.83111     58983.36    51.16194        44.2873   48.71135   56.2054   52.0    0.10532  -21.09827  0.97291 
     -21.07  0.00222  2.53846     13.84874  1.41048  0.65894  4.91456  0.30145     0.01154  5404.55745   6829.83865  0.03243         2057.07865     18.01733  0.00058     58893.45  0.85631  0.01093  1693700.14551  45.38024  19.87367  58984.56336    51.14585       44.25378   50.14637   59.2432   56.5    0.11065  -21.12195  0.99948 
  -22.57258  0.00237  2.55885     13.74128    1.359   0.8528   4.4012  0.30392     0.01209  4901.98107   9751.58118  0.33024         3556.49821     17.08281    7e-05  58891.94742  0.63087  0.01043    2719943.655  45.15141  19.83873   58982.0313    51.11772       44.24427   52.45838  54.78585   48.0    0.10137  -21.08486  0.99947 
