 texplosion  fnickel     Pspin  log(Bfield)      Mns  thetaPB   mejecta    kappa  kappagamma      vejecta  temperature    alpha  cutoff_wavelength  log(nhhost)      A_V         MJD0   kenergy  mnickel               TSD   log(L0)  Peak_mag     Peak_MJD  log(E_rad)  log(Peak_lum)  Rise_Time    E_fold  tau_1  delta_m15     r_peak     frac 
   -11.2056  0.05278   1.00795     14.58984  1.59623  0.87369  34.71369  0.04582     0.05452   8278.49997     4932.048  1.41788         3669.87261     20.46909  0.16361  59658.42019  14.19159  1.83229        9956.67599  48.46695   18.3335  59700.46817    50.88784       44.08436   19.09402  50.56834   46.5    0.13167  -21.06158  0.99584 
   -10.1451  0.02496   4.02145     14.43519  1.73533  1.46315  23.43348  0.03803     0.44547   4415.71043   6827.68228  4.29077         4439.39127     19.25586  0.01001  59659.48069   2.72562  0.58499      351224.70623  45.75388   18.2834  59700.46817    50.79203       43.93615   22.60416  56.34652   51.0    0.16129   -20.7979  0.95291 
  -17.11304  0.08712   5.64332     14.76767  1.95651  0.41504  13.14287  0.08129     0.15627   7175.06642   5206.12584   1.7754         4242.97809     18.76296  0.00322  59652.51274   4.03617  1.14498      168667.40245  45.83023  18.31054  59699.57529    50.74825       43.87685   23.22079  60.37405   50.5    0.17805  -20.77106  0.86117 
  -13.70268  0.04869   5.21669     14.36942  1.79421  1.48566  18.40878  0.05052     0.07449   5392.94302   5467.82686  3.21733          4398.0463      18.7781  0.00333  59655.92311   3.19377   0.8963      827269.56879  45.17028  18.30104  59698.45547    50.75637       43.94241   22.92675  52.93516   51.5    0.16122  -20.79169  0.89089 
   -14.6962  0.11843   1.78919      14.5255  1.68612  1.17656  17.64413   0.0805     0.05367    7795.3903   4850.58467  0.89633          4027.9535      19.5709  0.02068  59654.92959   6.39592  2.08958       44568.01533   47.3414  18.28531  59700.46817    50.97856       44.21253   20.89871   44.9937   54.0    0.15606  -20.62403  0.97244 
  -26.26886  0.09368   4.48504     14.26219  1.60373  0.76714  15.82713  0.06925     0.02705   7720.66257   4995.74436   1.0396         3334.52278     20.39026  0.13645  59643.35692    5.6278  1.48266      895552.86959  45.21835  18.31028  59699.57529    50.79373        43.9565    27.6728  51.70237   55.5    0.16424  -20.79708  0.84836 
  -16.92883  0.05203   3.34143     14.64083  2.00261   0.6683  17.64602  0.05161     0.23228    5742.5233   5253.85454  0.84496         5175.68305     19.89662  0.04379  59652.69696    3.4712  0.91815      108546.83466  46.48696  18.30986  59699.57529    50.68013       43.86038   34.24077   51.3577   49.5    0.17842  -20.72959  0.95872 
  -18.53216  0.04117   5.02861     14.30849    1.732  1.07634   18.0121  0.05588     0.05006   6190.50059   5877.62783  2.49125         3803.71055     19.55731  0.02005  59651.09363   4.11759  0.74156      982387.77074  45.11221   18.2829  59698.45547    50.66705       43.83129   26.47579  51.12538   53.0    0.16824  -20.68226  0.90935 
   -7.57606  0.02634   1.55039     14.51409  1.61344  1.20181  30.32305  0.05547     0.17019   7020.68405   5327.49777  2.16762         4538.96875     18.41606  0.00145  59662.04972   8.91577  0.79871       33749.84382  47.56744  18.27903  59698.46861     50.7706       43.93896   28.66889   50.3734   49.5    0.15367  -20.79401  0.99253 
  -30.25087  0.08612    3.2701     14.31839  1.66402  0.39727  14.04808  0.08257     0.01114    8134.2257    4536.3443  0.64911         2574.91017     21.00411  0.56084  59639.37492   5.54468  1.20981      381351.04332  45.87956  18.28004  59699.57529    50.76157       43.90831   22.92675  53.70185   48.5    0.16252  -21.26409  0.93129 
   -5.90529  0.07325    1.5579     14.69757  1.74908   0.9528  21.76164  0.08438     0.20734    7954.7248    5615.7358  3.00477         4187.49889     19.11698  0.00727  59663.72049   8.21427  1.59413       15869.77627  47.92601  18.32243  59699.57529    50.75293       43.90461   20.89871  56.70246   52.5    0.15079  -20.78696  0.98989 
  -14.39829  0.04258   4.93852     14.38813  1.75674  1.28706  17.17534    0.063     0.12753   5601.44371   5688.73164  3.74406         4316.35728     19.27065  0.01036  59655.22749   3.21464  0.73139      665982.74606   45.3029  18.33894  59698.46861    50.63577       43.76161   27.86495  57.59963   51.5    0.15629  -20.74458   0.9155 
  -15.34488  0.04377   4.97888     14.39734  1.89571  1.38319  15.44149  0.06666     0.12463   5883.14593   5852.50813  2.55994         4521.18919     18.78878  0.00342   59654.2809   3.18813  0.67595      700132.88815  45.30717  18.34121  59699.57529    50.69908        43.8469   20.60467    58.346   49.5    0.17367  -20.80429  0.92818 
   -9.58733  0.03616   4.27504     14.47993  1.84608  1.38886  22.69256  0.05337     0.03494    5911.9494   5298.60477  4.76118         4206.09361     17.90145  0.00044  59660.03845   4.73121  0.82059      343630.66387  45.73712   18.3096  59698.46861    50.72711       43.87447   30.28015  50.33485   50.5    0.15846  -20.81105  0.93332 
   -16.6663   0.0328   5.18841      14.3099  1.75227  1.44657  17.35185   0.0541     0.41463   5970.89486   5649.89771  2.86953         4206.60187     17.92521  0.00047  59652.95949   3.69022  0.56908     1051183.01716   45.0607  18.36503  59700.46817    50.79891       43.95497   36.46911  57.67251   49.0    0.17336  -20.74043  0.92602 
  -15.76518  0.15674  19.59277     13.35971  1.41476  1.12045  31.60158  0.02738     0.01412  10498.99975   4594.08499  2.52734         3780.75895      17.2445   0.0001  59653.86061  20.77934  4.95319   962194741.22369  40.85207  18.33382  59700.46817    50.85569       44.02618   23.31392  53.40781   67.0    0.17164  -20.66738   0.0076 
  -10.99667  0.08436   1.79282     14.58966  1.67572  1.03835  19.86252  0.07923     0.05526   7687.75814   5459.08984  1.55399         4363.22108      18.5642  0.00204  59658.62912   7.00263  1.67555       33095.91852   47.4662  18.35708  59699.57529    50.78474        43.9251   36.87921  56.00394   50.0    0.17695  -20.78115  0.97893 
  -10.03522  0.03892   1.32819      14.6159  1.74658  1.01547  30.33718  0.06255     0.15704   8188.48994   5282.90874  1.79224         4117.73499     19.79893  0.03497  59659.59057  12.13417  1.18081        16777.3777  48.03979  18.27749  59699.57529    50.64419       43.81977   26.47579  53.78871   47.5    0.14401  -20.79853  0.99463 
  -10.97655  0.06049   1.39626     14.63087  1.75467  1.02898  24.53119  0.07935      0.0691   8315.88093   5351.71798   1.2988         4735.27879     18.76628  0.00324  59658.64923  10.11957  1.48392       17385.96845  47.98291  18.35885  59698.45547    50.81277       43.96814   34.53715  51.37977   50.0    0.17447  -20.81027  0.99249 
   -9.72777  0.03148   1.52121     14.58841  1.72039  1.07097  31.69817  0.06027     0.26208   7297.52394   5629.77526  2.09602         4408.88114      17.9632  0.00051  59659.89802   10.0696  0.99799       24603.79597  47.74909  18.35159  59696.46699    50.79395       43.85309   30.61151  88.23899   49.5    0.13075  -20.83744  0.99255 
   -13.9607  0.05289   5.46283     14.35445  1.76233   1.4067  17.23913  0.05588      0.0436   5793.92143   5266.61346  3.95672         4116.51959     18.10588  0.00071  59655.66508   3.45214  0.91183      954653.56375  45.06025  18.32062  59698.45547     50.7161        43.8809   36.14923  54.38038   51.5    0.16633  -20.76397  0.87676 
  -24.30792  0.06392   5.76364     14.45088  1.75072   0.4953  14.30017  0.07278      0.0933       7309.1   4605.43015  2.44436         3620.04376     20.04452  0.06155  59645.31787   4.55718  0.91403      677125.69973     45.16  18.33055  59703.13857    51.09572       44.26862   20.15469  53.84293   56.5    0.16518  -20.73818  0.86123 
   -16.6349  0.03701   3.18181     14.31651  1.63176  1.53665  28.71378  0.03571      0.0419   5874.36756   3854.62517  1.14286          4988.0315     19.89308  0.04343  59652.99089   5.91071  1.06283      357111.80694  45.92335  18.30492  59703.13857    51.03189       44.20201   20.89871   54.7458   51.0    0.16417  -20.73554  0.94196 
   -14.4911  0.04006   1.20026     14.63461  1.81878   0.9744  31.84468  0.07152     0.16756   8786.76222    5183.6902  0.71454         5045.42827      18.9838  0.00535  59655.13469  14.66634  1.27562       13089.76767  48.25315  18.32208   59701.4095    50.87767        44.0378   21.54401  55.17772   52.0     0.1476   -20.5329  0.99608 
  -16.26923  0.17806  19.55375     13.36091  1.48898  0.99074  29.94321  0.02682     0.01192  11739.36821   4555.57708  2.03677         3805.41099     16.67902    3e-05  59653.35656  24.61586  5.33161  1003098015.50344  40.85793  18.33784   59701.4095    50.95402        44.1464   21.54401  52.85564   58.0    0.19507  -20.78091  0.00631 
  -12.53033  0.02205   3.82002     14.40112  1.71394  1.44193   33.4924  0.03352     0.05226   5424.71353    4986.7397   3.6307         4255.67255     19.80148  0.03517  59657.09546   5.87932  0.73835      366183.58297  45.77501  18.33863  59697.60317    50.72307       43.89309    32.5091  47.83745   51.5    0.15519  -20.80576  0.94572 
  -11.98295  0.04764   1.53591     14.62368  1.85964  1.07758  27.09921  0.06344     0.02234   7657.35416   5246.68433  1.14154         4696.49955     19.55396  0.01989  59657.64284   9.47853  1.29087       23047.13299  47.80293  18.35681   59701.4095     50.9427       44.12467   21.54401  54.84484   49.0    0.16466  -20.81237  0.99144 
   -8.81103  0.08204   1.49619     14.59688  1.54329   0.9389   19.1454  0.08951     0.24688    8643.4014   5185.18336  1.91613         4366.92673     18.85685    0.004  59660.81476    8.5322  1.57073       20534.63436  47.79483  18.35459  59703.13857    50.99817        44.2073    19.1288  51.24715   46.5    0.15378  -20.89309  0.98725 
  -25.51002  0.05481   4.53532     14.17561  1.33745   0.6571  16.02574  0.06233     0.05599   6953.31269   4734.34844  2.62084         3293.35766     19.69049  0.02724  59644.11577   4.62199  0.87838     1137880.85268  45.02581  18.31637  59699.57529     50.7043       43.84854   25.54287  57.00618   57.5    0.16423   -20.6796  0.87474 
  -11.10026  0.05792   1.84638     14.57363  1.55012  0.83196  23.19007  0.07186     0.28652   7564.77143   5716.45234  1.79919         4403.87718     19.14102  0.00769  59658.52552   7.91627  1.34305       34959.65936    47.383  18.35386  59699.57529    50.78468       43.90221   22.60416   58.6686   50.0    0.14212  -20.80026  0.97727 
   -3.79306  0.02537   0.87335     14.56363  1.52071  1.28364  41.13094  0.05641     0.09269    8276.5644   5803.17462  4.22401         4237.74569     17.42124  0.00015  59665.83273  16.80723  1.04365        8034.95032  48.66354  18.29934  59700.46817    50.94058       44.12558   27.85232  46.45421   54.0    0.13792  -20.88458  0.99896 
   -22.5047   0.0608   4.90408     14.23779  1.44763  0.68755  17.28652  0.05833     0.08851   7464.38906    5251.4428  3.53288         2983.99317     18.57629  0.00209  59647.12109   5.74544  1.05102     1081472.76299  45.01437  18.31408  59697.79778    50.83511       43.99919   23.30129   55.5212   57.0    0.16978  -20.70687  0.84919 
  -10.92657  0.03787   3.22646     14.44946  1.68909  1.54713  28.70354  0.04248     0.18669   5752.74366   5600.87423  3.11368         4368.51387     19.49086   0.0172  59658.69921   5.66647   1.0871       206065.9077  46.16504  18.27824   59701.4095    50.86437       44.04535   21.50923  51.39639   52.0    0.15002  -20.78465  0.94292 
   -8.10297   0.0294   1.14414      14.5161   1.4474  1.17244  47.44308  0.03153      0.0364   6510.31898   4771.58238  2.37676         4687.10109     19.59022  0.02162  59661.52282  11.99512  1.39472       16336.57414  48.09931  18.29474  59699.57529    50.71626       43.86885   20.89871  58.05197   53.0    0.16693  -20.74422  0.99497 
   -7.21413  0.02781   3.04622     14.47205  1.67662  1.53937  30.55855  0.04052     0.11849   5519.46779   6196.22933  4.14145         4402.08983     19.35267  0.01251  59662.41166   5.55334  0.84975      164316.23084  46.31008  18.32263  59698.46861    50.71585       43.86938   33.76896  51.08573   51.5    0.15018  -20.80404   0.9596 
   -12.3283  0.03982   2.15052      14.4472  1.62119  1.36585  28.64219  0.05084     0.05105   6680.98563   4523.13916  1.55293         4756.04793     19.30148  0.01112  59657.29749   7.62631   1.1405       88782.96112  46.86527  18.29858  59699.57529    50.73361       43.90881   25.24883  51.37977   50.0    0.14125  -20.81932  0.97314 
  -18.84647  0.11073   4.73381     14.36493  1.71187  1.16021  15.06848  0.06368     0.03159   6755.14848   4759.66087  1.08398         4656.50257     17.97112  0.00052  59650.77932   4.10172  1.66846      663518.11316  45.33004  18.29912  59699.57529    50.73507       43.91594   21.27817  54.59955   54.5     0.1788  -20.70049  0.83243 
  -17.00223  0.05769   1.04616     14.49465  1.62278  1.05991  24.36879  0.07677     0.07838    8104.4456   5317.12534  0.30363         5289.37045     19.64884  0.02475  59652.62356    9.5479  1.40578        16903.0472  48.21195  18.32601  59697.79778    50.64882       43.79826   23.22079  60.50509   54.0    0.15141  -20.43735  0.99582 
  -17.29404  0.07419   1.06587     14.46291  1.30775  0.70204  33.26998   0.0461       0.253   8208.78085    5670.0159  0.65402          4492.0076     20.64794  0.24698  59652.33175  13.37325  2.46825       16365.54156  48.11603  18.35173  59700.46817    50.82201       43.96208   21.54401   57.4998   59.5     0.1487  -20.70283  0.98589 
  -18.46891  0.08016   3.54252     14.26057  1.42937  1.22702  20.97882  0.05276     0.47649   6444.61932    5642.9831  1.33266         4721.77464     20.01058  0.05693  59651.15688    5.1976  1.68157      501699.15105  45.62492  18.34835   59701.4095     50.8803       44.03867   20.88608   56.6574   56.0    0.15825  -20.71189  0.87087 
  -11.80636  0.04299   4.55227      14.4096   1.7725  1.49702  19.25825    0.059     0.02098   6197.04415   5247.50579  3.77973         4166.67554     17.86894  0.00041  59657.81943   4.41177  0.82791       517192.5601  45.48732  18.33175  59697.79778    50.73638       43.88229    32.5091  52.65693   49.0    0.16891  -20.80813   0.9197 
  -12.25976  0.05436   3.55384     14.54647  1.86186  1.21086  21.33053  0.06478     0.25069   6278.19339   6266.89737   3.7514         4258.65282     18.68594   0.0027  59657.36603   5.01531   1.1596      176282.82823  46.19119  18.29285  59699.57529    50.75608       43.91829   22.60416  54.02445   53.5    0.14432  -20.80193  0.93653 
   -8.68299   0.0557   1.38952     14.65122  1.72954  0.93769   24.3404  0.07222     0.13564   8066.51201   5536.10537   1.7552         4270.06218     19.76218  0.03213   59660.9428   9.44771  1.35581       15453.71279  48.03201  18.26637  59700.46817    50.74874       43.95181   20.28208  53.09824   47.0    0.14608  -20.94719  0.99307 
   -8.95517  0.03306   0.90018     14.50129  1.63076  1.28624  36.09404  0.06032     0.35741    8290.3769   5310.86604  1.87037         4391.82051      20.6021  0.22224  59660.67062  14.79828  1.19339       12198.24525  48.48628  18.29543  59697.79778     50.7108       43.80962   33.86651  58.98878   50.5    0.17414  -20.95814  0.99828 
  -11.73037  0.03211   4.55264     14.35295  1.66284   1.4228  20.19589  0.05364     0.27682   5780.01857   6066.60262  3.94254         4219.23534     16.64556    2e-05  59657.89542   4.02484  0.64857      629929.52664  45.37388  18.35325  59699.57529    50.76169       43.88019   22.60416  60.99068   49.5    0.15835  -20.78276  0.92986 
   -8.24413  0.02623   2.49307     14.55057  1.80728  1.51902  31.73496  0.04495      0.1355   5671.71295   6034.68374  3.96335         4428.94953     18.14804  0.00078  59661.38166   6.08967  0.83244       82635.61209  46.81523  18.33031  59698.46861    50.66636       43.80149   32.01182  54.76554   52.5    0.15899  -20.79962  0.97776 
  -18.90786  0.03718     3.672     14.26592  1.64487  1.49629  24.34678  0.04195     0.04431   6024.18351   4019.13327  0.99329         5204.47162     19.96252  0.05096  59650.71793   5.27066  0.90523      605226.64675  45.57325  18.27573  59698.46861    50.64112       43.80056    27.2933  52.93367   51.0    0.16208  -20.74078  0.93495 
   -9.93892  0.04883   0.76713     14.67124  1.70599  0.93636  31.79131  0.06686     0.03714   8791.81585   5211.71267  1.46846         4167.48897      19.9996   0.0555  59659.68686  14.65861  1.55226        4236.90228  49.10404  18.32621  59700.46817    50.77672       43.92958   23.31392  55.72989   50.5     0.1684  -20.78549   0.9992 
   -22.2245  0.06579     5.168     14.26521  1.73505  0.85912  16.73716  0.06524     0.01056   7413.72399   5255.55376   1.2147         4254.88935      20.2487   0.0985  59647.40129   5.48759  1.10119       1268710.103  44.97815  18.29231  59699.57529    50.82815       43.99398   27.86495  51.08573   48.5    0.16843   -20.8477  0.86418 
  -16.86802  0.06267   3.91015     14.65927  1.72044  0.52887  17.64637  0.06668     0.24361   6805.77486   5381.72603  1.21946         4622.74174     18.78739  0.00341  59652.75777   4.87571  1.10593      117303.73695  46.25079  18.40076  59698.46861    50.73809       43.88108    32.5091  54.38038   50.0    0.16967  -20.68317  0.91757 
   -8.57007  0.04573   1.99646     14.69931   2.0506  1.37238  30.11149  0.04139     0.22711   6380.59413   5355.49944  2.14912         4587.25593     16.70583    3e-05  59661.05572   7.31276  1.37692       30310.30282  47.49861   18.3405  59697.60317    50.77936       43.94091   32.34252  48.93024   50.5    0.16669  -20.75488  0.98589 
  -11.22712  0.03868   1.57905     14.65868  1.86863   0.9306  30.00009  0.06204     0.02711   7645.05766   5048.78221  1.84944         3922.40384     20.02983  0.05951  59658.39867  10.45951   1.1605       20833.50951  47.82481  18.29335  59699.57529    50.77584       43.91811   22.60416  55.57984   49.5    0.15872  -20.83965  0.99149 
  -14.62644  0.04038   4.62562     14.39884  1.76989  1.27175  21.96657  0.05779      0.0129   6221.98085    4833.7491  4.07883          3997.6626     17.22008    9e-05  59654.99935   5.07279  0.88693      560298.12177  45.43803  18.34881  59699.57529    50.74067       43.92143   31.44688  51.08573   52.0    0.15242  -20.73083   0.9116 
  -13.74089  0.03423   4.69832     14.38397  1.74329  1.36206  25.91566   0.0439     0.06279   5906.79533   5493.93767  3.42199          4306.6451     17.95696   0.0005   59655.8849   5.39378  0.88702      609724.24664   45.3812   18.3448  59700.46817    50.84368       44.00502    30.1744  51.09836   51.5    0.16142  -20.78012  0.90713 
  -10.95934  0.03035   4.97642     14.47587  1.93533  1.40357  21.42396  0.04499     0.11562   5158.99251   6673.62765  4.24224         4242.57077     16.72975    3e-05  59658.66645   3.40139  0.65026      497346.85938  45.46511  18.25704  59700.46817    50.80634       44.01366    28.2444  46.06212   50.5    0.16888  -20.76755  0.93297 
   -9.67931    0.024   2.30508      14.5814  1.81476  1.19925  31.60106  0.03888     0.47592   5602.62364   6628.00616  2.84984         4530.10424     19.61874  0.02309  59659.94648   5.91714   0.7584       61546.48235  47.01309  18.31694  59698.46861    50.72154       43.86093   34.83118  53.40781   49.5    0.15904  -20.82509  0.98327 
  -19.02538  0.04997   4.56077     14.32783  1.59901  0.83846  17.71305    0.057     0.06068    6179.1894   4197.43828  2.41646         3749.75032     19.96033  0.05071  59650.60041   4.03444  0.88517      682482.64899  45.32053  18.30411   59701.4095    50.77341       43.92629   22.60416  59.94489   54.0    0.16335  -20.70082   0.9007 
  -16.25572  0.05739   5.70839     14.41318  1.90883  1.26159  17.99277  0.05362     0.02866   6027.97207    5651.3044  3.21942         4029.87777     17.63696  0.00024  59653.37007   3.90003  1.03269      861483.29232  45.10134    18.309  59700.46817    50.73027       43.91222   21.27817  53.94324   52.0    0.16656  -20.70676   0.8664 
  -14.10432  0.04917   0.81901     14.61011  1.66371  0.85158  40.22065  0.06129     0.03678     9591.722   4902.91739  1.28538         3405.22801     20.40038  0.13967  59655.52147  22.07341  1.97766        6240.91338   48.8681  18.27772  59698.45547    50.69276       43.85733   20.89871  52.64113   54.0     0.1404  -20.65163  0.99804 
   -8.54873   0.0414   1.21959      14.5877  1.68429  1.20967  27.64635  0.06597     0.08788   7178.33399    5965.7989  2.08643         4447.21886     18.60251  0.00222  59661.07705   8.49791  1.14446       15533.26064  48.13158  18.28624  59698.45547    50.70932       43.86019   30.28015  50.33485   52.0    0.13684   -20.6904  0.99627 
  -12.23573   0.0337   4.12314     14.42676  1.75276  1.21102  17.32869  0.06031     0.34002   5399.54372   6195.86075   3.3752         4344.47998     19.35761  0.01266  59657.39006   3.01375  0.58401      387677.02434  45.69364  18.30469  59699.57529    50.73701       43.89609   21.27817  55.35043   49.5    0.15603  -20.81427  0.95123 
   -5.47242  0.02896   1.57322     14.59506  1.74765  1.53145  36.17874  0.04861     0.35878   6989.66746   5927.44694  3.42333         4248.28605     17.24917   0.0001  59664.15337  10.54371  1.04764       25926.11322  47.70398  18.31391  59697.79778    50.68328       43.82712   32.93359   54.6841   54.0    0.15735  -20.71568  0.99279 
   -7.27928  0.05117   1.60711     14.63823  1.86282   1.4554   27.3834  0.06036     0.25407   7360.36356   5726.64938   2.6467         4329.20448     17.45294  0.00016   59662.3465   8.84939  1.40123       23639.01998  47.75329  18.30454  59698.45547    50.69245       43.83207   31.21308  53.78871   50.0    0.14223  -20.86214  0.99117 
  -12.14085   0.0358   0.96401     14.89684  2.13834  0.54649  37.47765  0.04795      0.1072   7580.08811   5025.51026   1.4942          4163.9869     20.77901  0.33399  59657.48493  12.84541  1.34172        2967.44705  49.15837  18.26856  59700.46817    50.98263       44.16841   23.64527  51.08573   46.5    0.12142  -21.47797  0.99859 
  -15.70132    0.043   4.89792     14.32394  1.76983  1.45753  15.25441  0.05924     0.06311   5231.64038   5503.57817  2.76066         4299.78005     19.10054    0.007  59653.92446   2.49057  0.65589      886942.46625  45.18886  18.33744  59699.57529    50.80316       43.94604   20.89871  58.05197   51.5    0.16599  -20.74196  0.92532 
   -11.4183  0.03074   4.11052     14.42368  1.76388  1.35026  24.37285  0.05124     0.09814   6217.84038   5672.12367  3.22417         4294.25697     17.98001  0.00053  59658.20749   5.62099  0.74918      393301.71807   45.6928  18.26047  59698.46861    50.77999        43.9523   20.88608  53.42044   49.5    0.16616    -20.801  0.93923 
   -7.29612  0.03958    1.2751     14.64957  1.73368  1.09338  26.41183  0.06706     0.23202   7381.13414   5901.25588  2.64318         4261.94358     17.90516  0.00045  59662.32966   8.58365  1.04543       13144.01621    48.178  18.30813  59699.57529    50.70811       43.84797   25.54287   54.6841   49.0    0.15186  -20.81402  0.99657 
   -8.63691  0.05733   1.13752     14.65034  1.69998  1.05644  26.85366  0.07123     0.09169   7874.86101   5238.87745  2.15909         4297.11485      19.3632  0.01282  59660.98888   9.93382  1.53942       10221.09764  48.37788  18.33921  59698.46861      50.692       43.83497   33.44203  52.47489   50.0    0.17012  -21.17775  0.99657 
  -13.04769  0.02816   4.28076     14.34089  1.62009  1.53071  25.28872  0.03923     0.17647     4822.595    6249.7449  4.48129         4311.93327      19.4267  0.01484   59656.5781   3.50845  0.71205       573601.5205  45.45673  18.25327  59697.79778    50.66271       43.80818   32.60223  50.76729   52.5    0.14414   -20.7892  0.92933 
  -15.96496  0.06338   0.96124     14.53147   1.5125  0.88886  34.77934  0.06928     0.05945   9356.52694   4840.82577  0.71877         3958.11642     20.19278   0.0866  59653.66083  18.16259  2.20415        11226.4325  48.43264  18.31376  59698.46861      50.658       43.80239   32.60223  52.39956   60.5    0.13571  -20.52319  0.99479 
  -12.05054  0.02593   1.32625     14.61266  1.84645  1.13236   35.4271  0.05741     0.23468   7478.58903    5808.3396  1.56968         4727.99488     19.40677  0.01417  59657.57525  11.81958  0.91852       17951.10379  48.03584  18.28386  59699.57529    50.72184       43.88894   21.27817   55.5461   50.5    0.15124  -20.77496  0.99625 
  -13.12426  0.04307   1.51385     14.58587  1.83325   1.3669  33.59805  0.04986     0.02436   6926.12916   5900.87964  1.59397         4698.11016     19.64013  0.02426  59656.50153    9.6144   1.4471       26270.54828  47.75243  18.27094  59697.60317    50.80671       43.90695   32.21507  74.60056   54.0    0.14835  -20.72605  0.99099 
  -12.08995   0.0495   3.50598      14.4021  1.64318  1.34538  18.54178   0.0719      0.0525   6664.81415   5181.00601  2.37284          4517.1345     18.38254  0.00134  59657.53584   4.91309  0.91774       294382.3919    45.926  18.43269  59700.46817    50.75168       43.79659   32.60223  85.91692   48.5    0.15861  -20.81577  0.94007 
   -8.39596  0.04436   3.39721     14.46063  1.59798  1.24537  20.02318  0.06251      0.1722   6112.38268   5882.48347  4.34514         4203.51971     18.42334  0.00147  59661.22983   4.46253   0.8883      205292.72388   46.0978  18.29106  59699.57529    50.72953       43.87286   34.70188  51.12538   50.0    0.15234  -20.74664  0.94358 
   -7.77423  0.03197   0.88306     14.49487  1.46979  1.30701  29.81828  0.05986     0.02326   7233.94192   4288.27339  1.94588         4671.39527     19.42555   0.0148  59661.85155   9.30807  0.95334       10896.93474  48.50682  18.27774  59699.57529    50.71429       43.89976   20.28208  55.57984   48.5    0.17819  -20.92215  0.99868 
  -16.73341  0.04226   4.70767     14.23126  1.56837   1.3973  20.63581   0.0479     0.04983   5905.11264   5497.63649  2.40647         4438.84182     19.80697  0.03562  59652.89238   4.29245    0.872     1112661.38631  45.07232  18.32941  59697.79778    50.63657       43.78658   27.27454  52.98997   52.0     0.1641  -20.77715  0.89362 
  -14.96143  0.04162   3.71068     14.31847  1.70399  1.48185  18.40909  0.05196     0.10781   6172.14399   4736.58262  1.19552         4786.80066     19.89888  0.04402  59654.66436   4.18342  0.76615      502638.81658  45.66015  18.30795  59698.46861     50.6723        43.8161   32.60223  52.39956   47.5    0.17812  -20.81895  0.94614 
  -15.73219  0.16168  17.04095     14.25324  1.56661   0.8664  31.86022  0.01972     0.01679  10192.96528   4603.32246  2.14363         3803.96542     17.51847  0.00018   59653.8936  19.74591  5.15125    13160883.03272  42.88153  18.36553  59698.46861    50.80094       43.89673   40.73381  56.49721   76.0    0.18899  -20.79609  0.08515 
  -21.51188  0.07674   5.89124     14.29308  1.83689  1.29094  16.27112  0.06073     0.01176    6520.0702   4634.25831  1.71281         4381.31294     17.21091    9e-05  59648.11391   4.12619  1.24859     1535162.88042  44.80636   18.2671  59699.57529    50.82247       44.01096   28.50817  47.88626   52.0    0.16051  -20.69362  0.82527 
  -17.68944  0.07121   0.76554     14.54617  1.97234  1.32653  46.44008  0.04103     0.05212   9266.38989    4461.2735   0.6368         3472.92547     20.89402  0.43526  59651.93635  23.78709  3.30704        8677.27448  48.85751  18.29454   59701.4095    50.80716       43.95954   21.50923  57.53458   60.0    0.13424  -20.77144  0.99797 
  -19.81569   0.0732   0.89592     14.31837  1.32331  0.94785   30.6929  0.07271     0.14141   9861.41067    5036.0476  0.09022         3675.78988     20.73077  0.29888   59649.8101  17.80505  2.24659       22765.67338  48.12869  18.38461  59696.43024    50.71043       43.82128   31.44688  74.30652   57.5    0.14588   -20.6685  0.99166 
  -12.86266   0.0621   1.26158      14.5214  1.55127  0.94096  29.93518  0.05808     0.15109   8186.46841    5556.3965  1.15922         4279.34324     20.43936  0.15279  59656.76313  11.96747  1.85903       20774.17381  47.94018  18.29308  59697.60317    50.68633       43.84149   30.28015  53.08937   50.5    0.16174  -20.93811  0.98925 
  -12.51573  0.05244    1.1657     14.40822  1.62621  1.30026  30.42161  0.05816     0.08797   8210.28146   5519.38262   1.4951         3710.66213     20.77402  0.33018  59657.11005  12.23279  1.59527       31312.48171  47.85113  18.29857   59701.4095    50.77811       43.96435   23.22079  53.40781   49.5    0.15785  -21.07518  0.99227 
  -14.58907  0.03656   4.78116     14.35501  1.75178  1.25714  19.62405  0.04853     0.16744    5989.6151    5476.2661  3.63167         3732.83547     19.84467  0.03885  59655.03672   4.19965  0.71754      725018.58906  45.29291  18.24847  59698.45547    50.75536       43.91443   20.89871  53.40781   49.5    0.16771  -20.75142  0.92139 
  -13.37639  0.03803   1.42816     14.79265  2.03774  0.56993  35.77021  0.05165     0.10422   7884.38836   5059.04544  1.51854         3998.33546     20.81753  0.36497   59656.2494  13.26431  1.36018       10027.91978  48.26723    18.364  59697.60317    50.80595       43.91963    39.1813  55.70549   50.5    0.14216  -20.99921  0.99241 
  -11.72339  0.03796   1.03163     14.72172  1.92173  0.61985  36.08902  0.05327     0.20428    8688.9605   4826.33915  2.98535         2676.68017     20.82646  0.37255   59657.9024  16.25316  1.36979        6841.05369  48.69037  18.28885  59699.57529    50.76132       43.91102   23.60025  55.35043   48.0    0.15969  -21.20997  0.99694 
   -9.78223  0.03983   2.32692     14.52801  1.74889   1.3596  26.27856  0.05496     0.31371   6142.11214   5733.67327  2.46381         4529.63003     18.52115  0.00184  59659.84355   5.91377  1.04656       77290.75287  46.88992  18.29529  59697.60317    50.66004       43.79328   20.89871  61.62101   52.5    0.14523  -20.77477   0.9747 
  -10.40104   0.0834   1.31156     14.62328    1.645  1.12634  25.56854  0.06716     0.12987   8317.44645   5069.71797  1.75688         4110.65353     19.06946  0.00652  59659.22475  10.55147  2.13237       14893.25045  48.07645  18.34439  59698.46861    50.80787       43.92397   36.64667  55.41145   53.5    0.17596  -20.76641   0.9916 
  -19.06036  0.08415    2.6991     14.15926  1.41981  1.54046  17.03659  0.05871     0.21374    6094.8177   6015.42872  0.85659          5064.8542     20.56415  0.20365  59650.56543   3.77512  1.43358      461285.59269  45.89467  18.30292  59698.45547    50.69955       43.83913   27.86495   54.6841   54.5     0.1534  -20.83508  0.93117 
  -12.71099  0.03084   1.19931     14.64619  1.78509  0.84748  40.76842  0.04963      0.1075   8129.58585   5196.58943  2.08315         3967.20121     20.48124  0.16826   59656.9148  16.07266  1.25718       12160.82028  48.27768  18.26981  59698.45547    50.72567       43.87196   21.27817  57.35407   49.0     0.1341  -21.05397  0.99567 
  -12.70659  0.07199   1.38668     14.56202  1.68606  1.02649  23.95936  0.07067     0.25664   8695.00357   5364.56808   0.7035         4360.08424     19.87549  0.04171   59656.9192  10.80543  1.72486       22626.26264  47.85715  18.27427  59698.46861    50.65007       43.79694   27.86495  54.17513   46.5    0.17622  -20.93546  0.98928 
   -6.04608  0.06105   1.30793      14.5006  1.45822  1.19566  22.57317  0.08023     0.04514    7855.5281   5721.26177    2.791         4310.41008     19.93694  0.04805  59663.57971   8.30941  1.37815       23100.07267  47.83589  18.32327  59700.46817    50.72499        43.8717   23.60025   58.9488   52.0    0.15603  -20.80401  0.99178 
  -20.52538  0.08733   5.18943     14.38472  1.63649  0.67955  18.17606  0.05441     0.03188   7721.96914   5342.45039  3.22459         2870.67867     19.97659  0.05264  59649.10041   6.46522  1.58729      695866.04227  45.20999  18.28643  59700.46817    50.75644       43.92308     25.636  53.40781   58.0    0.17337  -20.74492  0.80105 
   -7.97247  0.03661    3.3977     14.60682   2.1158  1.49279  17.15497  0.08786     0.03646   6522.14037   5656.70353  3.12169         4473.52122     17.53752  0.00019  59661.65332   4.35309  0.62803      138685.00022  46.38992  18.28984  59700.46817    50.76782       43.91732   22.60416  56.54219   49.5    0.14629  -20.80316  0.97351 
   -24.0076  0.05929   6.93694     14.42092  2.12677   0.6231   13.6096  0.06178     0.03342   8252.57144   4504.88559  1.15124         3439.88801     18.84958  0.00393  59645.61819   5.52906   0.8069      1367796.6482  44.77821  18.31513  59700.46817    50.76826       43.92416   22.60416  54.93933   56.0    0.19063  -20.74352  0.86533 
   -8.46144  0.03988   3.61156     14.51065   1.7905  1.37818  23.59891  0.05033     0.20939   6260.39084   5910.23145  3.56471          4246.0676      18.0996   0.0007  59661.16435   5.51724  0.94121      206480.50186  46.09155  18.25352  59697.60317    50.63642       43.80014   29.59662   51.3577   49.0    0.16345  -20.78924  0.94308 
  -10.69064   0.0646   1.51372      14.6726  1.74709  0.85429  25.03067  0.07345     0.18475   8239.02733   5170.77278  1.44351         4385.39754     18.87503  0.00417  59658.93515  10.13565  1.61698       16788.78324  47.92605  18.28585  59698.46861    50.76015       43.90607   33.76896  49.67854   49.0    0.16679  -20.91087  0.98885 
   -9.45008  0.04489   1.16248     14.69584  1.80793  0.97958  33.03807  0.06378     0.08979   8247.12569   5083.22414  1.94459         4474.46946      19.4476  0.01557   59660.1757  13.40439  1.48293        9206.40137  48.43116  18.27502  59699.57529    50.68925       43.83013   32.60223  52.36202   52.0    0.15145  -20.78277  0.99679 
   -6.56382  0.04493   1.30455     14.48162  1.50028  1.15553  23.73423  0.07592     0.08776   8092.45629   6112.96231  2.81447         4152.31279     20.47618  0.16631  59663.06197   9.27178  1.06631       25803.70194  47.80241  18.32659  59700.46817    50.85117       44.02604   23.22079  51.91379   48.5    0.13234  -20.91445  0.99325 
  -20.32285  0.06907   1.59548     14.42505  1.58331  1.03543   28.4445  0.03709     0.04214   6814.04532    5131.6164  0.17392         5882.40933     17.44386  0.00015  59649.30294   7.87835  1.96454       52851.13523  47.33958  18.34059  59698.46861    50.87907       44.03963   34.83118  53.07494   58.0     0.1678  -20.49677  0.97513 
  -15.92064  0.06888   3.24959     14.63363  2.01534  0.86311  17.73427  0.07023     0.11203   6207.15874    5824.3419  1.44379         4475.57998     19.28045   0.0106  59653.70515   4.07593  1.22154      106799.48252  46.52097  18.25886  59700.46817    50.87565       44.09562   25.03282   45.8894   53.5    0.15168  -20.63604  0.94976 
  -14.89191  0.04791   5.51804     14.41297  1.99221  1.27507  14.53034  0.07284     0.01734   6148.32877   5811.61578  3.30158         3973.81318     19.25704  0.01004  59654.73388   3.27655  0.69615      840968.77914  45.15983  18.35757  59699.57529    50.74868       43.89944   34.83118  50.33485   50.5     0.1626  -20.76353  0.91651 
  -16.00257  0.04307   3.67604     14.43708  1.73427  1.08615  24.47191  0.04724      0.3339   6493.17482   5592.62882  1.50675         4554.16232     18.14771  0.00078  59653.62321   6.15473  1.05403      290756.79487  45.91367   18.2567  59700.46817    50.71639       43.89335   22.94674  53.87753   49.5    0.16905  -20.71015  0.93064 
  -12.85136  0.05316   1.70179     14.40283  1.55819  1.29025  27.35395  0.05679     0.13821   7333.90062   5776.86756  1.47023         4303.40518     20.50355  0.17712  59656.77443   8.77642  1.45409       65552.16653  47.18306  18.30275   59701.4095    51.11233       44.32441   38.95997   46.1453   50.5    0.16018  -20.93978  0.97856 
   -8.38801  0.14144   2.04695     14.61312  1.65294  1.12604  15.26734  0.08869     0.07176    8025.1168   5257.26697  1.83405         4408.40243     17.64578  0.00025  59661.23777   5.86534  2.15944       38198.48898  47.28284   18.3224  59700.46817    50.71975       43.83848   23.22079  58.18301   52.0    0.17092  -20.82641  0.96374 
   -8.70057  0.04323   1.05299     14.54624  1.57985  1.25191  32.38599  0.05779     0.06121   7833.70576    4634.5746  2.06982         4453.16899     20.12888  0.07475  59660.92521  11.85547   1.3999       13146.40467  48.30381  18.31974  59697.79778     50.6614       43.79669   32.03059  52.97121   48.0    0.16116   -21.0387   0.9969 
   -8.67329   0.0487   3.58447     14.50372  1.75263  1.47878  20.25096  0.06385     0.15321   5779.20237   5965.23363  4.56399         4292.86885     17.89325  0.00043   59660.9525   4.03468  0.98614      205548.71882  46.09077  18.23174  59697.79778    50.70862       43.86937   32.93359  49.67854   53.0    0.14506  -20.73734  0.93967 
   -6.43554   0.0325   0.93007      14.6099  1.69202  1.34113  33.87186  0.05549     0.11144   7151.33848   5752.18354  2.64131         4342.29616      19.0995  0.00699  59663.19025  10.33334  1.10073        8193.09002  48.64677  18.26054  59698.46861    50.64676       43.79984   31.31994  52.95114   51.5    0.13656  -20.69407   0.9989 
  -14.34156  0.04719   4.31784     14.35204  1.64831  1.45335  24.00075  0.04278     0.15436   6015.25139   5695.66801  2.38878         4372.78479     19.53573  0.01907  59655.28422   5.18035  1.13249      564038.69856  45.46404  18.28296  59696.46699    50.70308       43.86277   33.76896  47.83745   51.5    0.16821  -20.76202  0.89293 
  -24.04241  0.23386   6.19121     14.31942  1.37551  0.47518  14.27618  0.05305     0.01436   8723.05265   5151.49742  4.06624         2048.72988     17.77479  0.00033  59645.58338   6.48002   3.3386     1124588.78012  44.77277  18.50669  59700.46817    50.70541       43.75798   35.25566  85.91692   57.0    0.16121  -20.75675  0.50283 
  -17.14803  0.04308   5.19388     14.37096  1.78321  1.07851  19.07354  0.05438     0.04455   6291.06902   5621.71389  2.22448         4257.17243     16.92114    5e-05  59652.47776   4.50306  0.82164      809261.29187  45.18098  18.30193  59699.57529    50.77543       43.94541   22.60416  54.02445   51.0     0.1741  -20.70969  0.89882 
    -9.4562  0.04791   2.19298     14.54368  1.78067  1.29293  21.43199  0.06552     0.26464   6653.79302   5429.14492  2.04718         4375.98498     18.48787  0.00171  59660.16959   5.66015  1.02672       65029.83558  47.02425  18.33686  59697.60317    50.72356       43.85518   23.60025  58.98634   48.0    0.15657  -20.78284  0.97909 
   -8.11426  0.03686   1.42462      14.6386  1.83944  1.08453  26.53829  0.07083     0.04773   7896.80801   4883.64219    1.973         4397.83875     19.94149  0.04855  59661.51153   9.87196  0.97808        18310.8488  47.96342  18.30366  59698.46861    50.78411       43.95433   30.18702  50.75286   49.0     0.1762  -20.78461  0.99514 
   -6.88632  0.01175   1.37439     14.64344  1.95115  1.41817  44.93701  0.04387     0.10474   6313.05109   5594.79261  3.53724         4384.04963     16.74826    3e-05  59662.73947  10.68341  0.52784       17678.85258  48.03546  18.30445  59700.46817    50.98619       44.16356   21.88598  51.93911   53.5    0.13535  -20.75208  0.99811 
   -7.65826  0.06381   1.54509     14.61316  1.61778   0.9331  20.62188  0.08392     0.03979   8293.50178   5188.41565  1.96147         4248.34289     19.71939  0.02912  59661.96753   8.46119  1.31579       21297.19417  47.77153   18.3147  59703.13857    50.89444       44.04152   20.99184  59.60737   46.0    0.14186  -20.91572  0.98891 
   -4.97189  0.05055   1.77084     14.61101  1.67257  1.30951  27.28605  0.04189      0.3496   6158.85235   5411.17008  2.90786         4457.32771      17.0034    6e-05   59664.6539   6.17401  1.37926           29210.4  47.53034   18.3414  59700.46817    50.71945       43.86825   21.27817  57.67251   49.5    0.12981  -20.76516  0.98583 
  -12.97394  0.07143   4.82213     14.51482  1.91379  1.13118  16.08202  0.06267     0.19394   5997.31805   5710.39495  2.49869          4458.0386     17.15991    8e-05  59656.65185    3.4505   1.1488        385957.301  45.59772   18.2613  59697.79778    50.67796       43.84564   30.28015  51.08573   50.5    0.16696  -20.78926    0.892 
    -8.8474  0.07076   1.54421     14.58804  1.62335  1.05722  20.46902  0.07683      0.0585   7336.48274   5633.57271  2.04935         4365.55409     18.51735  0.00183  59660.77839   6.57204  1.44831       23963.62804  47.72229  18.34672  59699.57529    50.66922       43.80812   23.22079  58.05197   49.5    0.14298  -20.80904  0.98818 
  -15.58232  0.06174   5.03363     14.40518   1.7998  1.42322  18.73192  0.05768     0.02579   6018.55596   5035.22171  2.74887         4420.16178     17.89503  0.00044  59654.04346   4.04757  1.15646      655307.61946  45.30386  18.28118  59698.46861    50.72465       43.86621   22.92675  56.02393   53.0    0.16476   -20.7207  0.87249 
  -12.89598  0.03733   3.91971     14.39837  1.70451  1.30475  21.20715  0.05721     0.17916   5681.20976   6381.74031  3.31773         4412.57925     19.99274  0.05463  59656.72981   4.08311  0.79158      388312.60086  45.72475  18.34675   59701.4095    50.93058         44.124   20.84201  53.55764   51.5    0.15109  -20.82466  0.93858 
  -15.81751  0.05851   1.43177     14.27887  1.44424  1.30544   30.0566  0.05394     0.14214   7961.19108   5509.48185  1.15048         4262.01928     20.78133  0.33578  59653.80828  11.36379  1.75853       76113.37796  47.23528  18.28896  59698.46861    50.71239       43.87064   32.93359  51.08573   52.0    0.15577  -20.92398  0.97887 
    -10.507  0.04437   0.89701      14.5908  1.53716  0.96473  38.79679  0.05655     0.11594   9448.08001   5095.65908   4.5221         2871.26847     17.66116  0.00025  59659.11879  20.65904   1.7216        7559.88512  48.67146  18.28267  59699.57529    50.67941       43.83341   29.59662  51.67614   51.0    0.12914  -20.72066  0.99775 
  -10.89906  0.07124   1.17525     14.52468  1.52919  1.15912  21.34307  0.07847     0.06566   7951.81938   4996.47731  1.49003         4467.41722     18.61309  0.00228  59658.72672   8.05039  1.52058       17505.64573  48.06987  18.33751  59698.45547    50.69331       43.85259   21.27817    56.323   49.0    0.18296   -20.8426   0.9942 
   -7.90302  0.08483   2.65785     14.48642  1.57415  1.37692  18.44112  0.07742     0.08712    7488.0649   5495.70563  2.81861         4225.91114     18.44946  0.00156  59661.72277   6.16813   1.5643      109922.72458  46.57574  18.34394  59699.57529    50.73994       43.87092   21.27817  59.99459   51.0    0.16327  -20.79129  0.94132 
  -14.77184   0.0356   4.47099     14.37842  1.68104  1.11231  20.98651  0.05519     0.08503   5959.51407   5867.42184  3.50975         4017.05245     18.98146  0.00532  59654.85394    4.4462  0.74704      546220.21908  45.45625  18.28113  59697.79778    50.66053       43.79581   32.60223  53.40781   51.0    0.15742  -20.71525  0.92379 
  -14.02582  0.04068   5.77178     14.35932  1.80602  1.46855    18.743   0.0413     0.07065   4915.52955   6497.55048  3.81437         4430.17745     16.74261    3e-05  59655.59996   2.70151  0.76253     1067869.61309  44.97443  18.32277  59703.13857    50.88743        44.0088   23.64527  61.34662   51.0    0.17384  -20.79699  0.88761 
  -12.31839  0.02763   4.61509     14.40061  1.77863  1.44896  22.98893  0.04081     0.33265   4693.35003    6561.5287  3.96545         4311.12057     19.17229  0.00826   59657.3074   3.02073  0.63516      555951.05708  45.44553  18.29469  59699.57529    50.75049       43.90659   23.31392  58.24764   52.0    0.14328  -20.75026  0.93584 
   -7.67702  0.04649   1.31963     14.52614    1.561  1.22345  23.71757  0.07074     0.08484   7239.23745    5033.7676  2.22831          4435.2591     19.04508  0.00616  59661.94877   7.41452  1.10263       22379.13599   47.8715  18.30964  59698.46861    50.76736       43.91673   23.30129   58.0646   48.0    0.14322  -20.93809  0.99402 
    -18.878  0.28755  17.93743     13.53505  1.41824  0.86687  22.97936  0.03295     0.01323  10545.09132   4906.76399  3.00743         3189.91777     16.18062    1e-05  59650.74779  15.24284  6.60777    360573440.2766  41.35608  18.27277  59698.46861    50.69502       43.85886   30.28015   52.0583   66.0    0.16054  -20.87125  0.01185 
  -10.10993  0.06517   0.90149     14.76173  1.74306   0.8941  38.83392  0.05579     0.01298  10520.23621   4494.65303  1.62182         3726.85079     17.89317  0.00043  59659.51586  25.63831  2.53084        3940.74595  49.00466  18.32941  59697.60317    50.69268       43.84594   33.76896   52.0583   51.5     0.1654  -20.71078  0.99824 
    -13.762  0.12611  14.45162      14.5167  1.62382  0.87127  32.92983  0.02217     0.02343   9641.86404   4815.81491  2.44848         3890.87079     17.44203  0.00015  59655.86378  18.26159  4.15293     2915930.28429  43.69477  18.29269  59703.13857    50.89122       44.07672    21.6094  53.07219   75.5    0.18876  -20.72525  0.16062 
  -17.43495  0.04864   4.90809     14.30734    1.658     1.14  18.63632  0.05592     0.04257   5984.96761   5895.73485  3.05714         3991.09791     17.80531  0.00035  59652.19084   3.98209  0.90643      900644.32425  45.15205  18.35679  59699.57529    50.77933       43.92652    32.5091  52.64113   53.5    0.15557  -20.70189  0.88991 
  -21.05587  0.11357   4.52264     14.65392  2.01628  0.62206  14.29843   0.0788     0.07489   7058.03013   5024.04011  0.53441         4656.87034     18.79678  0.00348  59648.56992   4.24896  1.62381      188496.64744  45.98731  18.29279  59698.46861    50.64549       43.80353   30.18702  51.08573   54.5    0.16484  -20.62392  0.87756 
  -12.77648  0.06057   1.13926     14.58082   1.5829  1.01299  32.24506  0.05327     0.09059   7948.60139   5403.36491  1.31388         4015.34779     19.45886  0.01598   59656.8493  12.15267  1.95305        13148.3156  48.23618  18.30965  59698.46861    50.81782       43.94878   30.56648  52.86107   52.5    0.16252  -20.81774  0.99393 
  -11.84876  0.05358   1.05341     14.59094  1.60209  0.80001  32.51485   0.0673     0.07952    9187.4566    5124.3547  1.75388         3673.32054     20.61335  0.22808  59657.77703  16.37192  1.74225       10859.52618  48.39252  18.27308  59698.45547    50.65667       43.83075   29.59662   51.3577   51.0    0.15125  -21.02206  0.99488 
  -18.08409  0.04503   4.51409     14.29643  1.59537  1.09136  18.00271  0.06109     0.09143   6307.07362   5214.05446   2.6876         3904.14174     19.01698  0.00578  59651.54169    4.2719  0.81067      770816.70399  45.27562  18.28318  59696.43024    50.69185       43.81677   30.28015  55.72989   52.0    0.16643  -20.67567   0.9099 
  -11.16565  0.08374   1.83256     14.56644  1.61902  1.03096  19.16945  0.07932      0.0435   7486.30148   5492.95687  1.49776         4652.17323     17.99305  0.00055  59658.46014   6.40872  1.60521       37179.21638  47.38168  18.30438  59700.46817    50.76731       43.93483   20.89871  54.32269   50.0    0.16101  -20.84515  0.97679 
   -7.54507  0.05277    0.8426      14.5815  1.58868  1.12894  24.52525  0.07438     0.01675   8192.48097   4279.13578  1.67955         4307.60544     19.25245  0.00994  59662.08072    9.8191   1.2943        7196.17458  48.76153   18.3304   59701.4095    50.82525       43.98722   20.28208  57.31909   47.0    0.15727  -20.73215  0.99884 
  -15.95462  0.06574   4.89304     14.70575   1.9675  0.62532  19.20785  0.06913     0.28413   6237.25604   5813.30413  3.01209         4457.95798     17.38504  0.00013  59653.67117   4.45752  1.26263      169583.66275  45.95422  18.29443  59699.57529     50.6592       43.80987   30.18702  52.36202   55.0    0.14559  -20.71879  0.88373 
  -11.52519  0.06053   1.25067     14.57202  1.65607  1.23641  28.15356  0.06961     0.06334   7824.32357   5407.11633  1.79009         4417.56713      19.5813  0.02118   59658.1006  10.28144  1.70423       17263.97313   48.0565  18.27919  59697.60317     50.6528       43.79337   25.54287  58.05197   54.0    0.12227  -20.73662  0.99364 
  -14.26777  0.04115   4.67469     14.40428  1.77501  1.33596  20.83157  0.05945     0.04072   6041.23627   5673.13138  3.37661         4296.64514     17.22047    9e-05  59655.35802   4.53525  0.85725      559706.61153  45.43058  18.27693  59699.57529    50.82463       44.00683   29.57039  47.88626   51.5    0.15626  -20.73291  0.91302 
   -8.38773  0.04107   3.70816     14.50468  1.80087  1.35788  18.48417  0.06463     0.13747   5778.10966   6112.54557  3.86902         4397.76057     18.25907  0.00101  59661.23806   3.68128  0.75917       225033.9393  46.03376  18.31946  59700.46817    50.79653       43.95948   20.88608  57.29792   49.5     0.1581  -20.79256  0.95141 
  -12.31097   0.0598    1.7454     14.56143   1.6992  1.11528  24.54854  0.06491      0.1109   7290.53994   5277.95359  1.38398         4516.47382     18.31646  0.00115  59657.31482   7.78345  1.46801       36223.67553  47.45631  18.29932   59701.4095    50.78244       43.96561   38.96875  50.31905   51.0    0.13592  -20.79401  0.98269 
  -19.40866   0.0961   4.21816     14.82916  2.17911  0.48499  13.34234  0.08315     0.14708   6277.62889    5839.6621  0.88618         4987.28175     18.27525  0.00105  59650.21712   3.13654  1.28223       79072.79094  46.45885   18.3151  59699.57529     50.7736       43.93762   29.50426   50.3734   54.0     0.1544  -20.62867  0.92175 
  -18.44327  0.04525   3.92849     14.32094   1.5255  0.99078  21.33208  0.05355       0.026   5731.07551   6239.11188  2.42999         4032.71692     19.92791  0.04706  59651.18252   4.17958   0.9653      498655.18602    45.566   18.2801  59698.45547    50.72982       43.89719   20.89871   52.4816   55.5    0.14556   -20.6071  0.91308 
   -18.5566  0.06532   5.64334     14.41338  1.85735  0.87827  18.18398  0.05099     0.05313   7134.85549   5367.93549  2.86728         3277.42989     19.44755  0.01557  59651.06918   5.52187  1.18777      818512.39744  45.12164  18.38096   59701.4095    50.76861       43.93941   22.60416  55.57984   53.0      0.186  -20.71727   0.8465 
  -11.46458  0.08323   1.84701     14.69248  1.71461  0.78199  20.39509  0.07976     0.20719   7880.45167   5442.76626  1.42391          4624.8942     18.17724  0.00084  59658.16121   7.55536  1.69753       22385.63078   47.6201  18.32511  59698.45547    50.66032       43.81711   34.24077  54.67446   50.0    0.17803  -20.81201  0.97791 
  -17.20122  0.07354   4.82983     14.36394   1.8258  1.38258  17.08282  0.06924     0.01867   7261.88566   4251.74135  1.93612         3670.87114     18.39503  0.00138  59652.42457   5.37385   1.2563      740029.22247  45.29319  18.29036  59698.46861    50.68236       43.81806   32.03059  53.97946   51.0    0.16654  -20.69212  0.87471 
  -10.30927  0.04851   1.47371     14.61054  1.75373  1.27966  30.60775  0.06268     0.04642   7927.74492   5204.65707  2.57663         4151.47378     18.36789   0.0013  59659.31652  11.47514  1.48478       21257.80834  47.84846   18.2752  59696.43024     50.6828       43.86381   23.60025  52.86107   51.5     0.1265  -20.81182  0.99176 
  -12.94515  0.04303   5.02621     14.35385  1.73767  1.44725  17.70854  0.05686     0.03454   5830.80549   5867.63246  4.15802         4110.95881      16.4801    2e-05  59656.68063   3.59143  0.76201      799015.91084  45.20378  18.26971  59698.45547    50.66655       43.82743   32.60223  51.08573   50.0    0.17452   -20.8064  0.90796 
