 texplosion  fnickel    Pspin  log(Bfield)      Mns  thetaPB   mejecta    kappa  kappagamma      vejecta  temperature    alpha  cutoff_wavelength  log(nhhost)      A_V         MJD0   kenergy   mnickel            TSD   log(L0)  Peak_mag     Peak_MJD  log(E_rad)  log(Peak_lum)  Rise_Time    E_fold  tau_1  delta_m15     r_peak     frac 
    -11.027  0.11662  1.08399     14.79032  1.50206  0.11815   7.44432  0.07023     0.02692   9897.38623   9710.24681   4.9783         2188.21828     21.25464  0.99855    56976.153   4.35004   0.86817     4304.40759  48.74157  22.74517     57019.04    51.70977       45.20945   15.46052  25.46439   39.5    0.31775  -22.61832  0.99346 
   -12.1433  0.02398  0.87814     13.72056  1.68393  0.81566  20.06408  0.01099      0.1076   8766.03818   5888.77419  2.67183         2291.25506     21.42929  1.49286   56975.0367   9.19715   0.48117   436651.48387  46.96791  22.85475  57023.75102    51.22592       44.45198    23.6455  42.74379   55.5    0.41988  -23.35738  0.99796 
  -13.00653  0.05428  2.06763     13.82991  1.68901  1.50214   9.37346  0.01891     0.31527   7575.77924   9212.08772  4.24434         2365.33756     21.18465  0.84993  56974.17347   3.20909   0.50878  1467485.64584  45.69896  22.77494     57018.05    51.53507       45.05699   10.91331  26.37383   56.0    0.40794  -22.35492  0.98812 
  -16.45685  0.00136  2.19422     13.68607  1.52792  1.46849   3.31688  0.04333     0.02233   9129.21563   6888.12154  2.79368         2830.34644     21.15291  0.79003  56970.72315   1.64901   0.00453  2899639.47855  45.30804  22.79739     57019.04    51.57552       44.94814   19.09829  27.28327   49.0    0.34794  -22.34503  0.99986 
   -17.8355  0.00127  3.13814     14.02032  2.11315  1.37086   6.37496   0.0394      0.1404   9021.31537   4509.32384  2.08188         2923.76207     20.95543  0.50137   56969.3445   3.09488   0.00811  1759785.32632  45.35497  22.84198  57019.20381    51.11929       44.48114   20.74221  29.27712   63.0    0.31825  -21.97913  0.99968 
  -12.69411  0.02039  3.18196     14.29868  1.60966  0.61267   3.92045  0.05508     0.05714   9001.69457    7522.9195  2.31208         3072.52954     20.81811  0.36546  56974.48589   1.89501   0.07994   382452.84086  45.88761  22.80167     57021.04    51.74231       45.16674   18.18885  25.46439   40.5    0.46419  -21.73352  0.99523 
   -5.30899  0.30591  0.73433     14.21914  1.68756  0.61671   8.35798   0.0508     0.02196   8895.99714   7391.77418  3.39479         2471.62932     21.33362  1.19771  56981.87101   3.94564    2.5568    30802.49117  48.27573  22.80025   57016.9302    51.31079       44.81995   13.64164  25.46439   33.0    0.39817  -22.86114  0.99324 
  -18.16047  0.00448  1.69456     13.99445  1.93917  1.09662   9.25056  0.04735     0.17282    9574.7651   7423.88749  3.70877         2195.88276     21.21802  0.91779  56969.01953   5.05884   0.04145   530460.95043  46.37369  22.69657     57018.05    51.78753       45.30626   15.46052  21.82662   56.5    0.29375  -22.34445  0.99947 
  -13.83888  0.00213  2.17412      13.7895  1.43652   1.1174  11.59687  0.01009     0.11166   5892.91204   9391.85688  2.79186         2873.86083     21.09052  0.68431  56973.34112    2.4023   0.02468  1662273.18716  45.53089  22.83696     57019.05      51.656        45.1153   17.27941   23.6455   59.0    0.40744  -22.07371  0.99917 
  -16.47507   0.0099   2.1064     14.01659  1.85524  0.73444   8.90118  0.01786     0.01325   5482.53671   3360.72661  3.84767         2522.60111     21.19519   0.8708  56970.70493   1.59602   0.08815   708147.96528  46.04004  22.77107     57018.05     51.5573       44.98477   17.27941  25.46439   56.5    0.35637  -22.27932  0.99812 
  -22.12775  0.08586  1.80123      13.5539  1.76947  1.49982   4.19542   0.0647     0.01821  11025.57553   4878.26776  4.53763         2167.99223     21.25206  0.99263  56965.05225   3.04232   0.36023   4159128.3632  45.38655  22.71284   57016.9302    51.14284       44.66433   15.46052  21.82662   51.5    0.29093    -22.648  0.99388 
  -14.81194  0.03192  1.41776      14.0341  1.61943  0.39877   7.86926  0.02738     0.17092   7897.37284   7955.89153  3.51755         2436.67594     21.32197    1.166  56972.36806    2.9277   0.25119   258334.15636  46.76282  22.81579     57018.05    51.68946       45.21739   13.64164  22.73606   66.0    0.35922  -22.86931  0.99703 
  -15.64017  0.16594   2.1171     13.91018  1.55832  1.14542   8.43271  0.01806      0.4674   4764.61588   9317.18492  3.40017         2705.24702     21.10764  0.71182  56971.53983   1.14196   1.39934   980839.58786  45.81842  22.75142     57019.04    51.72917       45.23568   16.36996  24.55494   48.5    0.39063  -21.98093  0.96245 
  -15.17642  0.04609  0.90193     14.16005  1.66249  0.33281  25.43197  0.01798     0.01146   9956.26921   6173.77514  3.44276         2189.84857     21.39761  1.38782  56972.00358  15.03836   1.17225    60091.87188  47.80045  22.67658  57019.20381    51.86993       45.40605   15.46052  20.91718   53.0    0.30111   -23.1359  0.99468 
  -11.13755  0.00553  0.85058     13.98282  1.87104  0.87287  31.59597  0.01002      0.0141    7851.5019   8032.90775  2.36393         2626.72208     21.37285  1.31092  56976.04245  11.61888   0.17469   136049.11903   47.5478  22.75605  57019.20381    51.49027       44.97688     14.999  25.01647   35.0    0.39322   -23.0474  0.99942 
    -17.098  0.00324  1.49249     14.55081  1.15463  0.24667  36.99103  0.01271     0.02736   2576.89015   7707.91539  4.06383         3035.08312     19.46501  0.01621    56970.082   1.46526    0.1198     18900.2829    47.707  22.74706     57018.05    51.40165       44.79468   19.54621  26.83535   58.5    0.12785  -20.79364  0.99746 
   -9.03978   0.0388  0.70668     13.93322  1.83927  1.47928  22.45369  0.01063     0.32709   5829.12714   7451.45885   3.2327         2370.71075     21.37608  1.32071  56978.14022   4.55116    0.8712   116000.64938  47.77059  22.80747     57018.05     51.3257       44.77283   16.36996  22.73606   29.0    0.41905  -22.95572  0.99804 
  -16.28555  0.00511   2.7986     14.01526  1.50488  0.68485    8.6284  0.01513     0.01283   6575.04297   9187.29903   2.8904         2942.78584      20.9176  0.45954  56970.89445   2.22513   0.04409  1020208.26436  45.54378  22.78005  57021.47741     51.1987        44.5546   20.91718   30.0116   55.5    0.35985  -21.81655  0.99772 
  -12.98935  0.00224  1.16112     14.03323  1.84908   0.8771    9.8754  0.03462     0.02047   7899.73486   5188.73549  2.47775         2467.57034      21.2699  1.03425  56974.19065   3.67626   0.02207   198635.82148  47.10799  22.77728   57016.9302    51.63521       45.12513   15.46052  21.82662   42.0    0.35236  -22.61424  0.99986 
  -16.25697  0.00469  1.64895     13.69244  1.86047  1.20365    8.9893  0.02772     0.39647   9122.01013   8663.49096  4.26455         2150.59808     21.29306  1.09091  56970.92303   4.46205   0.04213  1936324.47703  45.81707  22.80553  57019.20381    51.39506       44.88689   16.36996  22.73606   82.0    0.27767  -22.74819  0.99945 
  -12.07578  0.00145  1.10695     13.82001  1.65512  1.48116  12.07925  0.02483     0.09618   8712.69977   7502.38463  4.58538         2129.06559     21.34141  1.21938  56975.10422   5.46982   0.01749    431391.9582  46.76455  22.70513   57016.9302    51.82787       45.30033   16.36996  24.55494   36.5    0.43892  -22.87975  0.99988 
  -11.71352  0.00345  1.47715     14.80587  1.78017  0.10287  12.93354  0.01221     0.08383   6022.85509    9548.5837  3.34511         2572.60855      21.3212  1.16392  56975.46648   2.79865   0.04458     8818.41269  48.23507  22.80791   57016.9302    51.03094       44.52224   17.27941   23.6455   35.5    0.48319  -22.79253  0.99951 
  -15.54162  0.00575  1.18968     13.98876  1.60079  0.48811  18.24208  0.01461      0.0493   6993.88557   4464.03754   4.7879         2225.44232     21.35378   1.2546  56971.63838   5.32278   0.10494   221557.35031  46.97683  22.71475     57019.04    51.63694       45.15046   14.55108  22.73606   49.0    0.35658  -22.89469  0.99912 
  -14.90522  0.10918  1.04507     13.89464  1.66321  0.81527  19.80753  0.01592     0.04169     6600.516   4691.62655  4.24765         2263.29196     21.35078  1.24597  56972.27478    5.1477   2.16251   274013.11731  47.01373   22.7765     57019.04    51.94769       45.29008   18.18885  33.64937   43.5    0.33414  -22.83423  0.98695 
   -3.53868  0.00398  0.70202     14.85984  1.58605  0.25362  25.21352  0.01424     0.01276   5926.35453   8929.63898  2.99481          2941.7675     21.02555  0.58922  56983.64132   5.28246   0.10042     1384.05222  49.63532   22.7415     57018.05    51.43545       44.95186   15.46052  21.82662   29.5    0.33073  -22.02587  0.99986 
  -13.87181  0.21334  2.57937     14.23528  1.38208  0.50541   7.52596  0.01835     0.05049    4268.6777   9047.60191  3.80663         2848.05906       20.934  0.47723  56973.30819   0.81804   1.60556   288946.22324  46.12553  22.81795   57016.9302    51.09129       44.46336   19.54621  28.65424   43.0    0.40618  -21.66562  0.92632 
  -12.00128   0.0367  3.90923     14.07137  1.85494  1.33514   2.95085  0.01928     0.26859   3045.23909   5867.87065  3.55126         3269.68651     20.76105  0.32046  56975.17872   0.16324   0.10828  1894870.78726  45.07541  22.73358     57018.05    51.25255       44.75497   16.36996   23.6455   38.5    0.47791  -21.61122  0.99207 
   -11.7723  0.38132  0.88413     13.91001  1.65624  0.78589  17.22789  0.02671     0.03415    9615.2198   6857.33423  3.77643         2184.44707     21.37225  1.30911   56975.4077   9.50118   6.56929   181947.65436    47.335  22.70004   57016.9302    51.77894       45.29956   15.46052  21.82662   49.5    0.32452  -23.08241  0.97203 
  -11.61406  0.27943  2.89076     14.07956  1.37045  1.28571  10.58766  0.01364     0.23228   4930.48438   5340.64679  3.69769         2893.75068      20.7825  0.33669  56975.56594   1.53535   2.95853   737176.02415  45.61611  22.78108  57019.20381    51.00299       44.46339     16.195  26.54879   43.5    0.46424  -21.53118  0.84342 
  -10.58377   0.0309  3.00633     14.72083  1.72096  0.36418    7.0957  0.03465      0.0239    6056.8803   3008.43087  3.70379         2881.93843     20.64581  0.24577  56976.59623   1.55282   0.21927    52240.57684  46.83054  22.74283  57019.20381    51.39173       44.88598   15.46052  24.55494   32.0    0.43435  -21.43038   0.9896 
   -6.38183  0.05077  0.70324      13.9207  1.70272  0.98613  16.85939  0.01574     0.04992   6982.60443   6256.71401  3.99677         2289.37695     21.42181  1.46735  56980.79817   4.90347   0.85598   112659.24404  47.75402  22.83449  57019.20381    51.83617       45.29052   18.18885  24.55494   27.5     0.4751  -23.21895   0.9978 
  -10.42718  0.03881  2.13228      14.0805  1.50943  1.05722    7.0925  0.02551     0.38258   6634.84453   7953.55034  2.68326         2867.50708     21.01725  0.57807  56976.75282   1.86246   0.27524   439852.15048  46.14666  22.75501  57014.65659     51.0801       44.54082   17.27941  28.19271   34.0    0.51106  -21.90322  0.99196 
  -18.64849  0.23919  3.14559      13.8502  1.48883  0.95874   2.37748  0.06553     0.29933   7775.92615     6183.984  3.65025         2714.44449     20.77829  0.33344  56968.53151   0.85753   0.56868  2726928.90838  45.01061  22.70625   57016.9302    51.61744       45.19266   12.73219  19.09829   79.5    0.29241  -21.66269  0.96311 
  -12.89083  0.01331  1.31962     13.89517  1.64187  0.83058  15.86814  0.01311     0.29543   6414.11748   7182.33862  3.33268         2478.20777      21.3126   1.1411  56974.28917   3.89428   0.21123   430243.12646  46.60957   22.8034  57019.20381    51.64072       45.17159   12.73219   23.6455   40.5    0.40014  -22.73546   0.9979 
   -8.79222  0.01417  2.52204     14.23818  1.73137  1.21597   10.3053  0.01115     0.41384   3271.00563   8133.31113  3.32703         3063.84753     20.85084  0.39407  56978.38778   0.65773   0.14598   341458.69233  46.17039  22.74787     57018.05    51.65461       45.19865   14.55108  20.91718   27.5    0.49631  -21.58306  0.99515 
  -24.05275  0.01138  3.49519     13.88863  1.81447   1.3206   13.4129  0.01575      0.0452   6519.83059   5523.76934  2.58143         3092.17005     20.70325  0.28053  56963.12725   3.40113   0.15258  3437483.79892  44.90441  22.76603   57016.9302    51.49174       44.94793   16.36996   23.6455   79.5    0.24209  -21.57672  0.99066 
  -13.93511  0.00167  2.50523     13.97829  1.72071  0.69896   7.49695    0.011      0.0108   5791.91485   9700.61408  2.61579         2930.66649     21.08592  0.67708  56973.24489   1.50022   0.01251  1108244.68845  45.66222  22.69317     57021.05    51.73603       45.22574   15.46052  24.55494   64.0    0.35949  -22.07147  0.99957 
  -11.00568  0.02112   2.3479     14.38687  1.88382  0.67524   8.51117  0.02261     0.01485   5458.33839   4441.38156  3.18618         2912.12697     21.02277  0.58546  56976.17432   1.51265   0.17971   162355.81102  46.59206  22.74796  57019.20381    51.55556       44.87602   18.63677  33.20145   30.5    0.45991  -21.92277  0.99543 
   -6.43417  0.21004  0.72181     14.01002  1.72195  0.84025  20.28445  0.01101     0.12122   6983.19763   5278.95068  3.69136         2308.53802     21.40719   1.4188  56980.74583   5.90064   4.26052    79548.45038  47.88739  22.74851     57018.05    51.93505       45.49027   13.11644  20.53293   26.0    0.54018  -23.17448  0.98885 
  -12.08826  0.01379  1.51848     13.67569  1.42967  1.50266  17.39188  0.01131     0.01616   6865.70854   9646.82266  3.43746         2415.87888     21.23855  0.96222  56975.09174    4.8904   0.23975  1362963.91742  45.92678  22.76973     57019.04    51.88353        45.3724   16.36996   23.6455   56.5    0.37476  -22.46356   0.9961 
  -13.54975  0.00192  3.15753     14.08343  1.96924  0.77183   8.88024  0.01135     0.19859   5774.64972   8550.86426   3.2047         2811.41318     20.99264  0.54623  56973.63025   1.76646   0.01707  1241504.25462   45.4705  22.74091     57018.05    51.18928       44.68263   16.36996   23.6455   70.0    0.35757  -21.90786  0.99925 
   -7.20374   0.0128  0.85434     15.07324  1.99906  0.12094  19.90402  0.02268     0.01385   6093.03025   7005.32543  3.27042         2701.66192     21.22853  0.94028  56979.97626   4.40793    0.2548      966.97541  49.72099   22.7566     57018.05    51.70984         45.215   16.36996   23.6455   36.0    0.26228  -22.43532  0.99932 
   -6.67832  0.00626  1.20037     14.43644  1.93026  0.77103  15.00516  0.01848     0.01188   5632.04243   4166.17387  3.01108         2780.33426     21.10317  0.70453  56980.50168   2.83922   0.09391    34608.37496  47.85665  22.72591  57019.20381     51.5052       44.99701   15.90844  24.10703   29.5    0.40027  -21.99617  0.99947 
   -7.70883  0.07322  0.76401     13.96922  1.54135   0.6482  30.56123  0.01147     0.03773  10656.93559   9520.28926  3.23341         2160.84405      21.3873  1.35527  56979.47117   20.7044   2.23776    96266.80723  47.70707  22.74804   57016.9302    51.52027       45.10861   10.00387  21.82662   37.0    0.45334   -23.1456  0.99198 
   -9.90481  0.00165  1.85823       14.412  1.88525  0.55109   7.88247  0.03123     0.01399   5851.37282     7350.578   2.7408         2970.35765     21.09005  0.68356  56977.27519   1.60992   0.01304    90651.52397  47.04864  22.81551   57016.9302    51.43153       44.94414   15.46052  20.91718   33.0    0.40037  -22.10652  0.99979 
  -12.21597  0.23788  3.23409     14.78229  1.86471  0.31422  13.04431  0.01277     0.09239   5596.69517   5210.53157  2.65704         3014.62704     20.76859  0.32607  56974.96403   2.43731   3.10295    49358.29347  46.82659  22.78396     57018.05    51.63221       45.19043   13.64164  20.91718   48.5    0.43317  -21.53296  0.86722 
   -9.18933  0.00142  1.85201     14.45478  1.57713  0.53329    8.0004  0.03287     0.30738   5268.82555   5364.29035  3.35228         2917.86346     20.89768  0.43894  56977.99067   1.32485   0.01139    61859.02502  47.14002  22.81831  57014.65659    51.15931       44.70123   14.55108  20.00773   31.5     0.4046  -21.70643  0.99977 
  -15.72594   0.1296  3.34596      14.4783  1.84788  0.46686   4.83591  0.04409     0.20371   5573.03325   7143.56656  3.57397         2842.26274     20.79323  0.34511  56971.45406   0.89596   0.62672   212295.38319  46.15954  22.66851  57014.65659    51.61553       44.89888   16.36996  39.10602   46.5    0.36407  -21.54262  0.96732 
  -12.23027  0.01123  1.38413     14.11355  1.82395  0.96443  18.46631   0.0169     0.32015   6049.19386   4724.00145  2.89548         2710.62507     21.17844  0.83786  56974.94973    4.0309    0.2073   192341.34913  46.96343  22.78541  57019.20381    51.94253       45.49379   13.12044  21.43837   37.0     0.3502  -22.30671  0.99809 
  -13.70159  0.01177  0.89398     14.02687  1.63945  0.50761  23.95678  0.01396     0.01785   8373.79002   6295.92767  3.18811         2349.04669     21.38516   1.3486  56973.47841  10.02074   0.28201   107506.78022  47.54945  22.80212     57019.04    51.45848       44.95832   16.36996  25.46439   40.5    0.37346  -23.12354  0.99872 
  -14.69782  0.34688  2.68072     14.27004  1.78449  0.56372  14.68062  0.01008     0.01011   5593.94777   8962.79058  2.87138         2892.53063      21.0484  0.62105  56972.48218   2.74037   5.09243   343368.34507   46.1281  22.81766     57021.04    51.28374       44.73641   16.36996  25.46439   66.0    0.38612  -21.99249  0.84321 
  -14.99178  0.00136  1.91289     14.23172  1.84121   0.4311   5.46649  0.03421     0.03396   8330.71902   8279.88056  2.32898         2667.64558     21.21041  0.90186  56972.18822   2.26309   0.00743   215210.39876   46.6377  22.77954  57014.65659     51.4386       44.98896   13.12044  21.43837   57.0    0.38469  -22.44369  0.99987 
  -14.93866  0.32376  1.41323     13.74132  1.76401   1.0311  14.15872  0.01383     0.18596   6748.22723   8513.69801  3.43245         2469.10561      21.3576   1.2657  56972.24134   3.84619   4.58402  1076708.03158  46.18283  22.73255     57018.05    51.07605       44.39865   18.12333  29.16768   66.0    0.34631  -22.91503  0.95471 
   -8.91074   0.0116  3.00158     14.24161  1.56277  1.48848  16.50188  0.01836     0.13967   5916.76569   5548.11002  4.11539         2799.20317     20.22466  0.09319  56978.26926   3.44611   0.19136   429718.20744  45.87486  22.81717  57019.20381     51.3081       44.59517   20.91718  39.10602   35.5    0.36627  -21.20278  0.98954 
  -12.25219   0.0189  1.15103     14.63387  1.56253  0.17089  17.82633  0.01737     0.11332   8025.49729   9791.36764  2.64208         2622.15842     21.26909  1.03233  56974.92781   6.84909   0.33686    10376.97247  48.32443  22.77852  57021.47741    51.61305       45.05154   17.21388  25.52991   36.5    0.40745   -22.6108  0.99728 
  -10.86862  0.01793  1.76205     13.93341  1.52862  1.17032  10.71066  0.01934     0.06251   4980.14669   5194.71417  3.37673         2836.47263     21.12403  0.73919  56976.31138   1.58463   0.19203   598860.91596  46.18378  22.81953     57021.04    51.70987       45.20556   14.55108  25.46439   36.0    0.39284  -22.18188  0.99622 
  -14.28305  0.02956  3.12249     14.16941  1.77379  0.77839    5.9785  0.01939     0.09586   4227.00035   9064.97384  3.79936         2862.01465     20.92358  0.46592  56972.89695   0.63721   0.17672   736026.66969  45.66185  22.84424     57019.05    51.61523       45.13519   13.64164  24.55494   42.5    0.42668  -21.71409  0.99122 
  -14.19307  0.01462  3.26596     14.02942  1.56576   1.0161  11.74755   0.0102     0.12199   5878.89721   4836.12433   3.3707          2888.0903     20.82117  0.36804  56972.98693   2.42196   0.17174  1354314.31964  45.30383  22.83159  57019.20381    51.93464       45.41948   15.46052  25.46439   50.0     0.4511  -21.63325  0.98875 
  -15.02574  0.08166   3.6991     14.55017  1.83058   0.5535    4.5765  0.10271     0.23311   9080.39999   4420.36219   2.3065         3026.72003     20.14083  0.07683  56972.15426   2.25098   0.37374   184612.95602  46.12898  22.69286     57029.07    51.78332       45.15429   21.82662   30.0116   38.0    0.35347  -21.34176  0.97574 
  -12.85297   0.0023  1.33345     14.48197  1.96639  0.25421  13.60904  0.02459     0.36477  10200.61226   5184.68287  2.63652         2390.31804     21.32864  1.18403  56974.32703   8.44709   0.03124    35278.33679  47.76505  22.70958   57016.9302    51.92089       45.38178   16.36996   23.6455   48.5    0.38073  -22.88147  0.99976 
  -18.56929  0.46759  2.84177     14.03711  1.98513  1.30706  10.65597  0.01263     0.25482   3947.11929    8175.0737  3.37465         2821.35394       21.064  0.64377  56968.61071   0.99033   4.98263  1254736.88918   45.5609  22.92733  57026.02462    51.10667       44.48076   20.91718  30.92104   74.5    0.32268  -21.82877  0.85136 
  -10.75462  0.03904  1.15844     13.81931  1.70544  1.19341  26.65708   0.0108     0.30244   7105.53521   4775.03212  4.69807         2200.85903     21.32852  1.18373  56976.42538   8.02848   1.04057   488400.71548  46.68416  22.76908   57016.9302     51.1521       44.64203   16.36996  22.73606   39.5    0.37829  -22.86924  0.99252 
   -8.21779  0.00505  3.00719     14.63873  1.95249  0.56359   14.2925  0.01273     0.06869   5005.83418   4736.73807  3.10261         3057.18642     20.69712  0.27659  56978.96221   2.13643   0.07212    86548.67243  46.66585  22.74916   57016.9302    52.01669       45.55129   15.46052  20.91718   29.0    0.50097   -21.4458  0.99716 
   -8.44025  0.00451  1.44991     14.02078  1.49464   0.9673  21.59234  0.01021     0.07009   6697.68125   6114.51355  2.85479         2742.53849     21.16959  0.82095  56978.73975   5.77798   0.09734    265138.4596  46.69723  22.86282     57021.04    51.25879       44.69886   18.63677  25.92591   31.5    0.47761  -22.30004  0.99866 
    -8.9604    0.008  1.01114     13.99967  1.88191    0.895  20.14378   0.0101     0.36615   7158.76889   4705.29856  2.98837         2376.11889     21.36971  1.30148   56978.2196   6.15807    0.1612   178938.15963  47.28112  22.83216  57019.20381    51.61689        45.1033   14.55108  26.37383   30.0    0.49167  -22.97981  0.99924 
  -13.91153  0.02361  2.40046     14.03471  1.49039  0.47728   7.34532  0.01068     0.05684   4868.19048   3875.16806  3.26575         2841.85423      21.0548  0.63027  56973.26847   1.03842   0.17343   679642.60964  45.84927  22.92456  57030.57184    51.40019       44.51554   25.46439  56.38543   73.5    0.36296   -21.9835   0.9933 
   -5.44586  0.00511  0.91122     14.12046  1.50857  1.13355  24.87731  0.01175     0.12074   5803.41609   3652.22423  3.29236         2806.31225      21.1683  0.81851  56981.73414   4.99802   0.12715    66790.90016  47.70344  22.73156     57019.04    51.44756       44.94059   16.36996  22.73606   29.5    0.41994  -22.27158  0.99941 
  -21.68995  0.00391  3.99604     14.16192  1.84439  1.15875   7.88156   0.0358      0.1665   5907.31548   7048.47195  3.49583         2964.28091     20.33816  0.12103  56965.49005   1.64066   0.03082  1297451.62289  45.21835  22.76781  57019.20381    51.85406       45.33894   15.46052  22.73606   52.5    0.29783  -21.22245  0.99762 
   -9.27255  0.08061  1.17546     13.96864   1.7074  1.35628  19.38165  0.01368     0.02586   5386.60186   9886.95983  2.90743         2835.33493     21.24321   0.9726  56977.90745   3.35465   1.56242   253099.86397  46.95748  22.81355   57016.9302     51.2904       44.72353   17.27941  28.19271   34.0     0.3737    -22.513  0.98866 
   -15.7058  0.02428   2.6832     14.04298  1.43919  1.04257   3.40688  0.05929     0.01179   5773.54999   8754.92873  2.72776         2966.42736     20.76541  0.32369   56971.4742   0.67744   0.08273    789372.6138  45.67238  22.77883  57019.20381    51.82406       45.31181   16.36996   23.6455   38.0    0.38384  -21.50787  0.99585 
   -8.11805  0.17059  1.76586     14.54625  1.86364  0.60769   7.96985  0.02882     0.01375   4892.57628   5449.86826  3.05903         2962.37111     20.94777   0.4926  56979.06195   1.13803   1.35955    43611.14302   47.4057  22.76994  57021.47741    51.09182       44.49134   20.74221  27.45824   31.0    0.39274  -21.74068  0.98128 
  -17.00256  0.00262  3.16917     13.93203  1.54138  1.23623   8.12131   0.0161     0.05704   4990.01089   7851.78177  3.34328         2933.48099     20.78878  0.34159  56970.17744    1.2063   0.02125  1965872.98851  45.16131  22.73265   57016.9302    51.50571       45.02954   14.55108   23.6455   57.0    0.36726  -21.52643  0.99864 
  -12.57935     0.05  1.69399     13.84695  1.94207  1.44234  13.21624  0.01118     0.15944   6627.83375   6230.83025  3.65139         2368.45563     21.30638  1.12487  56974.60065   3.46321   0.66079  1047117.88859  46.07929  22.65901  57032.84544    51.31735       44.65717   20.91718   36.3777   46.0    0.46975  -22.71336  0.99159 
  -15.36421  0.01079  1.85346     14.46268   1.6512  0.17846  16.99768  0.01176     0.07112   7640.47706   8000.50631  4.45508         2293.40016     21.23458  0.95348  56971.81579   5.91913   0.18342    62549.96828  47.15445  22.74621   57016.9302     51.7032        45.2216   14.55108  22.73606   72.0    0.34301  -22.45405  0.99639 
  -13.58793  0.00353  2.29555     14.11619  1.72618  0.89414  16.25996  0.01231      0.0104   5307.41166   7931.41877  3.00654          2867.4789     21.02975  0.59494  56973.59207    2.7322   0.05733   494654.34969  46.08986  22.77848     57021.04    51.41069       44.89247   17.72733  24.10703   40.0    0.37771  -21.93013  0.99839 
  -10.47522  0.00282  1.17001     13.89823  1.49246  1.19043  16.33913   0.0289     0.07565  10938.39289   3315.29795  4.40979          2214.8578     21.25483  0.99897  56976.70478  11.66173    0.0461   303132.30907  46.82474  22.73125  57019.20381    51.73635       45.16234   17.72733  25.01647   38.5     0.3711  -22.63232  0.99959 
  -13.23541  0.16411  1.54853     13.91417  1.52366  1.24334  17.49101  0.01961     0.18233   7183.87732   4968.45927  2.78634         2764.40439     21.14782  0.78081  56973.94459   5.38468   2.87049    503725.7508   46.3697  22.79047  57014.65659    51.90582       45.44691   14.55108  20.91718   47.0    0.32731   -22.2922   0.9579 
  -12.08018  0.01132  2.55989     14.14587  1.98534  1.35501  11.89048  0.01439     0.07606   4760.22602   7580.28211  3.06862         2900.08112     21.02632  0.59027  56975.09982   1.60724   0.13465   617103.53041  45.95988  22.75801   57016.9302    51.86525       45.39161   15.46052  20.00773   36.0    0.42117    -21.887  0.99622 
  -14.74271  0.01489  1.62509     14.47878   1.5573  0.12804   7.00648  0.02685     0.04817  10766.76307   9581.72058  3.34617         2210.41828     21.25639  1.00258  56972.43729   4.84504   0.10436    42109.17164  47.41509  22.80092  57019.20381    51.97025       45.42557   17.72733  24.10703   66.5    0.30294  -22.65739  0.99827 
   -17.3915  0.00107  3.21762     14.18942  1.43121    0.799   4.04711  0.06693     0.04622   8040.35371   7864.33097   1.8101         3139.39875     20.36939  0.13005   56969.7885   1.56071   0.00432   575121.30917  45.64972  22.80925  57019.20381    51.97266       45.43462   17.27941  24.55494   39.5    0.39066  -21.28538  0.99968 
  -10.65512   0.0177  1.35259     14.03303  1.74841  1.35035  22.29342  0.01668     0.11073   8226.76899    4395.5728  2.76682         2687.80898     21.18806  0.85663  56976.52488   9.00042   0.39464   255119.32924  46.84241  22.85253   57016.9302    51.34739       44.88557   10.91331  24.55494   35.5    0.38356  -22.42473  0.99631 
  -17.66713  0.43186  1.60075     14.24314  1.63805   0.1691   7.76308  0.02623     0.12546  11525.36929   8943.64234  4.18172         2179.99339     21.28593  1.07314  56969.51287   6.15136   3.35259   127207.95213  46.97001  22.81336     57019.04    51.28871       44.72697   17.72733  24.10703   96.5    0.20449  -22.81806  0.95156 
  -11.22351  0.04617  2.01758     14.16366  1.64127  0.82411   9.25962  0.01867     0.17978   5010.97869   6827.56629  2.97631         2846.74492     21.05554  0.63134  56975.95649   1.38696   0.42755   291976.42935  46.40901  22.91973   57016.9302    51.19899       44.65349   16.36996   23.6455   33.5    0.42871   -21.9473  0.99016 
  -19.26447  0.00231  4.59635     14.22632  1.95968  0.82189   4.57406  0.04264     0.33956   7283.17517   5550.75013  3.00365         2892.53498     20.41841  0.14559  56967.91553   1.44734   0.01059  1355747.88673  45.10403   22.8414     57021.05    52.04837       45.52594   16.36996  24.55494   60.5    0.33163  -21.31378    0.999 
  -12.47086  0.00306   2.2583     14.25399  1.66394  0.83937   7.18194  0.04222     0.02398   6728.27714   8733.63676  3.12999          2826.2073     20.91015  0.45172  56974.70914   1.93944   0.02195   244645.92922  46.39388  22.74454   57016.9302    51.19941       44.64443   16.36996  21.82662   35.5    0.38465  -21.76894  0.99937 
  -11.88237  0.00569  1.29245     14.14373  1.52708  0.47099  20.64793   0.0146     0.11887   8856.56034   4481.97998   3.7199         2356.62514     21.28001   1.0586  56975.29763   9.66126   0.11745   122193.42889  47.14283  22.75725   57016.9302    51.03876       44.55427   15.46052  22.73606   39.5    0.40934  -22.69641  0.99875 
   -8.68751  0.00293  2.60944     14.32166  1.73535  1.44422   13.4931  0.01945     0.04627   4250.17069    4196.7948   3.8548         3027.80328     20.30861  0.11307  56978.49249   1.45396   0.03955   249451.75665  46.27815  22.85026   57016.9302     52.0777       45.65035   11.82275  20.91718   34.0    0.34419  -21.25458  0.99861 
   -9.50042  0.00336  1.64049     14.16459  1.77319  1.48384  22.92243  0.01546     0.09456   6571.34205   5974.58904  3.09436         2802.56161     21.03056  0.59605  56977.67958   5.90467   0.07698   207650.39684  46.77032  22.74435  57014.65659    51.36084       44.91684   13.64164  20.00773   34.5    0.35102  -21.97157  0.99897 
  -18.13879  0.02057   1.4355     13.83795  1.73193  1.13459   20.2618  0.01061     0.37769   5345.75978   7179.72128  2.81114          2719.7473     21.27078  1.03636  56969.04121   3.45401   0.41676   698961.28891  46.34892  22.65194   57016.9302     51.2911       44.63946   19.09829  31.83048   52.0    0.32717  -22.45004  0.99547 
  -18.06992  0.18596  4.44445      14.7452  1.87448  0.19395   4.10911  0.02562     0.01107   5936.31554   5729.18265  2.85556         3034.36788     20.48233  0.16868  56969.11008   0.86379   0.76415   111153.43651  46.20017  22.76111     57019.04    51.87538       45.37538   15.46052  22.73606   54.5    0.32766  -21.33993  0.93253 
   -8.57572  0.01712  1.41069      13.9743  1.57925  1.52914   18.5424  0.01049     0.37056   6306.87924   6970.92459  2.87643         2607.98238     21.19588  0.87217  56978.60428   4.39969   0.31737   328491.37426  46.65191  22.79546   57016.9302    51.20558       44.74328   13.64164  21.82662   31.0    0.49134  -22.26508  0.99622 
   -5.57275   0.0058  0.90518     14.23289   1.9045  1.04165  12.40217  0.03239     0.13785   7323.79881   7613.40512  2.95511         2716.45957     21.21814  0.91805  56981.60725   3.96824   0.07198     49578.3605  47.93986  22.76985  57021.47741    51.93238       45.32515   19.09829  27.28327   32.0    0.37994   -22.4433  0.99977 
  -12.62689  0.23236  1.88871     14.15479  1.76085  0.73506  16.35412    0.012     0.26409   6382.73709   7236.01891   3.1456         2704.24506     21.19974  0.87998  56974.55311   3.97437   3.79999   285955.13336  46.50594  22.91131  57021.47741    51.29169       44.59213   22.73606  35.46825   41.5    0.42268  -22.34732  0.93474 
  -18.47759  0.35581  3.53292     14.15017    1.829  1.27439   5.18704   0.0471       0.253    5101.7014   6720.94402  3.20076         2969.03606     20.59554  0.21891  56968.70241   0.80534    1.8456  1061594.82424  45.40883  22.72481     57021.04     51.8535       45.37771   14.55108   23.6455   61.5    0.28292  -21.36441  0.89866 
  -13.15922  0.23112  2.81566     14.57307  1.79488  0.39694  13.61408  0.01616     0.05587   6316.11307   4769.04487  2.83452         2906.72002     20.92468   0.4671  56974.02078   3.23978   3.14644    94378.20586  46.64885  22.79515  57014.65659    52.03778       45.60583   12.73219  20.91718   50.0    0.40014  -21.75014  0.88901 
   -9.04786  0.05515  1.30222     13.92867  1.74062  1.34208  19.66335  0.01446     0.30725   7526.26254   7254.99537  4.29563         2317.23163     21.28996  1.08316  56978.13214   6.64421   1.08444   380674.28912  46.69963  22.83047     57019.04    52.27831         45.815   14.55108  20.00773   35.0    0.43156  -22.68247  0.99051 
  -23.15355  0.32657  3.92017      13.8632  1.62174  1.16179   6.38282  0.01876     0.24045   3974.92369   9378.59811  3.52557         3001.41553     20.38317  0.13425  56964.02645   0.60159   2.08446  4345233.83042   44.6542  22.60269   57016.9302    51.63708       45.11209   16.36996  21.82662   94.0    0.21011  -21.19574  0.83778 
   -4.01323  0.00185  0.80942     14.36137  2.17944  1.34975  20.27632  0.01057     0.20867    3375.4433   4347.58344  3.63841          2761.1339        21.16  0.80303  56983.16677   1.37809   0.03742    25105.51367  48.39108  22.84178  57014.65659    51.51697       45.03311   16.36996   23.6455   28.5    0.33872  -22.19807  0.99995 
  -19.24086  0.26652  2.86348     14.97072  2.03446  0.08937  11.74633  0.01347     0.23379   6347.80445   3797.91692  2.66623          2831.3654     21.07302  0.65728  56967.93914   2.82343   3.13063     17725.7043   47.4149  22.75512     57021.04    51.43271       44.85073   18.18885  26.37383   90.0    0.28417  -22.00979  0.90235 
  -19.50399  0.09272  4.84267     14.30521  2.16406  0.89508  13.66784   0.0113     0.01646   4605.81624   9564.77428  3.19416         3129.76747     20.35609  0.12613  56967.67601   1.72958   1.26728   1155669.6561  45.17111  22.86204  57014.65659     51.1632       44.69522   15.46052  20.91718   58.5     0.3159  -21.26163  0.89772 
  -15.72697  0.04211  1.80995     13.70251  1.57883  1.21965   9.27458  0.02407     0.25107   9146.36305   8390.99333  3.01988         2459.40136     21.22963  0.94267  56971.45303   4.62827   0.39051   1890008.1329  45.67538  22.80786     57019.04    51.84634       45.39665   12.73219  22.73606   70.5      0.315  -22.47769   0.9922 
   -8.25751  0.00162  1.38692     14.30096  1.84207  1.25974  13.09501  0.03233     0.01373   6929.34618   4909.64334  3.19336         2911.64482     20.98097  0.53174  56978.92249   3.75075   0.02121    82281.74879  47.33474  22.78681     57018.05    51.71291       45.16626   18.18885  25.46439   32.5    0.35926  -21.93119  0.99982 
  -16.52944  0.00201  2.30893     14.59966  2.06888  0.22229  11.34734  0.01381     0.27019   5832.35879   7914.10985  2.49032         2876.66089      21.1623  0.80729  56970.65056   2.30255   0.02285    64722.37837  47.04671  22.79148     57018.05    51.52289       44.98828   16.36996  22.73606   60.5    0.36108  -22.21428   0.9995 
  -18.62002  0.02377  2.99027     14.53596  1.82286   0.2446   6.07185  0.02287     0.20729   5001.13248   7730.82304  3.78636         2740.69552      20.9965  0.55109  56968.55998   0.90591    0.1443   128255.21322   46.4701  22.67116     57019.04    51.65102       45.10799   18.18885  25.46439   65.0    0.34544   -21.7649  0.99363 
  -17.39572  0.04315  2.23409     13.84296  1.57521  1.01475  10.13814  0.01214      0.0612   5039.09774   3821.30116  3.04254         2830.73298     21.09929  0.69826  56969.78428   1.53565   0.43745  1504664.36975  45.59054  22.83069  57019.20381    51.72844       45.18039   20.85165  27.34879   64.5    0.35834  -22.03594  0.98671 
  -12.88539  0.00212  3.54293     14.18976  1.88816   1.3897   7.43244   0.0248     0.01753   6616.48031   8139.93341  2.58564         2983.94694     20.70521   0.2818  56974.29461   1.94094   0.01575   918460.91806   45.4831  22.74588     57021.04    51.93463       45.37653   17.72733  24.10703   41.0     0.4424  -21.53776  0.99908 
  -10.08785  0.04958  1.13096      14.1665  1.61297  0.68736   14.7921  0.03215     0.42602  10853.84732    5787.0385  2.69286         2476.38748     21.24182   0.9695  56977.09215    10.395   0.73332    88986.94391  47.42025  22.74072     57018.05     51.5198       44.96961   17.27941   23.6455   36.5     0.3847  -22.54515  0.99464 
  -12.13507  0.23914  1.02807     14.11961  1.31146    0.437   7.35139  0.05382     0.01362   8142.18802   8347.04565  4.25546         2320.63858      21.2714  1.03784  56975.04493   2.90723   1.75803    74199.10576  47.49216  22.92222     57021.04    52.09719       45.58289   17.27941  24.55494   38.0    0.35137  -22.61376  0.98544 
   -9.67914  0.00123  1.17391     14.20391  1.45751  0.31777  15.03612   0.0158     0.01723   7834.14143   7804.55499  3.67058         2330.35861     21.31184  1.13912  56977.50086   5.50485   0.01845    72926.17538  47.43031  22.86014  57019.20381    52.06215       45.61082   13.12044  21.43837   40.5    0.43412  -22.81389  0.99983 
   -7.32552   0.0241  1.38785     14.67701  1.84872  0.31197  23.22198  0.01415      0.4451   5706.85638   7062.90296  4.02089         2723.85709     21.14207  0.77055  56979.85448   4.51149    0.5596    14633.48568  48.08568  22.90019  57032.84544    51.08121        44.3319   25.84077  45.09574   33.0    0.33648  -22.20101  0.99506 
   -9.27933   0.0228  1.35088     14.49641  1.61476  0.29226  15.65629  0.01128     0.02945   4839.20584     7144.242  3.23784          2632.8554     21.22328  0.92898  56977.90067   2.18708   0.35692    27818.16319  47.77139  22.76245   57016.9302    51.31939       44.78573   17.27941  25.46439   30.0    0.46023  -22.31284  0.99623 
  -14.53934  0.08538  2.22779     13.81157  1.44007  1.21355   8.36302  0.01352     0.49097   4883.14714    7022.6863   3.3885         2797.46744     21.09182  0.68635  56972.64066   1.18957   0.71403  1580520.50489  45.53268  22.76664     57018.05    51.86411       45.36697   15.46052  21.82662   50.5    0.41333  -22.01927  0.97568 
  -10.76153  0.00244  1.22761     14.11794   1.7182  0.71804  24.18287  0.01547     0.10313   7528.01142   9249.23647  3.31203          2467.7111     21.23864  0.96242  56976.41847   8.17515   0.05902   139676.03114  47.18068  22.78634  57014.65659    51.52802       45.01523   15.46052  24.55494   38.5    0.33918  -22.52066  0.99953 
  -17.71253  0.18078   2.7845     14.29959  1.81492  0.28756   9.49116  0.01547     0.16568   7670.16439   7790.05239  2.94329         2691.09701     21.03851  0.60706  56969.46747   3.33085   1.71585   328848.18328  46.12121   22.7653  57014.65659    52.07399       45.66978   10.91331  19.09829   96.5    0.23709  -22.00329  0.93677 
  -13.91169  0.02923  0.85291     13.94429  1.65048  0.90209  28.84827  0.01006     0.43385   5298.89605   9853.54107  2.79224          2641.2454     21.31557  1.14894  56973.26831    4.8319   0.84338    144095.2982    47.466  22.87271  57019.20381    50.99643       44.42023   18.92333  26.54879   36.5    0.31931  -22.66932   0.9966 
  -17.02988  0.02585  1.65971     13.85869  1.93962  1.36311  21.91819  0.01283     0.03423   4710.75851     4938.411  4.15639         2329.25374     21.21485  0.91112  56970.15012   2.90144   0.56667   951094.55611  46.13828  22.81449     57019.04    51.93278       45.45436   14.55108  21.82662   62.0    0.25181  -22.25207  0.99306 
   -15.5206  0.00274  1.21749     13.67965  1.24854   0.6249   7.94931  0.02084     0.08166   7582.00723   4300.03814  4.82524         2185.82738      21.3165   1.1514   56971.6594   2.72599   0.02179   751366.85147  46.31847  22.80584  57019.20381    51.52547       44.90023   19.54621  26.83535   70.5    0.38747  -22.79403  0.99972 
  -15.31428  0.00249  2.88288     14.12353  1.65029  1.41369  19.25836  0.01403     0.04108   3818.24394   3596.26052  3.88738         3020.74026     20.55282   0.1984  56971.86572   1.67484   0.04798    721070.9007  45.70877  22.69795     57021.04    51.93512       45.42071   15.90844  24.10703   42.5     0.2623  -21.29189  0.99774 
  -13.42623  0.01565  2.88264     14.16126  1.60731  1.11846    12.231  0.01935     0.02852   6404.20698   5389.23333  3.20335         2914.18614     20.76718  0.32502  56973.75377    2.9924   0.19145   590155.60273   45.7844  22.79926   57016.9302    51.08264       44.62759   13.64164  20.91718   37.0    0.40416  -21.58981  0.99069 
  -12.00099  0.00531  1.16753     13.78557  1.71771  1.02757  12.98704  0.01569     0.01945   7281.52397   7777.74311  4.15117         2217.60254     21.37364   1.3133  56975.17901   4.10754   0.06899    583662.8203   46.6031  22.70383     57018.05    51.57927       45.13612   13.64164  20.00773   38.5     0.4485  -23.05342   0.9995 
  -17.74762  0.00282  2.67369     13.91294    1.469  1.45842  12.25367  0.01618     0.01533   5536.76707   5314.55989  2.46608         3102.85957     20.81048  0.35909  56969.43238   2.24081   0.03451  1456032.97916  45.41847  22.76143  57014.65659    52.02116       45.61545   12.73219  19.09829   53.0    0.32837  -21.56164  0.99832 
  -11.66281   0.0088  1.14437     14.20825  1.86835   0.9274  33.91514  0.01147     0.41496   6429.93849   3653.66107   2.6732         2783.86003     21.17164  0.82484  56975.51719   8.36439   0.29844     87076.5937  47.48327  22.73142   57016.9302    51.51434       44.92765   16.36996  26.37383   36.0    0.29947  -22.26134  0.99825 
  -21.80559  0.48311  2.50024     14.43853  1.93599  1.15618  27.73778  0.01181     0.01615   3173.63424   4539.33025  2.95806         3367.18595     20.44123  0.15345  56965.37441   1.66653  13.40041   149148.10092  46.58617  22.80883   57016.9302     51.5229       45.06715   11.82275   23.6455  155.0    0.09373   -21.2348  0.73325 
  -14.46792  0.02803  2.05321     13.94965  1.56623  1.39132     5.958  0.04937     0.13047   8415.79892   6893.54348  2.32266          2835.8166     21.03448  0.60146  56972.71208   2.51721   0.16699   773106.04852  45.95059  22.86139  57019.20381    51.07121       44.43615   21.82662   30.0116   44.5    0.38432  -22.05337  0.99569 
  -15.59583  0.14563  1.46651     13.92054  1.61438  0.70799  17.19983  0.01013     0.02636   6231.12317   6534.45402  2.50524         2557.56822     21.25925   1.0092  56971.58417   3.98368   2.50481   464855.19826  46.47696  22.85569  57021.47741    51.73636       45.22868   15.46052  24.55494   68.5     0.3525  -22.44909  0.96922 
  -13.77554  0.02976  1.88507     14.35328  1.94549  0.99958  29.15441  0.01467     0.14856   6161.14429   3495.69932  3.31637         2846.88508      20.9149   0.4567  56973.40446   6.60168   0.86756   126167.14663  46.90627  22.76982     57018.05    51.15966       44.67183   17.27941   23.6455   38.5    0.28764  -21.70482  0.98688 
  -15.35151  0.04376  1.58616     13.81239  1.80452  1.34234   9.30016  0.02596     0.03111   7776.69285   5657.92707  2.99736         2500.64743     21.28488  1.07056  56971.82849   3.35512   0.40697  1000218.12122  46.12442  22.80677   57016.9302    51.29335       44.81378   13.64164  22.73606   56.5    0.36326  -22.64237  0.99492 
  -18.16764  0.03829  3.11452     13.99145  1.40365  1.36004   9.01532  0.02019     0.04041    4157.5465   8741.57239  2.85648          3097.1641     20.27624  0.10495  56969.01236   0.92957   0.34522  1315065.76067  45.31038  22.79543     57018.05    51.23121       44.64802   18.18885  26.37383   52.0    0.31441  -21.12713  0.97619 
   -6.64771  0.00865  1.11294     14.03045  1.49382  1.43859  10.67351  0.04038     0.02956   8228.31505   4569.28095  4.97366         2307.45424     21.17737  0.83579  56980.53229   4.31078   0.09236   149329.21978  47.17606   22.7019   57016.9302     51.8677       45.38293   14.55108  20.91718   34.0    0.38117  -22.22524  0.99928 
   -7.00326  0.04059  0.95608     14.34388  1.67052  0.56027   9.38419  0.03253     0.02139   5523.14144   6676.30869   3.2517         2756.75332     21.21501  0.91146  56980.17674   1.70764   0.38088    29100.18029  48.06682  22.72018  57014.65659    51.22424       44.69052   16.36996  22.73606   32.0    0.35915  -22.35854  0.99823 
   -7.35939  0.01807  1.49927     14.14881  1.70628  1.26535  15.05325  0.02778     0.27779   3482.44659   9576.50883  4.95152          2728.8574     20.86196  0.40429  56979.82061     1.089   0.27205   179473.59086  46.89514   22.8043   57016.9302    51.33389       44.87546   14.55108  20.91718   46.0     0.1905  -21.60714  0.99679 
    -8.7117  0.00216  1.09779      14.3391  2.04575  0.65102  19.63948  0.02276     0.03005   7528.20355   9445.77826  3.10255         2631.46852     21.25093  0.99006   56978.4683   6.63957   0.04241    48029.51357  47.81715  22.74057     57018.05     51.3009       44.75074   17.72733  24.10703   36.0    0.32075   -22.5376   0.9998 
  -20.90455  0.00638  3.60954      14.1194   1.8653  0.53399   8.40923  0.01645     0.04757   6307.40989   5305.29741  3.08235         2953.37121     20.70524  0.28181  56966.27545   1.99565   0.05368  1302183.24783  45.31002  22.79245     57018.05    51.77688       45.30776   14.55108  21.82662   94.5    0.22831  -21.57934  0.99658 
  -11.04427  0.00774  0.92659     14.65884  1.60684  0.14819  19.89583  0.01012     0.03772   5490.49832   4823.58593  2.62218         2568.26834     21.30945  1.13287  56976.13573   3.57777   0.15394     6164.41728  48.75115  22.70471  57021.47741    51.74055       45.22227   17.21388  22.80158   31.5    0.43492   -22.6747  0.99923 
  -15.94692  0.00991  1.15074     13.74606   1.4529  1.05753  19.35673  0.01025     0.13834   5413.70021   4010.38255  2.77533         2637.61768      21.2877  1.07754  56971.23308   3.38413   0.19186   575278.50932  46.54925  22.66923     57018.05    51.44822        44.8665   17.27941  25.46439   44.5    0.36383  -22.55783  0.99826 
  -12.50039  0.02057  2.89615     14.20066  1.72591  1.05242  10.55201  0.02402     0.02293   6804.61769   3287.71979  3.22622         2881.92126     20.82032  0.36732  56974.67961   2.91454   0.21703   533514.17153  45.85507  22.82756  57021.47741    51.68098       45.15375   14.55108  28.19271   37.5    0.42306  -21.68894  0.99042 
  -13.99419  0.03801  1.56976     13.85905  1.31456  0.52691  10.08844  0.01568     0.01086   8069.89611   8999.50352  2.78895         2637.67832     21.23279  0.94954  56973.18581   3.91911   0.38345   575655.05695  46.23579  22.78852   57016.9302    51.43956       44.99402     12.211  23.25726   58.0    0.35664  -22.52119  0.99242 
   -10.1178  0.01479  1.59652     14.59785   1.5353  0.23283  11.95262  0.03041     0.49409   8096.85619   9945.11617  3.75004         2624.84751     21.14802  0.78118   56977.0622   4.67437   0.17679    23155.69572  47.68403  22.81337     57018.05    52.07447       45.65006   12.73219  20.00773   36.0    0.37171  -22.29453  0.99717 
   -5.07493    0.009  0.74066     14.25757   1.7099  1.19341  10.74174   0.0232     0.20665   5484.97715   3111.63158  2.67518         2845.01729     21.12354  0.73835  56982.10507   1.92775   0.09666    26600.14012  48.33769  22.84475  57019.20381    51.45951       44.98891   14.55108   23.6455   27.5    0.46136  -22.14294  0.99983 
  -13.86907  0.00919  2.70509     14.13144  1.94446  1.04859  11.81468    0.014     0.08023   6570.26445   9621.90568  2.54482         2910.42316     21.05155  0.62558  56973.31093   3.04239   0.10863   721277.89378  45.83518  22.74252   57016.9302    51.23925        44.7069   14.55108  21.82662   44.5    0.43524  -21.97721  0.99647 
   -8.92681  0.03671  1.54677     14.08448  1.80215  1.13797   11.7209    0.016      0.4439   5700.46262   9076.42988  2.69161         2828.92214     21.19364   0.8677  56978.25319     2.272    0.4303   271331.44358  46.71229   22.7744     57018.05    51.23852       44.74478   15.46052   23.6455   30.5     0.4805  -22.32062  0.99495 
   -9.63603   0.4244  3.27591      15.0246  1.81482  0.15994   2.15713   0.0954     0.11488   7758.92797   9022.84135  2.83078         3118.63566     20.80703  0.35625  56977.54397   0.77465   0.91548    16147.83824   47.2889  22.75393  57019.20381    51.20788       44.63637   19.03277  25.52991   33.5    0.52552  -21.77113  0.95386 
  -17.43125   0.0298  2.25543      14.3816  1.49325  0.13275   4.79326  0.01686     0.24447   7349.62199   7207.74295  3.14885         2686.97859      21.0358  0.60329  56969.74875    1.5445   0.14283   121677.52462  46.65131  22.73139     57021.04    51.64521       45.13118   15.46052  25.46439  124.5     0.1803  -22.00497    0.995 
  -11.01554  0.00664  0.97868     13.88054  1.73265  1.29995  20.39116  0.01342     0.02163   7269.87956   9783.40155  2.43573         2567.02874     21.31962  1.15971  56976.16446   6.42871   0.13531   267136.94426  47.09954  22.80113     57018.05    52.07253       45.58957   15.46052  22.73606   36.0    0.40959  -22.77357  0.99932 
  -15.02934  0.00627  1.74819     14.12622  1.78654  1.04806   7.99026  0.05089     0.01035   7741.62298   9485.13311  2.63838         2898.23696     21.07638  0.66239  56972.15066   2.85662   0.05011   283508.04094  46.58311  22.76387     57018.05    51.48611       44.93704   16.36996   23.6455   36.0    0.33052  -22.12314  0.99923 
  -11.16999   0.0781  2.37759     14.13917  1.69714  1.55945  18.14385  0.01221     0.01774   4725.97022   8731.48104  3.70436         2892.53481     20.92951  0.47233  56976.01001   2.41735   1.41705   469311.28839  46.07483  22.71752   57016.9302    51.71209       45.24139   15.46052  20.91718   36.5    0.36728  -21.73801  0.95836 
   -9.54435  0.07266  1.71618     14.67559  1.75057  0.30839  12.85347  0.01101     0.09732   3901.81788   6666.33748   2.9618         2866.96119     21.07004  0.65278  56977.63565    1.1673   0.93396    21327.41874  47.71396  22.85905     57021.04      52.002       45.43348   17.72733  25.01647   29.0    0.47615  -21.87081  0.98617 
  -15.72025  0.37795   4.6182      14.4091    1.668  0.86847  11.01384  0.01255     0.07489    3787.8493   3053.57385  3.79724         2946.62252      19.8916  0.04328  56971.45975   0.94265    4.1627   502065.43303  45.46134  22.66782  57019.20381    50.96241       44.42439   17.27941  25.46439   88.5    0.32529  -20.99845  0.66787 
  -15.10571  0.05065   1.3703     13.78685  1.57423  1.04813  10.76602  0.02164     0.25676    8295.6814   8009.65578  2.52583         2564.88916     21.28521  1.07137  56972.07429   4.41963    0.5453   732492.41389  46.32748  22.78003  57021.47741    51.52541       44.99686   17.10444  23.82047   57.0    0.38374   -22.6682  0.99378 
  -26.20615  0.02149  2.86992      13.9192  1.32589  0.49945   5.96701   0.0419     0.08752   7047.72973   8171.30319   2.9293          2957.3001     20.47174  0.16461  56960.97385     1.768   0.12822  1471137.48739  45.30796  22.83696  57023.75102    51.26693       44.49529   25.46439  44.56268   80.5    0.19895  -21.52598   0.9914 
