 log(Bfield)      Mns    Pspin  cutoff_power  cutoff_wavelength  fnickel    kappa  kappagamma   mejecta  log(nhhost)  temperature  texplosion  thetaPB      vejecta      A_V        MJD_0   log(KE)      M_Ni  Peak_mag     Peak_MJD 
    14.60823  1.61907  1.26179       4.84179         2141.05198  0.06937  0.06651     0.03257   6.18002     21.33755    8833.8662   -13.59091  0.12541   10617.0975  1.20859  56973.58909   52.6039   4.14445  22.83802     57021.04 
    13.81364  1.94317  2.44875       2.34762         2493.59684   0.4898  0.01807     0.14962   9.93529     21.15356   7484.19231   -17.34863  0.94208  11040.77993   0.7912  56969.83137  52.68514  32.62366  22.74374  57022.11707 
    13.85308  1.84072  1.45333       4.58356         2110.76221  0.23047  0.01047     0.24014  37.02896     21.32827   8495.24178   -13.07195  1.34707  11238.82816  1.18305  56974.10805  52.80971  19.73575  22.73895     57021.04 
    13.64169  1.48205  1.98928       2.88663         2673.76272  0.00494  0.01283     0.33818    9.1479     21.16878   7828.05312   -14.34218  1.54928   6474.44107  0.81942  56972.83782  52.21369   0.32339  22.78557     57018.05 
    14.01745  1.88297  4.35236       2.57399          2915.5108  0.25283  0.01413     0.01569  11.31824     20.61166   6658.09553    -17.3422  0.98897   8114.66529  0.22719   56969.8378   52.4298  17.31677  22.83774  57019.45569 
    13.92027  1.47909  3.36313       3.06874         2945.94766  0.06525  0.02672     0.09429   5.60981     20.67813   8653.58783   -19.38208  0.86493    5833.7791  0.26476  56967.79792  52.07349   3.80672  22.75809     57021.04 
    14.46851  1.74758  2.12356       3.02915         2834.73709  0.01017  0.04144     0.01281   4.54022     20.96942   6097.91739    -6.71499  0.62361   5461.77572  0.51778  56980.46501  51.99287   0.56223  22.85766  57014.13293 
    14.26173  1.85734   2.3478       3.29756         2488.90578  0.00172  0.04128     0.05464   4.32467     21.16222   4832.68611   -17.56932  0.32617   8104.46661  0.80713  56969.61068  52.33009   0.09379  22.68413     57019.04 
      13.806  1.24685   1.2663       2.71501         2576.41686   0.0248  0.01897      0.0139  14.13704     21.26973    9408.7262   -14.42875  0.67296   7780.26083  1.03385  56972.75125  52.41318   1.77856  22.83792     57021.04 
    14.00101  1.88501  1.87315       3.31603         2422.92669  0.00129  0.01545     0.02035  10.65188     21.26474   3107.89093   -17.37997  0.65056   6303.18144  1.02204  56969.80003  52.20478   0.08727  22.77726     57018.05 
    13.49959  1.66733  1.47354       4.19305         2221.40132  0.05823  0.05588     0.02417   4.93199     21.31794   4136.37228   -20.81868  1.48888     9582.067  1.15522  56966.36132  52.49042   3.28856  22.77979  57016.79431 
     13.9249  1.36023  1.74703       2.84432          2436.2159  0.02536  0.02057     0.17568   9.81038     21.19959   8666.41196   -13.63059  0.51968  10603.78418  0.87967  56973.54941  52.64887   1.68481  22.76718     57018.05 
    13.83461  1.64768  2.22773       2.74009         2762.52097  0.07745  0.01742     0.24505    7.7334       21.114   8889.21925   -16.15772  1.10587   5372.14473  0.72232  56971.02228  52.03514   4.87794  22.92263     57021.04 
    14.38559  1.81997   1.4398       3.20581         2664.73732  0.06824  0.01417     0.03703  25.65695     21.16546   4908.47159    -8.56295  0.58568   6877.76219  0.81319  56978.61705  52.35538   5.48146  22.81773  57016.79431 
    13.79757  1.94408  1.22173       2.71324         2388.50459  0.10594  0.01036     0.02957  18.91595     21.39463   7718.56767   -14.60034  0.89512   8245.87661  1.37835  56972.57966  52.48845   8.04266  22.81692  57016.79431 
    14.76407  1.53397  1.65904       3.52526          3014.6037  0.00182    0.012     0.02427  37.56374     19.79088   5439.15316   -12.81829   0.2762   3086.40553  0.03432  56974.36171  51.68822   0.15653  22.75117  57016.79431 
    14.09557   1.8635  1.11908       3.09536         2591.03146  0.05697   0.0101     0.27326  19.73678     21.26358   5668.57661     -6.6691  1.45798   5250.43706  1.01932   56980.5109  52.09987   4.35997   22.8136     57018.05 
    13.72501  1.19695  1.65145       2.46878         2695.90821  0.00196  0.04366     0.03702   3.99896     21.15702   8272.10792    -17.0853   0.5266    8961.0049  0.79754   56970.0947  52.40825   0.10457  22.75427  57019.45569 
    13.72339  1.64419  1.73817       2.62043         2505.53065  0.03714  0.01303     0.06879   9.16211     21.24954   6638.84674   -14.74139  1.12607   6861.65963  0.98688  56972.43861  52.26429   2.43006  22.75613  57019.45569 
    13.88313  1.81616  2.12859       3.64803         2462.66181  0.09151  0.03036     0.35568   6.34905     21.21572   9856.60299   -15.45037  0.92702   8126.31293  0.91296  56971.72963  52.37451   5.50224  22.73144  57016.79431 
    13.91698  1.75227  0.92206       4.86338         2004.89342  0.00276  0.05414     0.23981   8.23497     21.37244   4643.53833    -6.93755   1.1757  11472.05759  1.30968  56980.24245  52.70035   0.17646  22.69717     57018.05 
    14.86009  1.81546  1.41594       3.13149          2547.0515  0.00278  0.01705     0.04698  14.31338     21.31223   9250.79313   -12.36731  0.10625   7041.28098  1.14015  56974.81269  52.32758   0.19971  22.82644  57016.79431 
    13.97844  1.70539   1.5704       4.65996          2242.1377  0.01563  0.02538     0.04882   13.6702     21.27924   6788.89261   -14.82288  0.68787   8916.44421  1.05673  56972.35712  52.52862   1.11348  22.82921     57018.05 
    13.74516  1.46398  1.50332       4.49019         2312.26394   0.0643  0.01664     0.01634  10.50293     21.28395   5646.26842   -14.87883  0.84066    6435.1932  1.06827  56972.30117  52.22147    4.3343  22.71802     57018.05 
    14.34086  1.42054   1.4723       2.69435         2893.42687  0.01154  0.02605     0.01614  10.03359     20.98269   8623.61828    -8.36474  0.58387   5562.56201  0.53384  56978.81526  52.09062   0.76994  22.80673     57018.05 
      14.376  1.51727   3.0268       2.95427         2672.57944  0.36451  0.05916     0.04005   3.46732     20.83428   9642.64119   -17.86131  0.31335   6910.76163  0.37932  56969.31869  52.16549  18.72902  22.78867  57016.79431 
    14.10615  1.57054  1.72197       3.11955         2854.79042  0.02273  0.01275     0.01079  12.31758     21.03703   7066.11312    -7.82676  1.05226   3539.31846    0.605  56979.35324  51.71679   1.58443  22.80286     57018.05 
    13.83268   1.4143  1.16152       2.36638         2523.35852   0.0834  0.02118     0.01942  11.37397     21.34421    6268.4866   -17.13988  0.43554   8768.61438  1.22727  56970.04012  52.49757   5.71799  22.74868  57016.79431 
    13.78797  1.43206  1.88647       3.18098         2652.13011  0.28009  0.01835     0.45543   8.76768     21.16132   6623.95735   -14.47164  1.56886   5695.56752  0.80547  56972.70836  52.09826  18.14927  22.77851  57014.13293 
    14.54826  1.87036  2.50515       3.48832         2789.85763  0.01222  0.01849     0.02814   8.11557     21.06072    7408.0757     -11.132  0.35045   4434.00116  0.63892    56976.048  51.87322   0.77846  22.85484     57018.05 
    13.83577  1.63297  1.42181       4.62149          2299.5307  0.02471  0.01025     0.19916  14.75485     21.30107   3865.96291    -9.03538  1.18629   5068.99772  1.11121  56978.14462  52.04476   1.78752  22.79132     57018.05 
    13.89724  1.63053  2.11792       2.41183         2743.91383  0.02088  0.01292     0.08171  10.84696     21.13206   7749.46525    -13.2505  1.49446   6427.48452  0.75298   56973.9295  52.22342   1.41694  22.78085  57016.79431 
     14.2962   1.3189  1.97736       3.48026         2223.89569  0.33612  0.09596     0.12336   6.92454     21.02764   6829.19013   -13.71624  0.37157  16937.71511  0.59207  56973.46376   53.0214  20.63282  22.83154     57019.04 
    13.67479  1.74001  1.36612       3.14106          2405.9887  0.07585  0.01024     0.06766  17.35738     21.35831   8059.77967   -18.12978  0.90182   7300.87286  1.26777  56969.05022  52.37555   5.66441  22.79919     57018.05 
    14.30589  2.15015   1.9441       2.85942         2518.37266  0.00599  0.03526     0.03811   6.52751     21.23462   7323.83488   -10.43611   0.6803   8031.46464  0.95355  56976.74389   52.3672   0.36231  22.76767  57019.45569 
    14.13778  1.73898  3.98592       2.43613         3195.18328  0.02032  0.02561     0.05142   6.43956     20.46292   7520.80001   -16.39975  0.93212   5791.15018  0.16131  56970.78025  52.08173   1.22603  22.68763     57018.05 
    13.84869  1.74254  2.09726       2.42926         2743.89799  0.01986  0.01444     0.19929   8.95556     21.19405   9159.43824   -14.99175  0.95806   7129.54323  0.86851  56972.18825  52.29536   1.29285  22.85528     57021.04 
    14.53945  1.50205  2.66697       2.66685         2941.98455  0.41735  0.02345     0.04712   9.85654     20.86972   8480.11036   -14.63336  0.28481   6305.01361  0.41157  56972.54664  52.19776  27.74995  22.76629     57021.04 
    13.77143  1.42221  1.56697       3.46039          2139.7961  0.48707  0.04216     0.26771   6.61765     21.27855    8624.7289   -14.84799  0.68489  14251.55696  1.05506  56972.33201  52.86675  29.57919  22.80968     57019.04 
    13.91496  1.39645  2.43783       3.08942         2774.74065  0.01195    0.014     0.01342  17.26669     20.83309   9508.76144   -12.39872  1.54344   6658.43075  0.37828  56974.78128   52.2951   0.89142  22.86866     57021.05 
    14.18712   1.7201  2.19993       2.93668         2672.95929  0.00329  0.02129     0.11421   7.11398     21.13946   5550.59514   -12.26238   0.6074   5965.38816  0.76593  56974.91762  52.11772   0.20326  22.56956  57016.79431 
    14.14084  1.76809  2.56896       2.95078         2743.08021  0.02091  0.01282     0.13211  11.42535     21.06327   4852.57942   -12.09602  0.84652   5491.82949  0.64269  56975.08398  52.09156   1.43486  22.77156     57021.05 
    14.43792    1.718  1.44772       3.26106         2879.93758  0.00124  0.03161     0.06752   9.70285     20.92967   3117.50774    -4.83588  0.72961   4978.38945  0.47249  56982.34412  51.99108   0.08227  22.72195     57018.05 
    14.25181  1.79094   1.2494       3.09706         2283.00282  0.01043   0.0126     0.32828  25.35011     21.29999   6059.16076   -11.59015  0.43012   8189.05901  1.10846  56975.58985  52.50601   0.83607    22.834  57014.13293 
    14.86351  1.85486  2.35463        2.4415         3233.20586  0.00794  0.01726     0.01295   9.72167     20.88399   6883.17736   -10.45376  0.23069   4095.38787  0.42532  56976.72624  51.82168   0.52664  22.76434     57018.05 
    14.74402  1.66417  5.55182       2.08463         2870.77071  0.44038  0.02452     0.02261  17.65937     20.17127   5951.08795   -13.39348   0.3296  16190.35589  0.08241  56973.78652  53.06876   32.9951  22.78225  57014.13293 
    14.86462  1.94411  2.53104       3.23783         2886.95718  0.00802  0.02253     0.17163   9.55351     20.73909   3659.88971   -10.02293  0.29206   4056.11979  0.30466  56977.15707  51.81165   0.52971  22.85507  57016.79431 
    14.98184   1.9548   3.1232       3.73489         2768.93635  0.23037  0.04935     0.05741   4.19924     20.90113   7560.68157   -11.77757  0.17175   5632.54697  0.44244  56975.40243  52.01065  12.47481  22.81804     57019.04 
    13.69608  1.49593  2.40621       3.90295         2362.40261  0.21031  0.04354      0.3451   4.18497     21.08123   6327.24961   -14.71602  1.46952  10339.96701  0.66981  56972.46398  52.53788  11.37848  22.62673     57018.05 
    14.00364  1.93501  2.18541       2.99032         2568.60188   0.1351  0.01439     0.11113  11.67348     21.19665   8340.14139    -18.6951   0.5052   7284.80326  0.87373   56968.4849  52.33892    9.3132  22.73534     57021.04 
    14.13786  1.77034  2.26143       2.95807         2785.06893  0.22875  0.01499     0.07143  14.36966     21.12166   8783.38709   -13.28318  0.76915   6738.40373  0.73517  56973.89682  52.28973  16.45674  22.71661  57016.79431 
    13.98143  1.52359   1.9264       2.88001         2772.17489  0.01099  0.05244     0.11424   4.03939     21.13524   5582.57753   -11.15179  1.30324   6888.30527  0.75852  56976.02821  52.18094   0.58895  22.79073     57018.05 
    13.87963  1.57237  2.75491       3.09116         2844.43445  0.03972  0.03104     0.23167   5.21691     20.94069   7241.30186   -16.77947  1.03008    5496.7944  0.48464  56970.40053  52.01392   2.27575  22.75868     57018.05 
    14.18116  1.82825  3.91886       3.76866         2802.61794  0.00784  0.01835     0.36354  10.00543     20.53863   6312.06267   -15.12563  1.43808   5500.20615  0.19202  56972.05437  52.08056   0.52297   22.8108  57019.45569 
    14.10889  1.67303  2.02722       2.14078         2606.02237  0.14674  0.03155     0.23183   8.92921     21.15255   6372.15854   -17.49533  0.52468   9580.28744  0.78937  56969.68467  52.55171   9.54735   22.6548     57018.05 
     14.1887  1.57301  2.19908       3.28107         2875.24703  0.01003  0.02827     0.09303    7.9654     20.89828   4824.60168    -9.73093  1.08617    5165.2188  0.43955  56977.44907  52.00396   0.63627   22.8138  57019.45569 
    13.95602  1.64405  2.75602       3.50311         2776.92599  0.05149  0.01001     0.21005   7.33438     21.01966   8374.59818   -15.69967  0.67793   4420.31274  0.58128  56971.48033  51.86044   3.20384  22.79922  57022.11707 
    14.16198  1.85872  4.26565       3.13064          2804.7461  0.06831  0.01564     0.01152    15.273     20.43898   4447.09148   -17.53071   1.3858   6550.79577  0.15265  56969.64929  52.27049     4.975  22.85277  57019.45569 
    14.39904  1.93236  3.60548       2.13731         2986.94633  0.04862  0.08574     0.19169   2.16592     20.85909   5448.82509   -15.45446  0.45891   8369.05535  0.40163  56971.72554  52.27009   2.16718  22.78225  57024.77845 
    14.26544  1.90575   1.2779       2.01673         2332.40522   0.0012  0.03066     0.31485  12.52718      21.2996   6277.33111   -11.20566  0.48571  12326.93213  1.10746  56975.97434  52.80218   0.08427  22.84818  57019.45569 
    14.04098  1.58849  1.69761       2.45454         3043.41529  0.03765  0.01078     0.12437  16.26408     21.07846   8358.25818   -10.56834  1.37277   4215.24201  0.66556  56976.61166  51.89294   2.77592  22.85908  57022.11707 
    13.99021  1.57118  1.34718       4.97253          2261.3127   0.0318  0.02385     0.39879  13.30154     21.29616   3766.08439    -7.82649  0.84218   9466.09059  1.09873  56979.35351  52.57816   2.25233  22.78371     57021.04 
    14.83276  1.92989  2.00392       2.92254         3124.69868  0.01126  0.01031     0.03444  19.87346     20.73673   4987.01386    -5.71372   0.3967   3938.94687  0.30301  56981.46628   51.8508    0.8628  22.80128  57016.79431 
    14.33631  1.70286  2.45302       2.84658         2981.46922  0.41069  0.02229     0.22792  12.82054     20.70864   8169.61625    -9.05162  1.49477   5888.43144  0.28404  56978.12838  52.16254  28.86889  22.87475     57019.04 
    14.01635  1.41205  0.89822       2.11271         2803.06632  0.00235  0.04353     0.24602   6.16106     21.22209   5455.67269    -5.99486  1.00077   7499.37265  0.92645  56981.18514  52.30162   0.14005  22.72722  57016.79431 
    13.97619  1.48939  3.11362       3.14607         2940.18105  0.02862   0.0146     0.02025   6.29385     20.84596   4173.04542   -14.75882  0.75259   4546.00063  0.38966  56972.42118  51.86907   1.71714  22.87107  57022.11707 
    14.32126  1.41612  1.16985        2.9161         2847.62911  0.00235  0.01973     0.01683  20.07614     20.98027   3275.37316    -5.36324  0.70263   6849.76804  0.53088  56981.81676  52.33222   0.18016  22.72487  57016.79431 
    13.72708  1.44762  3.44171       3.21446         2775.37333  0.07378  0.01468     0.07788  13.81228     20.40425    9603.8134   -19.43174   1.3037   9080.46744  0.14092  56967.74826  52.54536   5.26556  22.79165     57019.04 
    14.01983  1.39957  1.70197       2.49078         2875.05229  0.00495  0.02367     0.08041   9.24187     21.07422    9747.8665    -9.19846  1.23221   6749.46289  0.65909  56977.98154   52.2508   0.32431  22.79052     57021.05 
    14.30467  1.43049  1.27706       2.87657         2952.47091  0.00428  0.06872     0.05443   3.89127     20.82717   4132.13967    -4.60434  1.02967   5491.69114  0.37316  56982.57566  51.97973   0.22694  22.75858     57018.05 
    14.47586  1.60405  2.51437       3.44038          2920.0539  0.11719  0.03547     0.04517   6.52957     20.74039   6124.28408    -9.20464  0.59398   5193.64603  0.30557  56977.97536  51.98858    7.0942  22.72837     57019.04 
    14.11833  1.48256  2.48755       3.66435         2927.94329  0.00825  0.01791     0.12779  10.26467     20.77071   6836.73563   -11.09817  1.20956   3984.77006  0.32767  56976.08183  51.80301    0.5536  22.64459     57018.05 
    13.94952  2.02283  1.97967       3.37117         2388.86453  0.23498  0.01678     0.20827   9.81125     21.23725   5476.29039   -12.69888  1.49586   6186.48981  0.95936  56974.48112  52.18084  15.60852  22.77407  57016.79431 
    14.07523  1.73674  1.91159        2.5402         2720.32815  0.05176  0.01736     0.10166  12.55993     21.13519   5315.06638   -14.05425   0.9261   5563.25386  0.75842  56973.12575  52.11136   3.62269  22.66834  57016.79431 
    14.05573  2.01139  1.37856       2.34272         2682.02306  0.00143  0.01994      0.0343   11.6364      21.3246   8276.07893   -10.82062  0.84129   7703.90131  1.17307  56976.35938  52.38722   0.09867  22.81101     57018.05 
    14.10514   1.8555  1.97354       4.38238         2441.40801  0.02099  0.01618     0.13089  17.49855     21.17826   4109.50267    -7.66727  1.45184   8900.95362   0.8375  56979.51273  52.54836   1.56988  22.82339  57019.45569 
    14.48009  1.77281  2.45222       3.72194         2349.29406  0.39772  0.07167     0.12129   3.44968     21.13053   5502.78421   -12.36119  0.25575  11104.83276  0.75034  56974.81881  52.57684  20.40635  22.87132     57018.05 
    14.13442  1.83666  2.67907       3.04586         2861.39964  0.04905   0.0145     0.06863   8.32471     21.02962   7991.59726   -13.02618   0.9079   4445.94908  0.59476  56974.15382  51.87806   3.14179  22.81498  57016.79431 
    14.31723  1.50073  1.60699       3.31503         2370.49967  0.01176  0.03099     0.03845   6.27026        21.25   6815.87969   -12.68878  0.23785   8109.37848  0.98793  56974.49122  52.37139   0.70518   22.7964     57021.04 
     14.0276  1.30533  2.73096       1.81721         3307.53342   0.0276  0.06004     0.09528   5.10069     20.46458   3518.09682   -13.57419   1.3172   8160.10831  0.16192  56973.60581  52.35462   1.57199  22.71988     57019.05 
    13.99698  1.68639  2.52727       2.41119         2932.79394  0.02923  0.01524       0.046  15.00563     21.00413   5914.16729   -15.08994  1.29988   7159.47133  0.56087  56972.09006  52.34614   2.12105  22.79071  57016.79431 
    14.26361  1.73133  1.98289       4.10857         2216.50246  0.43938  0.03148      0.1564   6.74076     21.21212   8844.86075   -17.96959  0.20998  11846.76293  0.90541  56969.21041  52.70813  26.80062  22.72627  57019.45569 
    14.34126  1.52235  3.21136       2.24232         3125.56712  0.15222  0.01203     0.02041  16.59385     20.67548   4094.30019   -16.14959   0.4927   6214.43798  0.26315  56971.03041   52.2318  11.26785  22.72888     57021.04 
    14.08327    1.807  4.04039        3.1874         2919.16678  0.00269  0.02882     0.36174   4.71364     20.55616   6068.65022   -19.58554  0.84382    5886.0963  0.19993  56967.59446  52.06209   0.15009  22.85385     57021.05 
    14.14714  1.78533  3.14515       2.50428         3006.51181  0.00128  0.01209     0.07023    7.3262     20.92459   8860.70753   -13.66527  0.53062   5711.63912    0.467  56973.51473  52.08294   0.07985   22.7393  57016.79431 
    14.56129  1.91211  1.45725       3.69844         2299.23622  0.00421  0.01789     0.02719  24.22591     21.21591   9645.41217   -11.31871  0.31719   8816.24062  0.91335  56975.86129  52.56654   0.33429  22.75528     57019.04 
    14.49219  1.85648  1.87817       2.51614         3144.53703  0.00383  0.04607     0.02045   5.41891     20.35777   5210.31603    -5.34183  1.46781   4757.99682  0.12662  56981.83817   51.8927   0.22128   22.6822     57019.04 
    13.84054  1.44791  2.06113       2.31787         2862.15622  0.00239  0.01913     0.39153  12.52453     21.06359   3355.61368   -17.30579  1.31129   6967.19487  0.64316  56969.87421  52.30656   0.16746  22.73556  57014.13293 
      13.964  1.74871  2.99041       2.50177         2926.20468  0.00793  0.02393     0.17659   5.24715     20.92331   7457.17622   -15.93184  1.46391   5026.47855  0.46562  56971.24816  51.93687   0.45516  22.78293  57016.79431 
    14.70278   1.8486  4.02667       2.55717         3028.70243   0.0467  0.02403      0.0147   6.31673     20.58894   5616.77514   -15.51956  0.26817    5951.9474  0.21561  56971.66044   52.1035   2.80487  22.81276     57018.05 
     13.9331  1.67994  1.10725       2.91601         2606.48253  0.02081  0.01289     0.41816  21.33153      21.2792   5915.09432   -10.13386  1.49398   5810.75408  1.05663  56977.04614  52.19427   1.61607  22.75739  57016.79431 
     14.4755  2.09154  1.25071       2.98816         2823.32898  0.00744  0.01923     0.04401  12.35224     21.08202    7991.1193    -6.12919   0.8333   4363.91405  0.67103  56981.05081  51.89896   0.51865  22.72411     57018.05 
    13.83371  1.48321  2.32717       3.10858         2808.63323  0.07871  0.01152     0.40508  11.03314     21.05692   6789.50049   -14.15742  1.17774   4944.55334  0.63336  56973.02258  51.99717   5.36207  22.88514  57019.45569 
     14.0583  1.93256  3.79912       3.22859         2821.03301  0.01647  0.05724     0.02653   2.84599     20.77546   7580.66692   -15.73728  1.35196   6028.10005  0.33128  56971.44272  52.02196   0.79905    22.722  57016.79431 
    14.41125  1.80295  1.74803       2.72561         2709.01401  0.05813  0.02662      0.4164   8.20806     21.19068   7209.49044   -10.80365  0.41215   6024.67129   0.8618  56976.37635  52.14062   3.71098  22.72455  57014.13293 
    14.19839  2.01341  2.77088         4.913         2304.72791  0.16814  0.04099     0.02521   9.19348     21.07245   5148.19472   -16.92864  0.68768  10629.95385  0.65641  56970.25136  52.64482  11.01038   22.7314  57016.79431 
    14.09336  1.76569  3.80426       2.71582         2969.16111  0.04065  0.02131     0.05493  10.09317     20.31472   9263.10409   -21.36192  0.96331   5120.90683  0.11467  56965.81808  52.01932   2.71697  22.82747     57018.05 
    14.22841  1.98019  1.03321        3.1988         2758.41533  0.00268  0.01355     0.11453  23.19278        21.12   4610.67792    -5.85539  1.46711   4330.07708  0.73236  56981.32461  51.94551   0.21128  22.74958     57018.05 
    14.90218  2.01247  2.69279       2.76608         2753.89607  0.41218  0.01486      0.3616  10.77462     21.12251   3561.29257   -20.06313  0.09219   6378.64394  0.73661  56967.11687  52.21618  27.93691  22.82181     57018.05 
    14.24612  2.17722  2.42735       2.25756         2874.48379  0.01805  0.01876     0.01431  14.26401     21.10446   8307.38138   -14.57195  0.83733   7131.94425  0.70663  56972.60805  52.33839   1.29636  22.91858  57019.45569 
    13.77701  1.60947  1.70173       2.29423         2511.70043  0.07661  0.01418     0.13262  18.07785     21.20733   5387.51002    -15.8828  1.29038   8247.43402  0.89549   56971.2972  52.48485   5.76561  22.72532  57014.13293 
    14.46048  1.93853  1.62176       3.25516         3076.04711  0.05882  0.02189     0.01558   9.61761     20.81503   6384.34207    -5.59074  1.16405   3746.08563  0.36287  56981.58926  51.74322   3.89008  22.72607     57018.05 
    14.23601  1.95998  2.14558       2.24178         2739.87338  0.00243  0.02508     0.01776   7.99793     21.20597   9866.43644   -17.37622   0.3521   8300.89417  0.89269  56969.80378  52.41644   0.15411  22.85916     57021.04 
    14.40919  1.98678  2.61184       3.29386         2709.16919  0.12324  0.01474     0.16338   8.39099     21.12844   8151.74311   -21.60598  0.26027   5344.42825  0.74673  56965.57402  52.03871   7.90745  22.77981  57016.79431 
    13.67453  1.44363  2.08254       2.79037         2742.69191  0.44637  0.01401      0.1248   8.71805     21.14605   5490.51106    -15.9603  1.34368    6096.5903  0.77763   56971.2197  52.15681  28.88739   22.8476  57022.11707 
    14.22845  1.75388  2.82142       2.66463         2948.25255  0.00147  0.01866     0.02645  12.96354     20.71705   6785.73653   -11.93823  1.47696   5776.41826  0.28959  56975.24177  52.14685   0.10383   22.7011  57016.79431 
    13.86486  1.46022  2.13668       2.27753         2728.64269  0.29269  0.07564     0.11468   4.04626     21.05006   8556.73371   -15.89146   1.3563   9324.43559  0.62343  56971.28854  52.44416  15.69258  22.74578  57019.45569 
    13.87313  1.44276  1.35172       4.84686         2000.49486  0.14257   0.0793     0.01107   6.15497     21.27776   7378.92117   -11.42943  0.81337  13072.89792  1.05314  56975.75057  52.78421   8.50866  22.81752     57018.05 
    13.85858  1.47901  1.16178       3.67356         2287.71004   0.0213  0.01156     0.01394  15.31474     21.36115    7666.4278   -11.50941   0.6762   6818.15265  1.27608  56975.67059  52.30547   1.55223  22.76866  57016.79431 
    14.15542  1.79151  0.89137       4.05824         2303.17039  0.16633  0.01273     0.18708  28.48147     21.35676   4451.97565    -6.58444  0.72816   8494.54215  1.26324  56980.59556  52.54686  13.61209  22.88464  57024.77845 
    13.92284  1.47737  0.97218       2.86762          2664.0192  0.04571  0.01187     0.02037   18.4118     21.25738   8894.89056    -6.81841  1.19135   4939.93992  1.00486  56980.36159  52.04118   3.45218  22.77953  57019.45569 
    13.91843    1.599  2.64141       3.60689         2699.55266  0.01181  0.02204     0.01827   5.32031      21.0368   4247.96532   -13.38832  1.01757   5336.98794  0.60468  56973.79168  51.99044   0.67999  22.74061  57016.79431 
    14.14131  1.57022  0.70813       3.25497         2267.84746  0.00183  0.02615     0.05332  28.76693     21.30082   8479.00101     -6.2214  0.64115  11746.05784  1.11057   56980.9586  52.82913   0.14997  22.78242  57016.79431 
    14.36593  1.65475  3.16288       4.46452         2834.86417  0.08999  0.01345     0.20615  17.88548     20.56391   4948.10627   -10.98258  0.78474   4887.60507  0.20353  56976.19742  52.02951   6.75888  22.83441  57016.79431 
    14.17646  1.84876  3.65932       3.75416         2992.66367  0.00728  0.02324     0.17539   7.85791     20.64431   8057.20688   -14.41754  1.33303   4790.77589  0.24493  56972.76246  51.93725   0.46004  22.85075  57016.79431 
    13.78321  1.69743  1.03089       3.73135         2371.21626  0.03585  0.01046     0.01045  26.68813     21.35865   5037.85267   -15.32826  0.91151   4954.80016  1.26874  56971.85174  52.07361   2.89989  22.76875  57016.79431 
    13.48119  1.26003  1.08956       4.90812         2187.27397  0.02118  0.01784     0.23991  10.55694     21.36999   4835.28454   -16.60906  0.80792   7614.19381  1.30231  56970.57094  52.36807   1.42953  22.92685     57019.04 
    14.55536  1.76438  3.50631       3.20298         3019.48007  0.07093  0.02148     0.01069   7.89659     20.59871   6889.71428   -24.53676   0.2598    3631.8953  0.22051  56962.64324  51.69719   4.48895  22.75648     57018.05 
     13.7714  1.76085  2.35234       3.04993         2398.13711  0.02919  0.01751     0.46721  15.42825     21.13001   4004.13909   -18.19245  1.10356   11063.1428  0.74944  56968.98755  52.72653   2.13008  22.88559     57018.05 
    13.74443  1.57348  1.42311       3.97979         2211.43258  0.00761  0.02683     0.04168   6.95752     21.33628   9609.72599   -13.79616  0.78959   9077.63869  1.20506  56973.38384  52.48012   0.46796  22.83498     57018.05 
    14.20911  1.75038  3.51635       3.03676         3188.98865  0.00737  0.01311     0.21989  11.89554     20.60767   9229.73161   -13.95209  1.03753   4459.21811  0.22511  56973.22791  51.91432   0.51031  22.76683     57019.04 
    14.85606  1.96959  2.57507       2.74943         2954.70957  0.00702  0.04488      0.1144  10.23822     20.50679   4035.98257    -9.22305  0.33183   7588.98245  0.17845  56977.95695  52.36233   0.47031  22.87005     57019.05 
    14.08941  1.59779  2.90918       2.79025         3094.56656  0.01456  0.06516     0.01426   6.31226     19.91024   7531.67911   -23.19307  1.49632   4670.59061  0.04518  56963.98693  51.89286   0.87449  22.81408     57018.05 
    14.35572  1.80225  1.90448       3.07186         2691.00731  0.00629  0.04179     0.33373   6.29479     21.06019    3859.9916   -10.42108  0.66761   5997.79496  0.63815  56976.75892  52.10981    0.3775  22.72156  57019.45569 
    14.02028  1.82542  1.35693       2.88724         2332.32837  0.12842   0.0319     0.35696  14.17694      21.2383   7958.18301    -9.67552  1.52273  10312.41591  0.96166  56977.50448  52.65816   9.21396  22.82858  57016.79431 
    14.60568  1.67409  1.70711       2.56699         2896.81594  0.02368  0.02029     0.02442  15.70181     21.00032   4975.25632   -10.48822  0.31839   5755.84999  0.55596  56976.69178  52.16051   1.73396  22.75411  57014.13293 
     13.7779  1.68764  1.94118       4.23293         2175.51031  0.34336  0.01797      0.0169  14.17984     21.22813   4574.89588   -17.44792  0.94544  10569.72893  0.93941  56969.73208  52.67958  24.63624  22.81248  57016.79431 
    13.84004  1.18324  3.19901       3.35646         2893.38852   0.0095  0.02271     0.01933   6.96647     20.32249   5949.83797   -14.71773  1.26121   6113.52647  0.11674  56972.46227  52.13689   0.58375  22.81537  57019.45569 
    13.84475  1.43975  1.81712       4.54729         2315.50714  0.00965   0.0549     0.03718   4.81859     21.14709   8862.33246   -10.84831  1.42768    8229.7811  0.77951  56976.33169  52.35569   0.54189  22.67299     57018.05 
    13.66467  1.85256  1.58527       2.44228         2635.73182   0.0017   0.0192     0.03251  12.24862      21.2751   3061.88201   -26.28607  0.86009   7096.51131  1.04671  56960.89393  52.32053   0.11867  22.77284     57019.04 
    14.28154  1.69007  1.81706       3.83098          2802.2165  0.00783  0.02137     0.01756   9.14008      20.9233   8486.71627    -7.31118  1.18001    3720.7407  0.46562  56979.86882  51.73246   0.51214  22.75615  57019.45569 
     14.0644  2.03315  2.09504       2.43028         2910.60978  0.12409  0.01281     0.16765   13.1161     21.15977   4305.02363   -14.26596  1.11677   4991.03321   0.8026  56972.91404  52.02095   8.76385  22.72504  57016.79431 
    14.13524  1.85846  3.61905       2.78621          2948.9756  0.00249  0.01568     0.04558  10.08498     20.67669   4115.02278   -19.44686  0.49984   7762.27258  0.26388  56967.73314  52.38053   0.16656  22.75853     57019.04 
    14.70489  1.64034  0.94847       2.27545         2583.42434  0.00508  0.01104     0.01024  19.97514      21.2938    5702.2041    -9.03998  0.15375   5690.27657  1.09278  56978.14002  52.17073   0.38959  22.59325     57021.04 
    14.08413  1.67375  2.18842       2.05908         3097.44726  0.22421  0.01721     0.24186  10.82706     20.99759   6881.57572   -13.67988  1.03034   4763.33057  0.55249  56973.50012  51.96299   15.2123  22.72765  57016.79431 
    13.84893  1.27387  2.07967       4.11423         2536.91252  0.00652  0.02436     0.01126    5.7515      21.0834   6056.00146   -10.08382  0.98937   6678.83564  0.67317  56977.09618  52.19367   0.38251  22.76386     57018.05 
    14.00411  1.40217  2.77861       3.60205         2811.12601  0.04731  0.03444     0.04831   5.18112     20.81254   9140.54405   -19.35075  0.68903   4917.46271   0.3608  56967.82925  51.91643   2.70578  22.80206  57019.45569 
     14.2389  1.64974  2.04984        3.1454         2621.45568  0.00716  0.06353     0.34851   4.84869     21.12082   8032.38713   -12.71553  0.54278   8850.82782  0.73374  56974.46447  52.41957   0.40248  22.76203     57019.04 
    14.33824   1.8094  0.79314       2.77074         2968.00525  0.00291  0.02015     0.16202     11.81     21.07362   3138.87709    -3.48148  1.38014   4714.12102  0.65818  56983.69852  51.96194   0.20093   22.8641     57018.05 
    14.06461  1.45565  1.08294       2.43533         2611.12118  0.29003  0.01082      0.0217  31.33911       21.225   5970.97315    -7.64716  0.94302   9036.29148  0.93267  56979.53284  52.60783  24.13642  22.78382  57016.79431 
     14.1244  1.77797  0.90988       2.98583         2640.22433  0.02223  0.01898     0.32302  13.01295     21.28078   6709.80529    -5.64414  1.14605   6037.13767  1.06048  56981.53586  52.18553   1.56764  22.74006     57018.05 
    14.54967  1.72057  2.03588       2.89417         2857.35624  0.35959  0.06791     0.14832   5.67123     20.92787   8343.35814    -9.21548  0.49688   7529.24834  0.47054  56977.96452  52.29627   21.0349  22.73161     57018.05 
    14.54827  1.55893  2.89558       2.76621         2921.79998  0.01689  0.03123     0.24526   3.04636     20.85822   6973.46245   -15.79054  0.12773   6364.40458  0.40082  56971.38946  52.07783   0.83618  22.68041  57016.79431 
    14.18672    1.407  1.98343       2.71994         2595.78007   0.1145  0.03408     0.09578   7.22662     21.00439   3099.76847   -13.10853  0.56531   6954.20838   0.5612  56974.07147  52.25253   7.09939  22.76348     57021.05 
    14.26566  1.64982  1.94663       3.68384         2371.90029  0.01771  0.04698     0.08764   6.36127     21.19102   7855.75272   -19.67022  0.23997  10339.78799  0.86247  56967.50978  52.58394   1.06543  22.75761     57018.05 
    13.91602  1.65943  2.18265       2.36684         2583.26514  0.17369  0.01331     0.04353  21.89898      21.1342   8687.95766   -13.58932  1.31597  10993.93105   0.7567  56973.59068  52.75023   13.5543  22.85909  57016.79431 
    14.89965  1.77531  1.25127       3.05555         2814.58841  0.04451  0.01572     0.20688  13.78532     21.14216   8231.49663     -8.0302  0.16823   3974.01693   0.7707   56979.1498  51.82744   3.17519  22.80932  57022.11707 
    14.38489  1.57558  4.55173       3.59664         2973.06496  0.28143  0.01093      0.1436  10.84296     19.90641   4095.89083   -14.77423  0.71105   3803.33958  0.04479  56972.40577  51.76764   19.1011  22.67552  57016.79431 
    13.91432  1.66938  2.00114       2.62017         2712.53038  0.20341  0.02397     0.30205   6.71008      21.1874   9390.16528   -14.26462   0.9855   6980.26861  0.85531  56972.91538   52.2482  12.39352  22.79283     57018.05 
    14.19613  1.58714  3.60988       1.70619         3043.33261  0.02053  0.10214     0.13193   3.50548     20.08921   6469.97561   -24.35383   0.4041  11514.03555  0.06822  56962.82617  52.61023   1.05836  22.86671  57019.45569 
