 texplosion  fnickel     Pspin  log(Bfield)      Mns  thetaPB   mejecta    kappa  kappagamma      vejecta  temperature    alpha  cutoff_wavelength  log(nhhost)      A_V         MJD0   kenergy  mnickel            TSD   log(L0)  Peak_mag     Peak_MJD  log(E_rad)  log(Peak_lum)  Rise_Time    E_fold  tau_1  delta_m15     r_peak     frac 
   -8.51797  0.25179    2.4906     14.32226  1.99461  1.21403   6.48194  0.02176     0.16852   7652.87339   8802.83516  1.25085         2402.21468     21.11682  0.72702  55424.73103   2.26455  1.63209   260472.16003  46.36033  19.82312      55448.9    51.37915       45.01619   10.51785  15.77677   50.0     0.4548  -21.30543  0.95893 
  -13.39001  0.07938   4.06096     14.26682  1.68173  1.05646   2.13434  0.13436     0.17599  12579.12461   8760.56175  0.64562          2154.8357     20.96351  0.51079  55419.85899   2.01462  0.16943   753671.32308  45.40016  19.79285  55452.63085    51.29656       44.87979   12.27082   21.0357   30.0    0.49934  -21.19105  0.98475 
   -4.49998  0.19829   2.37515     14.47406  1.93359  0.86718   7.38561  0.03889     0.01866   9669.20039   4234.51318  4.85151         2227.05747     21.29451  1.09455  55428.74902   4.11903   1.4645      114140.19  46.74639   19.7844  55452.63085     50.5781       43.98694   19.28272  28.04759   32.0    0.51459  -21.73906  0.96514 
   -6.95067  0.16076   1.36052     14.19668  1.58695  1.19754  12.10522   0.0145     0.06146   8912.80356   6779.56697  1.35964         2067.32648     21.23679  0.95834  55426.29833   5.73626  1.94602   110262.73804  47.15957  19.84443      55450.9    50.86073       44.33881   12.27082  26.29462   51.0    0.52474  -21.51734  0.98005 
  -11.05606  0.01133   5.08104     14.39684  1.97641  0.89596   1.31178  0.13666     0.22656  10412.13909   9560.90842  0.49277         2948.10717     20.82099  0.36789  55422.19294   0.84834  0.01486   761945.51975  45.27089  19.82441      55450.9    50.65868       44.17505   19.28272  22.78867   33.5    0.43511  -20.99531  0.99833 
   -8.67293  0.02952   2.80058     14.17891  1.55319  1.36523   6.31879  0.03599     0.13549   8540.08566   8177.01109  1.02478          3620.9211     21.11593  0.72554  55424.57607   2.74907  0.18656   496271.67479  45.86985  19.88611      55448.9     50.9596       44.52976   12.27082   21.0357   34.5    0.48829  -21.37608  0.99101 
   -8.81179  0.32503   0.84657     14.72677  1.40456  0.99803   7.04682  0.06125     0.02611   9558.94509   5579.28263  0.67205         4678.72166     20.48156  0.16838  55424.43721   3.84096  2.29043       3289.572  49.04393  19.85756      55450.9    50.78271       44.21034   18.52314  25.30122   34.5    0.48729  -20.88692  0.99873 
  -11.36459  0.01675   3.99434     14.59175  2.04671  1.13336   6.72274  0.07961     0.09113   9784.69381   4420.92787  1.03032         3443.03127     20.74041  0.30559  55421.88441   3.83944  0.11259   198732.72611  46.07874  19.83009    55453.149     50.8311       44.30067   18.13952  27.43782   29.0    0.44292  -20.90594  0.99278 
   -8.75284  0.26731   9.61492     14.54201  1.59335  0.97764   8.18333  0.01729     0.04295   9266.68942   7818.82738  2.07463         3421.28247     20.19975    0.088  55424.49616   4.19186  2.18749  1127179.56872  44.45327  19.84071  55450.37267    51.02652        44.4722   17.52975  26.29462   54.5     0.5053  -20.66239  0.45013 
   -8.47705  0.03983   6.21652      14.5509  1.38134  0.56522   4.72985  0.06242      0.2269   8121.00564   5480.52721  3.84065         3464.43928     20.04227  0.06123  55424.77195   1.86078   0.1884   392120.13913  45.22863  19.87083  55450.37267    50.64941       44.09254    14.0238  26.29462   31.0     0.5022  -20.68944  0.94848 
  -14.77141  0.01581   6.98231      14.4021  1.62399  0.76368   4.59448  0.08203     0.15179  10193.34876   3898.06954  2.59653         3230.56668     19.86433  0.04065  55418.47759   2.84772  0.07264  1153993.79993  44.72923  19.79643    55453.193    50.82739       44.20218   10.51785  24.54165   36.0    0.43897  -20.65456  0.97951 
  -10.00868   0.0033   6.41808     14.25684  1.70983  1.43155   1.64661  0.14441     0.07463  11924.93558   5050.96544  1.09458         2048.06119     20.21814  0.09181  55423.24032   1.39679  0.00543  2004004.55752  44.58509  19.81133      55450.9    50.94804       44.34761   13.26344    25.302   31.0    0.50239  -20.73033  0.99878 
  -10.15085  0.12811   7.00356     14.77088   1.9082  0.43018   2.72524  0.10914     0.45772  12835.48879   7044.67018  0.21574         2874.49763     20.19787  0.08762  55423.09815   2.67828  0.34913    249640.4577  45.46152  19.79229      55450.9    51.26758       44.88078    8.76487  19.28272   33.0    0.54338  -20.78216  0.92688 
  -12.57684  0.03714   5.14017     14.34296  1.74872  1.20653   5.86601  0.05409     0.11835  10016.15538   4026.29055   0.2233         4055.20264     20.56276    0.203  55420.67216   3.51052  0.21789   884249.28297  45.14304  19.84855      55450.9    50.61371       44.09436   15.77677  24.54165   36.5    0.45885  -20.80401  0.97079 
  -17.36642  0.00297   1.01187     14.45063  1.42813  0.85547   11.5205  0.04825      0.0274   7346.52213   7415.73573   1.2988         3451.80261     20.96412   0.5115  55415.88258   3.70904  0.03423    17043.87702   48.1818  19.87726  55450.37267    51.28884       44.78445   14.48791  22.32455   32.0    0.33654  -20.50284  0.99986 
  -10.56667  0.00436   2.23781      14.5364  1.56554  0.82233   5.69749  0.11037     0.24969   8076.41672   4186.27386  1.32565         3933.34009     20.86334  0.40557  55422.68233   2.21691  0.02481    61564.45491  46.97453  19.86579      55450.9    50.55452       43.90192   16.38655  28.72225   31.0    0.34707  -20.99498  0.99929 
   -7.91095  0.05645    3.4633     14.28493  1.67055  0.92108   2.98677   0.0799     0.06651  11855.13232   5216.40661  2.21956         2112.60248     21.10679  0.71042  55425.33805   2.50404  0.16859   500946.50485  45.71293  19.80873  55454.88904    51.03955       44.55682   17.52975  22.78867   37.0     0.4854  -21.39385  0.98883 
    -5.9399  0.00698   1.29532     14.30113  1.48142  1.37316   6.10795  0.06691      0.4165   6634.05049   3474.63944  3.51986         3225.24659     21.26534  1.02346   55427.3091   1.60354  0.04262    57674.75982  47.45378  19.86263  55452.63085    50.67951        44.0137   19.28272  28.04759   29.5    0.37586  -21.68832  0.99962 
   -5.98645   0.1879   3.47462     14.64776  1.87536  0.74825   5.94884  0.06251     0.05096   8631.54563   3647.86875  4.63462         2716.09491     21.07996  0.66786  55427.26255   2.64385  1.11779   106462.26999  46.43292  19.87514  55452.63085    51.03654        44.6396   12.27082  19.28272   33.0    0.42855  -21.25111  0.94151 
   -5.48045  0.00917   2.21906     15.09684  1.93145  0.30538   8.05422  0.07707     0.21612  10293.57214   5609.67226  4.27157         2828.43707     21.06801  0.64974  55427.76855   5.09077  0.07386     5654.10563  48.11003  19.78877  55450.37267    50.99727       44.57471   12.27082  19.28272   28.5    0.40781  -21.28301  0.99864 
  -16.61874  0.00658   4.11664     14.61142  2.06814  0.77182   8.26308  0.04688     0.18792   7744.37573   6209.43591  2.76189         2257.78872     20.82379  0.37027  55416.63026   2.95626  0.05436   194827.42405  46.06569  19.99499  55454.88904    50.56542       44.01887   18.52237  28.80795   37.5    0.36417  -20.67726   0.9963 
     -11.05  0.01359   0.76311     14.65193  1.47153  0.42984  11.84666  0.04172     0.08783     8597.299    7383.2828  1.22554         3275.24127     21.21253  0.90627    55422.199   5.22333  0.16098      3952.8189  49.07453  19.81575      55448.9    50.68299       44.06514   20.27534  28.80795   30.0    0.39403  -21.35751  0.99971 
   -11.9715  0.00856   7.75655     14.55076  2.01513  1.00074   3.72824  0.09207     0.44811    9316.5375    3723.5946  1.78377         3805.48092     20.10347   0.0705   55421.2775   1.93037  0.03191   891116.57574  44.84388  19.78537      55448.9    50.57389       44.03629   17.99386  27.58348   31.0     0.4832  -20.69927  0.99193 
  -14.48595  0.10283   4.86003      14.3139  1.51361   1.1131    4.6257  0.07274     0.21867   9436.74311   4874.48108  2.43798         2369.98413      20.4656   0.1623  55418.76305   2.45725  0.47567    782194.0182  45.18227  19.91893    55447.135     50.7342       44.11058   20.60985  30.22642   38.0    0.42645  -20.71609  0.93209 
  -15.60473  0.49701   6.22716     14.49084  1.73216  1.06838   2.89135  0.12644      0.2323    9128.8692   6383.31439  0.49853         4274.92143     19.94366   0.0488  55417.64427   1.43735  1.43703   650584.54393  45.10555   19.8734    55453.193    50.75713       44.21474    14.0238  26.29462   47.0    0.38376  -20.61211  0.77222 
   -9.82321  0.00103   1.53022     14.92184  2.16892  0.52539   7.37533  0.06787      0.1756   8190.28787   6902.84896  1.88524         2718.17149       20.969  0.51728  55423.42579   2.95126  0.00762      6759.2001  48.40568  19.86318  55450.37267    50.84176       44.29935   15.77677  26.29462   29.5    0.36653  -21.14412  0.99996 
  -12.39688  0.05806   1.71316     14.51001  1.66816  0.51991  11.46681   0.0332     0.37495  10226.10333   7153.48343  0.31525         3254.78637     21.14638  0.77822  55420.85212   7.15303  0.66577    43413.96375  47.38586   19.8083  55452.63085    50.90303       44.43838    14.0238  22.78867   36.5    0.43293  -21.41308  0.98955 
   -5.35639  0.04159   1.68486     14.49094  1.88033  0.87949   6.14995  0.05533     0.12576    7551.4758   4398.60617  4.40814         2082.62963     21.17003  0.82179  55427.89261     2.092  0.25581    51677.38434  47.37665  19.97138  55452.63085    51.20212       44.76225   15.01642  21.79605   34.0    0.37586  -21.40632  0.99696 
  -14.46369  0.02085   6.53109      14.4309  1.83263  0.81031   2.12299  0.13374     0.06043  10441.64993   4449.61894  2.70048         2509.79125     20.35329  0.12532  55418.78531   1.38075  0.04427   997850.68374  44.90288   19.8423      55450.9     51.1069       44.63144   12.27082  22.78867   34.0    0.43866  -20.77255  0.99081 
  -10.76131  0.13169   6.81183     14.62834  1.85478  1.05998   5.55231  0.08143     0.13209   9146.97593   7534.95419  2.11212         3644.32659     19.14492  0.00776  55422.48769   2.77112  0.73119   442545.89711  45.22465  19.82221    55453.149    50.73375       44.18625    14.0238  29.80057   31.5    0.44467  -20.63606  0.86093 
  -13.14573   0.0821   1.72788     14.37179  1.72708  1.22314  14.03903  0.01793     0.02579    8912.8493   5373.59086  0.21392         3406.69669     20.94288  0.48709  55420.10327   6.65269   1.1526    86410.79525  47.09456   19.9588    55453.149    50.57377       44.05065   18.13952  23.93187   43.0    0.46552  -20.96996  0.98365 
   -8.54025  0.04786   1.20258     15.07664  1.71583  0.46445  15.86423  0.05698     0.03138   9584.20736   6976.30413  4.06846         2734.09307     19.53324  0.01897  55424.70875   8.69278  0.75927     1618.93908  49.13386  19.83827    55444.196    50.84011       44.20393   19.28272  33.30652   34.0    0.31993  -20.50933  0.99882 
  -13.55328  0.05705   6.08349     14.58673  1.62569   0.4256   2.18805  0.09773     0.10268  11411.36119   6706.41482  0.23955         2003.09671     19.85634  0.03991  55419.69572   1.69965  0.12482    374719.0789  45.33787  19.83091      55450.9    50.96201       44.40353    7.74298  22.05758   37.5    0.45612  -20.69425  0.97352 
   -8.19716  0.13323   0.94307     14.33993  1.31051   0.5008  14.34562  0.02568     0.33297   9031.56137   5466.74119  1.29827         3389.35974     21.40392  1.40814  55425.05184   6.98027   1.9112    22619.03626  48.08272  19.91668    55453.149    50.74803       44.14343   17.52975  29.80057   33.0    0.44986  -22.04232  0.98802 
   -9.95564  0.01448   3.24413     14.17804  1.44356  1.49451   4.07177  0.07336     0.10821   7819.44388   4088.39911   2.7289         3054.65208     21.08331  0.67304  55423.29336   1.48512  0.05895   621405.38097  45.61271  19.85938  55450.37267    51.31345       45.01617     7.0119  15.80144   33.0    0.46085  -21.28504  0.99572 
   -6.19842  0.10798   2.43229     14.49247  1.61853  1.18325    6.7448  0.08602     0.01012  10162.29489    4008.6272  1.39533          3846.2472     20.94575  0.49032  55427.05058   4.15508   0.7283    92049.37458  46.74192  19.84907  55452.63085    51.50396       45.15211    8.76487  17.52104   25.5    0.49031  -21.19394  0.97737 
   -5.93582  0.04407   4.82207     14.44577  2.00161  1.52878  10.16864  0.02562      0.0199   7894.91128   9637.27792  4.92696         2696.65776     21.00231  0.55851  55427.31318   3.78081  0.44813   554791.08499  45.45963  19.86721  55452.63085    50.65455       44.11761   15.77677  22.78867   29.5    0.49961   -21.1685  0.95762 
  -11.68717  0.19778   2.12982     14.56869  1.38479  0.94951   4.73164  0.14089     0.16951  11844.53584   7822.54348  0.16928         3262.12699     20.26156  0.10146  55421.56183   3.95982  0.93584    42511.98709  47.12503  19.85639  55450.37267     51.3737       44.94345   10.51785   21.0357   26.0    0.49093  -20.61664   0.9755 
   -14.7857  0.01993   6.36733     14.51153  2.03032  1.27856   2.04189   0.2307     0.16672  10010.15004   4569.18763  0.88005         2757.85243     19.97006  0.05185   55418.4633   1.22051   0.0407   724833.08679  45.10826  19.82976  55452.63085    50.95243       44.59119   10.51785  17.52975   31.0    0.44476   -20.5673  0.99316 
   -15.4729  0.00274     3.907      13.8784  1.28887  0.92647   1.30498  0.14399     0.03312  11527.76783   6238.10414  0.35327         2527.10088     20.77224  0.32883   55417.7761   1.03448  0.00358  3198215.60294  44.69046  19.87915      55450.9    51.17356       44.71324   12.27082  22.78867   31.0    0.49659  -21.01831  0.99954 
  -13.00608  0.09316   5.65428     14.58809  1.55659  0.50532   2.15852  0.09924     0.08719  11315.22546   6539.60213  0.37256         2072.79777     19.87323  0.04149  55420.24292   1.64858   0.2011   308002.07219  45.46771  19.84419      55450.9    50.74384       44.28951   17.52975   21.0357   33.0    0.53233  -20.65928  0.96144 
   -1.70585   0.0039   0.82775     14.58797  1.67877  1.52299  23.26995  0.02804     0.42081  10671.19203   9541.20791  3.77821         2857.95237     21.09272  0.68778  55431.54315  15.80697  0.09072     7123.04943  48.80537  19.82415    55453.193    50.99692       44.58771   15.77677  19.28272   26.5    0.45507  -21.92749  0.99994 
  -15.09622  0.03107   6.84174     14.32262  1.81866  1.16754   3.79158   0.0567     0.18856  10719.45563   3931.33608   0.1525         5990.67826      19.2103  0.00902  55418.15278   2.59892  0.11781  1789177.95864  44.60561  19.79901  55454.88904    50.88957       44.44187   15.77677   21.0357   39.5    0.44184  -20.67719  0.97328 
  -15.97269  0.18031   7.09413     14.61555  1.78602  0.58485   3.75498  0.14323     0.02752  10171.88313   4489.99297  3.84229          3244.4154     20.38233  0.13399  55417.27631   2.31759  0.67705   490228.94796  45.12853  19.80441  55454.88904    50.84518       44.31547    8.76487  26.29462   31.0    0.41287  -20.74738  0.85213 
  -12.43336  0.02297   5.90267     14.26616  1.64379  1.53688   2.47833  0.09508     0.41502  10513.08826   4906.86234  0.60592         2834.56566     19.96372   0.0511  55420.81564   1.63398  0.05693   1561098.9754  44.74916  19.82434      55450.9    51.24355       44.80895   10.51785  22.78867   37.0    0.48699  -20.69033   0.9887 
   -5.10759   0.0019   1.97383     14.40013  1.85881  0.78593   7.10876  0.04256     0.07767   7561.01821   6351.19617   4.8121         2378.93873     21.34263  1.22281  55428.14141   2.42427  0.01348   106515.38813  46.92005  19.79353  55452.63085    50.57522       44.02724    21.0357  26.29462   32.0    0.43374  -21.86133  0.99976 
   -11.7665  0.03688   0.72515     14.56692  1.83661  1.00305  36.02807  0.01587     0.09858  11341.91885   3385.88945  0.80308         2274.98108     21.10937  0.71466   55421.4825  27.64657  1.32872     6589.47756  48.99316  19.80985      55450.9    51.36784       44.98003   12.27082  19.28272   31.5    0.42251   -21.1245  0.99921 
  -14.60176  0.04786   1.61776     14.46465  1.59291  1.03564  20.06632   0.0232     0.15969   7717.70544   8194.45147  0.78402         3859.89031     20.84044  0.38474  55418.64724    7.1297  0.96036    45554.16342  47.39468  19.86605      55450.9     51.1759        44.7089    14.0238  22.78867   34.0    0.35634  -20.73108  0.98798 
  -11.31732  0.17097   7.03745     14.44103  1.86065   0.6323    4.5703   0.0747     0.01136  11637.62525   3680.27639  2.82903         2727.27211     20.33153  0.11919  55421.93168   3.69233   0.7814  1122666.18638  44.79343  19.81555      55448.9    51.13096       44.64033   15.01642  20.04308   27.5    0.55278  -20.89391  0.84183 
   -6.92324  0.20897   3.15882     14.44024  1.78334   0.9252   5.84105  0.04156     0.04239   8347.54675   7498.96459  2.51133         2990.47256      21.1969  0.87423  55426.32576   2.42793  1.22059   217582.90449   46.1834  19.83221  55454.88904    50.70672       44.22238   12.27082  24.54165   33.0    0.54614   -21.4928  0.94247 
  -10.93751  0.01383   2.75151     14.19614  1.75439  1.27902   7.82332  0.03281     0.25735   6164.91945   6238.32404  2.79822         3024.78762     21.26222  1.01614  55422.31149   1.77367  0.10822   499799.84417  45.93503   20.0478      55450.9    50.57986       43.93768   22.78867  36.34392   36.0     0.4123  -21.61188  0.99578 
  -10.41294   0.0671   7.90778      14.4594  2.06579  1.17561   3.24062  0.10534     0.43913  10946.55451   4383.65785  4.68116         2582.18777     20.23808  0.09612  55422.83606   2.31638  0.21745  1446161.53196  44.62761   19.8599  55452.63085    50.67641       44.16272   15.77677  22.78867   36.0    0.47126  -20.76037  0.94718 
    -8.9207  0.04022   5.59216     14.59831  1.92778  0.78783    4.2996  0.09228     0.38771  10379.61008   6789.22786  3.64141         2716.08936      20.7242   0.2944   55424.3283   2.76323  0.17294   355963.00804  45.50734  19.93863      55450.9    50.80942        44.2206   17.52975  24.54165   31.0    0.48896  -20.96892  0.97623 
   -8.66181    0.008   4.31276     14.27857  1.51112  0.60809   2.82435  0.07332     0.02215   9920.98197     3547.104  2.81887         2895.35003     21.08348  0.67329  55424.58719   1.65827  0.02259    723580.9595  45.31915  19.86267  55448.11449    50.74787       44.15936   19.28272  26.29462   33.5    0.47062  -21.33238  0.99725 
   -9.32373  0.13417   1.55544     14.88462   1.6881    0.796   9.57262  0.10237     0.04515  12623.89295   6440.58454  2.33842          2851.8056      19.8535  0.03965  55423.92527   9.10007  1.28436     6451.72468  48.30286  19.81072  55454.88904    50.78943       44.31428   17.52975  22.78867   32.0    0.36375  -20.79334  0.99491 
   -9.28437  0.00712   2.23231       14.304  1.51825  0.98519  11.90248  0.02687     0.02029   7552.65926   5348.06056  1.42382         3709.28897     21.13908  0.76525  55423.96463   4.05009  0.08472   173250.22501  46.51401  19.98105  55452.63085    50.59363       44.05892   19.71035  25.86699   30.5    0.44659  -21.42023  0.99734 
   -2.55521  0.09269   0.71426     14.73063  1.67863  0.60416  10.33301  0.06125     0.13823   9689.01015   7409.58329  4.86501         2194.16994      21.1268  0.74392  55430.69379   5.78646  0.95781      2749.2358  49.34688  19.81229  55452.63085    51.02811       44.57268   10.51785  22.78867   32.5    0.32424  -21.24025  0.99944 
  -10.26712  0.06863   1.62761     14.35098    1.955  1.08595    5.0865  0.07257     0.05187  11466.83071   3650.39702  1.35194         2254.34752     21.25634  1.00245  55422.98188   3.98964  0.34911    95522.03413  47.15679  19.87399  55454.88904    50.56483       43.92631   21.64547  30.94377   32.0    0.47472  -21.77712  0.99617 
   -4.79603  0.16605   0.75045     14.90012  1.74474  1.17913  16.69454  0.02897     0.01661  12753.71019   4161.44242  2.16529         3192.91508     20.82637  0.37248  55428.45297  16.19849   2.7721     1445.26566  49.59999  19.80926      55450.9     50.5553       44.02888   10.51785  29.80057   33.0    0.49327  -21.15927  0.99965 
  -11.10528  0.00765   3.83662     14.70684  1.71735  0.45162   3.81979  0.09029      0.3713    8535.3415   7768.47762  1.50518         3385.52902     20.92196  0.46418  55422.14372      1.66  0.02921    90551.62617  46.37891  19.81657      55450.9    51.00464       44.57116   15.77677  19.28272   30.5    0.46237  -21.06593  0.99771 
  -17.12053  0.22065   7.34986     14.72569  1.95374  0.33807   3.09688  0.06464     0.12322   8023.78144    5457.3892   3.2781         2807.29662     20.46413  0.16175  55416.12847   1.18935  0.68331    346620.4159   45.2873  19.86141  55452.63085    51.21856       44.77722   12.27082  22.78867   57.5    0.34467  -20.70355   0.8572 
   -7.00113  0.00479   4.95985     14.49987  2.17021   0.8865   2.43131  0.10254      0.3516   9445.63415   9869.70266  3.08888         3330.48552     21.19288  0.86618  55426.24787   1.29399  0.01165   496046.98624  45.51889  19.81887  55450.37267     51.3616       44.83969   16.76939  21.79605   27.5    0.56035  -21.60562  0.99892 
    -4.5044  0.00465   1.95681     15.07967  1.92609  0.14654   3.91061  0.05358      0.0149   8344.58543   8190.70304  2.60296         2250.08209     21.31272  1.14143   55428.7446   1.62436  0.01818     4745.08288  48.29418  19.78379  55452.63085    50.72568       44.02585   12.27082  31.55354   31.0    0.52917  -21.77217  0.99969 
   -7.25263  0.10253   1.03512     14.65845  1.80783  0.77012  14.16409  0.02725     0.03349    8201.2732   9256.19028  2.24357         2766.43597      21.1575  0.79841  55425.99637   5.68301  1.45225     8670.79823  48.55796  19.85956      55450.9    50.87937       44.31002   19.28272  26.29462   29.5    0.39202   -21.5267  0.99682 
   -7.17715  0.00207   1.98343     14.33168  1.91252  0.88509   5.05635  0.04492     0.02547    7862.1837   6745.74372  1.65448         2886.07792     21.31837  1.15638  55426.07185   1.86445  0.01047   151670.92607  46.77471  19.86195  55454.88904    50.84384       44.29743    14.0238  26.29462   34.5    0.49765  -21.79056  0.99982 
   -7.44777  0.00463    4.1884     14.28209  1.82583  1.30334   3.40747  0.09653     0.03286  11113.31892   6365.97102  2.79044         2380.97409     21.05829  0.63535  55425.80123   2.51042  0.01578   811324.27077  45.37702  19.84133  55448.11449    51.23112       44.84519   10.51785  19.28272   31.5    0.46376  -21.30331  0.99865 
   -8.66528  0.13352   5.79346     14.63508  1.91578  1.49585   2.90649  0.19879     0.44989  10202.25021   6051.51755   3.5822         3215.42107     19.71371  0.02874  55424.58372   1.80463  0.38807   320534.65325  45.51944  19.87547  55452.63085    50.93092       44.43858   10.51785  26.29462   29.0    0.45772  -20.68222  0.94464 
   -11.4082  0.24484   1.37253     14.72198  1.76031  0.99348  13.78867   0.0211     0.11894   8002.23637   4884.68091  0.49492         5990.53805     20.72638  0.29587   55421.8408   5.26711  3.37595    11078.89769  48.19489   19.8316    55453.149    51.54715       45.19362    8.76487  17.52975   66.5    0.39451  -20.83919  0.98804 
   -13.4774  0.00128   4.27343     14.75589  1.68824  0.50288   3.15846  0.26297     0.19839  12441.34905    6275.6052  0.05062         3311.49918      18.3312  0.00119   55419.7716   2.91633  0.00406    88108.99832   46.2897  19.85998    55457.136    50.84419       44.34842   12.27082  26.29462   27.5    0.46056  -20.67971   0.9996 
  -12.79781  0.16097   2.82813     14.45847  1.54858  1.21296   4.69265  0.15968     0.13254  11882.62571   8230.82592  0.33121         2884.42471     20.56769  0.20531  55420.45119   3.95248  0.75538   139254.54281  46.41197  19.89603      55450.9    50.61264       44.05937   16.24089   25.8305   26.5    0.43697  -20.77954  0.96513 
  -13.95511  0.18722   6.00168     14.56094  1.74314  0.87093   5.18513  0.10366     0.32989   9947.88234   6050.70324  2.15976         3184.33383     20.23622  0.09571  55419.29389   3.06089  0.97074   440360.20333  45.30982  19.80689      55450.9    51.48339        45.1533   10.51785  15.77677   37.5    0.38128  -20.70588  0.84521 
   -7.30359  0.01313   2.63374     14.70977  1.76546  0.29881   5.65141  0.04522     0.01445   8089.80655    4432.0657  3.39791         2426.18533      21.2623  1.01631  55425.94541   2.20628   0.0742    43278.94487  47.03828  19.87788    55453.193    50.69172       44.20936    14.0238  22.78867   35.0     0.4466  -21.65703  0.99737 
  -14.08599  0.09561   4.99787     14.25389   1.9618  1.49164   2.83322  0.08604      0.0157   8949.43163   6494.10896  0.47638         4124.65197     20.87199  0.41373  55419.16301   1.35362   0.2709  1413356.62082  45.01368   19.8219      55448.9    50.62249       44.11941   14.48791  24.07753   31.0    0.47588  -21.01037  0.97097 
  -10.45886  0.19963    4.3259     14.52721  1.58888   0.7482   4.65917  0.06339     0.10066   9025.17987   5315.29162  1.14083         2896.49422     20.61057  0.22662  55422.79014   2.26385   0.9301    243578.2128  45.81115  19.87759  55452.63085    50.80183       44.29112   15.77677  22.78867   38.5    0.45265  -20.80408  0.90554 
    -7.2803  0.00222   2.59884     14.33768   1.5826  1.42006   9.55538  0.04714      0.1876   8710.84971   9579.90523  3.00896         2535.96196     20.96099  0.50783   55425.9687    4.3251  0.02123   209599.85204  46.31727  19.85061    55453.193    50.91741       44.41965    14.0238  24.54165   28.0    0.38669  -21.11641  0.99916 
  -16.00164   0.0188   4.78897     14.64151  1.96042   0.6732   2.93485  0.13331     0.32541   9836.85469    6975.4131  0.02825         2951.30548      20.4152  0.14452  55417.24736   1.69405  0.05518   217583.60173  45.86308  19.85996  55452.63085    50.81417       44.30439   15.77677   21.0357   31.5     0.4733  -20.67167  0.99449 
  -11.04647  0.16656   5.04559     14.30831  1.74411  1.00257   3.56443  0.08538     0.01545   9820.54665   5092.52905  1.04707         3479.88304     20.85735  0.40001  55422.20253   2.05064  0.59369   996753.00716  45.10601  19.96378      55448.9    50.88247       44.34783   15.77677  24.54165   29.0     0.4978  -21.08307  0.92626 
   -10.8416  0.43886   2.81348     14.21332  1.33932  1.17075   2.06928  0.14113     0.14545    10970.271    8216.4324  0.56937          3636.2229     20.97863  0.52889   55422.4074   1.48553  0.90812   368590.94661   45.9307  19.87184  55452.63085    51.24069         44.785   10.12615  24.93334   30.0    0.55352  -21.21709  0.94746 
  -11.88156  0.00192   4.88457     14.53879  1.69941  0.88334   3.65599  0.12464     0.01604   6969.44491   8256.60293  2.21887         3268.25686     20.38933  0.13616  55421.36744   1.05932  0.00701   314907.19882  45.62331   19.8306      55450.9    50.55733       43.97484   18.52237    25.302   29.0    0.35026  -20.54868  0.99909 
  -13.29319   0.0084   6.35079     14.31623  1.67603  0.91113  14.07829  0.01351     0.01775   6019.62865   3867.63649  4.93002         3178.96859     20.63559  0.24006  55419.95581    3.0431  0.11827  1463194.74217  44.72217   19.8503  55450.37267    50.75567       44.19896   15.77677  24.54165   43.0    0.40453  -20.80317  0.97384 
  -12.50585  0.03344   7.28238     14.52194   1.7393  0.54797   1.92142  0.13035     0.10881  12452.38256   6526.96906   2.4142         2626.17234     19.62317  0.02333  55420.74315   1.77727  0.06426   774212.86874  44.89581  19.85693  55452.63085    50.72706       44.09368   17.52975  28.04759   35.0    0.48383  -20.74185  0.98209 
  -24.19371  0.03214   4.14265     14.90784  1.53033  0.25039  11.70609  0.04007     0.05392   6924.11885   7988.46748  3.79259         2116.38864     19.19837  0.00877  55409.05529   3.34787  0.37624     37279.7875   46.6476  19.85922  55452.63085    50.99019        44.5202   10.51785  24.54165   38.0     0.3031  -20.22137  0.96062 
   -8.68163  0.10188   3.18248     14.63448  1.78261  0.98489   7.59839  0.07391     0.08673  10066.47983   8589.62809  2.35603         2669.07607     20.67492  0.26282  55424.56737   4.59308  0.77413    90247.75179  46.55894  19.80751  55454.88904    51.33153       44.88974   12.27082   21.0357   27.5    0.40376  -20.87259  0.96382 
   -9.91662  0.07354   3.83515     14.48023   1.8235  0.99584   6.93401  0.06257     0.02703   8024.01471   7736.90282  4.52198         3017.47151     21.06341  0.64289  55423.33238   2.66315   0.5099      272794.54  45.92635  19.86441  55452.63085     51.2077       44.76424   10.51785  22.78867   33.0    0.39139  -21.25976  0.96484 
  -11.14994   0.4125   4.50873     14.45647  2.01234  1.31241   2.95565   0.1309     0.05856  12211.78454    8421.8547  0.92011         2612.74608     20.92829    0.471  55422.09906   2.62929  1.21919   464183.68137  45.59775  19.80675      55448.9    50.64815       44.12985   17.52975  24.54165   27.5    0.49886  -21.17873  0.90556 
   -5.80299  0.00276    2.4467      14.5401  1.87036   0.5348   4.27103  0.06533     0.01101   6980.74613   3194.89015  4.50807         2258.94032     21.27455  1.04538  55427.44601   1.24155  0.01177    86435.70328  46.82692  19.83112  55452.63085     50.5557       43.93629   18.52314  28.80717   33.0     0.4153  -21.55297  0.99967 
   -7.16807  0.04577    2.0177     14.69423  1.78625  0.49893  13.02275  0.03289     0.04373    8930.9094   4972.44648  3.73536         2464.28553     21.18122  0.84324  55426.08093   6.19614  0.59609    27606.70143  47.47006  19.82983      55450.9    51.24215       44.87121    9.49596  18.54293   32.0    0.40137  -21.48966  0.98864 
   -8.75013  0.00243    1.9731     14.85451  1.73169  0.52142   8.06318  0.08823     0.25509   8524.56646   4442.01396  1.89421         3896.54413     20.83277    0.378  55424.49887   3.49525  0.01961    12233.89986  47.82945  19.87883  55452.63085    50.61691       44.00352   12.27082  34.59095   29.5    0.37521  -21.06529   0.9997 
   -8.30846  0.06236   6.95786     14.49404    1.823   0.9845   5.00958  0.04752     0.01781   7392.60482   4239.61912  4.46561         2665.87381     20.32305  0.11689  55424.94054   1.63314  0.31242   842303.32167  44.91921  19.83635      55450.9    50.69025        44.1867   15.77677  22.78867   36.5     0.4483   -20.5658  0.93072 
  -32.38491  0.03434   3.62525     15.15229  1.66339   0.1424  10.93552  0.05298     0.05422   7270.03686   4399.11224  1.27989         2095.05975     19.84429  0.03882  55400.86409   3.44778  0.37553    10066.91582  47.36827  19.94502  55452.63085    51.50548       45.05743   12.27082   21.0357   42.0    0.30155  -20.24332  0.97314 
  -10.55645  0.13907   0.70893     14.99621  1.81359  0.82038  23.60746  0.01524     0.24545  11532.33544    6297.1401  0.22854         3085.23749     20.43057  0.14973  55422.69255  18.72885  3.28312      861.29936  49.89102  19.84928  55450.37267    50.93271       44.43571   14.48791  22.32455   71.0    0.46782  -20.67061  0.99966 
  -18.22296  0.16327   3.61246      14.5986  1.84718  1.04213   5.09679  0.12392     0.09693   8869.09802   9164.92384  0.29084         3954.10208     20.17093  0.08235  55415.02604   2.39157  0.83214   142148.16267  46.26701  19.86299      55450.9    50.84541       44.35531   12.73494   25.8305   30.0    0.34278  -20.39212  0.95173 
   -10.2755  0.00175   2.54751      14.2374  1.46787  1.54555   7.16303  0.02921     0.42351   7538.13604   6771.00036  0.47648         5363.85856     20.88498  0.42629   55422.9735   2.42802  0.01251   296443.80975  46.15136  19.80565  55454.88904    50.78769       44.31289    14.0238  24.54165   32.5    0.54064  -21.02255  0.99946 
  -10.97639  0.17187   6.87662     14.46352  1.75324  1.38534   6.85412   0.0512     0.43923   8427.24127   7853.81811  2.58756         3419.68085     20.43489  0.15122  55422.27261   2.90369    1.178   910697.13512  44.87856   19.8822      55450.9    50.90133       44.39155   15.01642  23.54903   37.5    0.40649  -20.74432  0.77526 
  -12.81355  0.07383   2.95973     15.11076  1.74276  0.13192   4.01347  0.13035     0.02289  10906.77909   6975.16176  1.07972          3008.9754     21.11912  0.73088  55420.43545     2.848  0.29632     8511.95259  47.63755   19.8083      55450.9    51.06878       44.67324    14.0238  17.52975   28.5     0.4308  -21.42243  0.98664 
     -8.806  0.01757   4.88535     14.42019  2.05512   1.1578   3.66707  0.12914     0.04285   10163.8446   3009.81709   4.9269         2948.37782     21.08981  0.68318    55424.443   2.25976  0.06441   657767.80508  45.38582  19.82727  55450.37267    50.97061       44.52226    14.0238   21.0357   31.5    0.43369    -21.387  0.99374 
   -9.07471  0.00458   1.64688     14.33275   1.7785  1.01005   5.14406  0.07429     0.02638   9382.97542   6524.54549  1.29422         3263.14333     21.27453  1.04534  55424.17429   2.70156  0.02355    96760.60121  47.09988  19.85309  55450.37267    51.21938       44.81978   10.98196   18.8186   29.5    0.45652  -21.76558  0.99969 
  -11.38666  0.05219     7.973     15.00286    1.964  0.24222   2.55037  0.17159     0.35839  14575.63443   9154.07887  2.73352         2445.20795     19.22489  0.00932  55421.86234   3.23211  0.13311   114416.26151  45.70025  19.88751      55448.9    51.50811       45.19158    8.76487  14.04847   25.0    0.50781  -20.80049  0.96384 
   -8.44161  0.24868   2.33681     14.76787   1.7856  0.69278    6.0701  0.08033     0.04001   9453.93926   8047.61376  2.63232         2880.27947     20.92047  0.46259  55424.80739    3.2363  1.50952    26369.68143  47.36228  19.83693      55450.9    50.93966       44.49743    14.0238  19.28272   32.0    0.41629  -21.08351  0.96645 
  -14.14253   0.0023   6.02061     14.74291  1.91715  0.23828    1.4684  0.17572     0.02145   9788.34923   6603.29729  4.27979         2355.94102     20.62778  0.23578  55419.10647   0.83925  0.00338   210827.53356  45.66829  19.81044  55452.63085    51.12545       44.69345   12.27082  19.28272   30.0    0.52686  -20.88056  0.99943 
   -8.95719  0.41858   5.13088     14.25434  1.79245    1.119   4.66495    0.025     0.01224   8792.46073   8529.68715  1.61974         2999.91252     21.03217  0.59828  55424.29181   2.15127  1.95267  1358200.40286  44.96894  19.80858  55452.63085    50.79139        44.2613    8.76487  26.29462   40.0    0.41117  -21.15414  0.79331 
  -10.63673  0.01242   5.77502      14.3153  1.83122   1.1395     3.948  0.08049     0.23398  10219.26886   6744.78211  4.40051          2847.0561     20.93527  0.47863  55422.61227   2.45949  0.04902  1327616.81059  44.88541  19.85752    55453.193    50.76879       44.24997   15.77677  24.54165   36.5    0.47073  -21.13023  0.99204 
  -10.12398   0.1162   3.70888      14.4982  2.08207  0.98455  12.69621  0.02241     0.01064   5872.22383   8578.82498  3.44639         3377.36412     21.21409  0.90953  55423.12502    2.6116  1.47533   268155.48235  46.02047  19.83669  55448.11449    50.66466       44.06203   14.45143  25.86699   35.5    0.40279  -21.53737  0.92515 
   -7.36747  0.17404  10.95456     14.58759  2.01069  1.14742   6.36567  0.03173     0.11804   8642.03675   6540.05032  4.83753         3261.17125     19.92134  0.04635  55425.88153   2.83598  1.10788  1496840.04042  44.31782  19.80028  55452.63085    50.51652       43.93294   18.13952  25.68485   41.5    0.53065   -20.6121  0.63765 
   -8.88433  0.20566   3.99388     14.63725  1.51064  0.93382   6.90997  0.06159     0.03665   9774.39269    6271.2558  4.27635         2543.75185      20.2877  0.10775  55424.36467   3.93807  1.42112   118924.81442  46.16994  19.87087      55450.9    50.56662       43.92903   22.02832  30.56092   36.0    0.44061   -20.6795   0.8756 
   -8.12724   0.1103   0.77797     15.01215  1.83309  0.93872  23.51006  0.02423     0.24151  13792.70038   4966.75718  0.28547         2814.47061     20.04021  0.06094  55425.12176  26.67961   2.5931      974.17541  49.76146  19.86885    55453.193    50.62771       44.15634   17.52975  22.78867   44.5    0.48667  -20.65247   0.9997 
   -4.25802  0.27538   2.83431     14.76324  1.97107  0.90868   9.78173  0.03568     0.13257   7798.29089   9340.99157  3.90088         3386.10662     21.12598  0.74253  55428.99098   3.54847   2.6937    43745.90383  47.01772  19.83223    55453.193    50.68857       44.15125   16.24089  24.07753   32.0    0.41905  -21.41204  0.92476 
   -9.17942  0.03537   1.23323     14.59044  1.69622  0.64192  27.36733  0.01037     0.20804   8499.40751   5353.73374  0.75785         3833.47894      21.1275  0.74512  55424.06958  11.79334  0.96804    15794.80253  48.11773  19.87893  55454.88904    50.79499       44.26954   17.52975  22.78867   28.0    0.50423  -21.44678  0.99427 
    -8.4758  0.33201   7.91926     15.11509  1.69949    0.187   4.38226  0.04641     0.02597   10175.8975   3151.92385  3.40319         2637.56656     20.29935  0.11068   55424.7732   2.70689  1.45497    58253.34486  45.93647  19.82156  55448.11449    51.00802       44.49846   12.27082  28.04759   40.0    0.48066  -20.70673  0.66632 
   -9.89856   0.0082   2.62335     14.12118  1.70848  1.24934  13.64398   0.0137     0.20244   5527.58273   7264.28161  2.57426         3012.55838     21.29125  1.08637  55423.35044   2.48679  0.11187   624863.93849  45.86796  19.87274  55454.88904    50.80898       44.25559   15.77677  28.04759   38.0    0.42002  -21.67958  0.99586 
   -7.61911  0.20309   1.43335     14.38454  1.68137  1.03259   4.07521  0.04911     0.03182   8852.10071   8436.34833  0.81765         2321.72278     21.06961  0.65214  55425.62989   1.90489  0.82764    54588.60346   47.4447  19.81949  55450.37267    51.08334       44.59427   12.69845  25.86699   33.0      0.572  -21.19733    0.992 
  -11.95204  0.12325   1.34568     14.59722   1.6591  0.39176  12.91557  0.01887     0.07321   9859.81884   9673.42973  0.16491         3114.25562     21.16445  0.81129  55421.29696   7.48994  1.59182    17829.10702  47.97971  19.79461  55452.63085     50.5733       44.07217   17.52975  24.54165   36.5     0.4399  -21.38742  0.98502 
   -9.35554  0.00525   5.75842     14.62336   1.4536  0.38328   1.77809  0.11888     0.45912   8885.85396   7082.31821   1.6192         3176.17585     20.30239  0.11146  55423.89346   0.83749  0.00933   253595.20046  45.50654  19.82423      55450.9    50.84511       44.36187   15.77677   21.0357   36.5    0.48662  -20.67742  0.99786 
   -7.50661  0.00409   1.20825     14.18198  1.56812  1.55613  27.43975  0.01039     0.29945   6685.06318    8507.9666  2.67961         2307.50885     21.24534   0.9774  55425.74239   7.31507  0.11229    91948.13385  47.33637  19.92874  55452.63085    50.61291       44.06093   19.28272  26.29462   33.5    0.38976  -21.56525   0.9991 
  -13.43803  0.00417   6.47734     14.85247  1.70815  0.31594     5.606  0.08577     0.18508   8715.87104   4938.88104  1.81958         3652.44813     19.64522  0.02454  55419.81097    2.5404  0.02335    131280.4563  45.76038  19.79126  55450.37267    50.79073       44.26709    8.76487  24.54165   34.0    0.37917  -20.61269   0.9947 
   -3.17358  0.00722   1.35013     14.75856  1.76594  1.32312  17.66488  0.05321      0.1559  11498.64144   6021.22961  4.21492         3257.19718     20.55439  0.19912  55430.07542  13.93256  0.12752     9086.92798  48.29666  19.84493      55450.9    50.86135       44.36183   15.77677  22.78867   30.5    0.34287  -21.64635  0.99971 
  -12.45034  0.02319    3.8649     14.86137  1.72574  0.22206   1.85511  0.15223     0.12094  12159.49675   8571.14489  0.31732         3164.77639      21.0052  0.56225  55420.79866   1.63617  0.04302    45323.25773  46.67522  19.86908    55447.136    50.75466       44.09338    21.0357  31.55354   30.0    0.49277  -21.26043  0.99659 
    -3.3472   0.0381   1.26019      14.3188   1.5973  1.17928  11.80298  0.02999     0.01101   7221.00039   5137.28776  4.67185         2239.96438     21.22891   0.9411   55429.9018   3.67125  0.44969    54258.90811  47.53689  19.76343  55450.37267    50.95322       44.47248   15.01642  20.04308   32.5    0.37505  -21.54966  0.99654 
   -8.42526  0.00176   2.45172     14.02814  1.61024  1.15691  14.45991  0.01087     0.21732   4879.84725   8784.28164  3.42878         3205.06373     21.40201  1.40197  55424.82374   2.05402  0.02546   789531.25975  45.79942  19.84571  55450.37267    51.38896       45.04909   10.51785  17.52975   32.0    0.46335  -22.09906   0.9991 
   -3.00008   0.4584   1.96121     15.10708  1.96284  0.97364   6.28507  0.07858     0.15533  12122.61775    3102.9836  3.59902         3502.87418     20.63005  0.23702  55430.24892   5.50972  2.88104     4281.35878   48.3451  19.85996  55450.37267    51.14692       44.69408    8.76487  22.78867   43.5    0.40579  -20.88522  0.99194 
  -15.16883  0.04591   4.27494     14.73432   1.7809  0.36882    3.0025  0.16477     0.33948  10249.51248   4792.02844  3.67265         2266.34647     20.90096  0.44227  55418.08017   1.88156  0.13784   102723.53468  46.24595  19.85934      55450.9    51.39699       45.01098   10.51785  19.28272   36.5    0.38126  -21.01854  0.98738 
  -12.24849  0.47209   2.68809      14.6501   1.8294  1.04516   3.60908    0.179      0.1134  12149.22967   4982.15844  0.11547         3804.35075     20.69633  0.27609  55421.00051   3.17776  1.70379    61491.48015  46.88345  19.84279    55453.193    50.92429       44.47668   15.01642  21.79605   33.0    0.45393  -20.84617  0.94955 
   -5.62298  0.07783   1.55707     14.37275  1.60923  1.04628  16.10141  0.01674     0.01966   8658.36624   6286.46239  3.36729         2209.58591     21.21471  0.91082  55427.62602   7.20051  1.25325    65096.87272  47.27728  19.81875      55450.9     50.5222       43.93998   16.77017   27.0542   31.5    0.48314  -21.50497  0.98438 
   -5.25999  0.01333   1.05086     14.63822  1.88718  1.11815  10.07375  0.06896     0.08251   9705.60993   7302.07136  4.13374         2669.97806     21.09277  0.68786  55427.98901   5.66062  0.13425      10239.406  48.49129  19.84334      55450.9    51.05397       44.51287    8.76487  22.78867   32.0    0.28556  -21.48471  0.99978 
   -7.09856  0.00321   0.95457     14.38824  2.01374   1.0472    6.2318  0.04686     0.12663   8783.04312   3837.34302  1.21662         2199.22949     21.25506  0.99951  55426.15044   2.86768  0.02003    28508.02755  48.15826  19.79544  55454.88904    50.62867        44.0682   17.95738  27.61996   33.0    0.46907  -21.61915  0.99995 
   -12.3721  0.00248   1.66633     14.45826  1.56903  1.40413   5.93318  0.10042     0.35723   9102.87903   3435.92339  0.15943         4843.52346     20.49066  0.17194   55420.8769   2.93273  0.01474     49028.1721  47.33051  19.85267  55454.88904    50.77283       44.21463   15.77677  28.04759   27.0    0.43506  -20.58787  0.99981 
  -11.75856   0.0121   7.21985     15.09066  2.15598  0.29061   7.16348  0.04675     0.34637   8931.27714    3433.6386   2.4961          2601.2867     19.64745  0.02467  55421.49044   3.40862  0.08666    68739.37699  46.04823   19.8331  55452.63085    50.67479       44.01366   19.28272    31.085   33.0    0.44978  -20.55833  0.98305 
   -5.57323  0.01548   1.66064     14.21816  1.80583  1.25943    7.5932  0.02792      0.1341   9636.37668   9239.15681  1.36766         2350.05508     21.27941  1.05715  55427.67577    4.2061  0.11756   169327.92284  46.85624   19.8433      55450.9     51.2138       44.78464    14.0238   21.0357   34.5    0.53642  -21.72476  0.99844 
  -11.83461   0.1294   4.44295     14.51926  1.43486  0.69282   4.05372  0.08958     0.06744  10913.09199   6152.80664  0.06176         2190.93456     20.02258  0.05852  55421.41439   2.87989  0.52454   240679.40114  45.74887  19.86572    55453.149    50.87239       44.41453   15.77677  22.78867   30.5    0.55301  -20.65453  0.93252 
   -6.99264  0.18107   2.14725     14.37149  1.51201  1.14921    5.1858  0.08209     0.29217  11361.91517   9895.96423  2.08088         2392.39816     21.05114  0.62498  55426.25636   3.99343  0.93898   116992.93976  46.71648  19.74348  55450.37267    51.39637        45.0189   10.51785  19.28272   24.5    0.46271  -21.30366  0.97417 
   -9.79922  0.00511   7.55487     14.36167   1.9803  1.50751   1.69169   0.1159     0.12009  10452.52807    3470.5288  3.57969         2577.48908     20.36903  0.12994  55423.44978   1.10253  0.00865  1984537.74441  44.51146  19.88173    55453.193     50.7221       44.18186   12.27082  26.29462   38.0    0.49133  -20.75645  0.99784 
  -16.30516  0.02677   6.85452     14.32076  1.85216  1.14991   4.53149  0.05533     0.01055   7713.78396    3812.6593  0.89568         3325.95319     19.94468  0.04891  55416.94384   1.60843  0.12129  1844736.76516  44.59863  19.89219    55457.136    51.08826       44.58705    9.22899  27.58348   33.5    0.39852   -20.4941  0.97311 
  -18.86509   0.0375   6.50975     14.65431  2.00931  0.48265   2.43436  0.09731     0.10761   7351.14124   7578.95016   1.4697          3310.5036     20.46284  0.16127  55414.38391   0.78473   0.0913   388475.61761   45.3554  19.84891  55452.63085    50.62171       44.00807   12.27082  33.30652   44.0      0.368   -20.6562  0.98372 
   -7.52994  0.00772   3.43051     14.40046  1.73138  1.17311   6.88507  0.02683     0.02483   8202.82541     7374.934  0.56491         5273.79163     20.86833  0.41026  55425.71906   2.76352  0.05314   299224.21082  45.96052  19.82883      55450.9    50.81288       44.35514   17.52975   21.0357   31.0    0.59117  -21.05018  0.99673 
   -7.26812  0.01582   1.99334     14.35363  1.75326  1.06193  14.38093  0.02572     0.01653   8056.71645   4312.49967   3.3831         2402.71454      21.2134   0.9081  55425.98088    5.5684  0.22752   126932.97231  46.80995  19.83585      55448.9    50.67818       44.23854    14.0238   21.0357   33.5    0.38965  -21.50751   0.9955 
  -12.40525  0.11976   5.62373     14.25302   1.7542  0.96498    2.5387  0.07501     0.01643   9434.48358   5251.97843  0.94579         3601.69499     20.77512  0.33101  55420.84375   1.34795  0.30404   1606552.2725  44.80698  19.85376  55452.63085    50.87726       44.42037    9.22899   25.8305   31.0    0.49527  -20.95292  0.95182 
  -14.09445  0.06346   3.60696     13.87834  1.51175  1.53092   1.29098  0.11861     0.02176   9831.86773   7695.76386   0.0186         2383.75395     20.83234  0.37763  55419.15455   0.74442  0.08193   3198095.8627  44.82915   19.8367  55450.37267    50.69476       44.14314   17.52975  24.54165   30.5    0.43557  -21.02958    0.993 
  -10.61658  0.01961   4.61498     14.38671  1.96071  1.07785   1.94911  0.19741     0.08197  13103.87629   8862.96569  0.17212         2751.15601     20.90757  0.44905  55422.63242   1.99647  0.03821   653368.92119  45.41776  19.85473      55450.9    50.53928       43.94091   22.78867  29.80057   23.5    0.52718  -21.20303  0.99643 
   -5.20402  0.10665   1.04035     14.96114  1.56973  0.46972  14.34111   0.0462     0.07022  12157.15724   4989.92645  2.27507         2306.32534     20.69051  0.27242  55428.04498  12.64369  1.52946     1886.75435  49.15459  19.81602      55450.9    50.71088       44.19173   15.77677  22.78867   28.5    0.40262  -21.33024   0.9978 
   -11.4198   0.0139   1.41577     14.47588   1.9772  1.08699  14.42095   0.0307     0.09062   9527.71764   8284.48005  1.28456         2656.29449     21.16692  0.81593   55421.8292   7.80906  0.20052    41123.27634  47.64882  19.86066      55450.9    51.30884       44.86091   12.27082   21.0357   29.5    0.43685  -21.35305  0.99862 
   -13.7975  0.07416   6.85968     14.57775  1.93691  0.67044    2.9043  0.16773     0.03417  10921.04082   6414.54793   4.3349         2597.27148     20.20426  0.08892   55419.4515   2.06632  0.21538   591602.17407  45.11132  19.83271  55452.63085    51.22785        44.7757    8.76487  22.78867   29.0    0.46079  -20.79027   0.9563 
   -9.16041  0.00531   1.77815     14.18759  1.67454  1.08287   4.71672  0.07367     0.01852  10653.91774   8391.42296  1.35209         3048.28732     21.34472   1.2287  55424.08859   3.19364  0.02506   207234.44243  46.67634  19.78873  55452.63085     51.0138        44.4833   13.59795  26.72047   29.0    0.51026  -21.96616  0.99957 
  -10.17276  0.07776   2.52243     14.30057  1.76037  1.10059   7.80526  0.04685      0.0472   9607.79932   5923.13074  1.76794         2738.49723     21.21024   0.9015  55423.07624   4.29796  0.60695   260562.59185   46.2949   19.7438    55453.193    50.57912        44.0759    19.8925  23.93187   36.0    0.43901  -21.54754  0.98066 
   -7.14768  0.00669   3.95438      14.7861  1.91443  0.24848   4.51559  0.04534     0.14754   9269.08811   9439.66348  4.51517         2911.89849     21.32181  1.16556  55426.10132   2.31428   0.0302     74441.4083  46.48491  19.85201      55448.9    51.06573       44.62195   12.27082  19.28272   33.0    0.54385  -21.88578  0.99784 
   -9.22597  0.00787   2.51722     14.80901  1.60661  0.52296   4.89158  0.11683     0.19267  10014.27477   6021.64515  0.46584         5731.73831     20.43639  0.15175  55424.02303   2.92628  0.03849    22779.98874  47.31536  19.87283  55450.37267    51.19712       44.67698    16.2044  24.11401   24.5    0.50837  -20.89698  0.99871 
  -24.72381  0.00852   4.03674     14.54519  1.99894  1.51257   6.59171  0.15762     0.01167   7809.85447   5160.90256  1.12786         3036.36896      19.2961  0.01099  55408.52519   2.39834  0.05614   245640.47169  45.96728  19.83616  55452.63085    50.63165       44.02731   19.28272  28.04759   31.0    0.33397  -19.95067  0.99617 
  -10.88306   0.0396    6.0574      15.0038  2.11072  0.37725   5.56955  0.05564     0.27101    8485.0505   3526.64351  0.62206         5640.47305     20.22491  0.09325  55422.36594   2.39197  0.22053    70667.75853  46.17948  19.80391  55452.63085    50.72183        44.1867   16.76939  23.54903   29.5    0.51328  -20.77348  0.96925 
  -13.48084  0.15646   6.09579     14.51519  1.84331  0.75534   5.36292  0.04286     0.38284   8054.96603   7577.08911  1.06508         3430.07869     20.64178   0.2435  55419.76816   2.07566  0.83911   593059.08001  45.19128  19.84121      55450.9    50.87317       44.41255   16.76939  21.79605   44.0    0.41226  -20.72932   0.8688 
  -12.01354   0.0013   5.97453     14.67257  1.91256  0.67711   4.18324  0.11847      0.0261  10853.51053   4733.73129  2.80876         2365.92725     19.59355  0.02179  55421.23546   2.93954  0.00546   286354.35366  45.54095  19.81092  55452.63085    51.07431       44.61568   12.27082  22.78867   27.0     0.4902  -20.69875  0.99912 
   -7.27679  0.00711   5.30195      14.3186  1.87788  1.09393     2.852  0.05371      0.2071   7533.23416   7850.20725  4.50173         3019.38164     21.10838  0.71303  55425.97221   0.96547  0.02027  1130213.49769  45.04048  19.80551      55448.9    50.89203       44.39048    14.0238   21.0357   35.0    0.57709  -21.35636  0.99732 
