 texplosion  fnickel    Pspin  log(Bfield)      Mns  thetaPB   mejecta    kappa  kappagamma      vejecta  temperature    alpha  cutoff_wavelength  log(nhhost)      A_V         MJD0  kenergy  mnickel             TSD   log(L0)  Peak_mag     Peak_MJD  log(E_rad)  log(Peak_lum)  Rise_Time    E_fold  tau_1  delta_m15     r_peak     frac 
  -31.49361  0.08418  3.49669      13.8529  1.94602  1.14613   5.44502  0.08003     0.05684   8422.74065   8137.26329  0.48913         4222.90568     18.27777  0.00105  56855.90639  2.30427  0.45834   4349851.15311   44.8322  22.24339  56932.94164    51.30255       44.52365   30.02537  48.25506   69.0    0.14284  -21.63311  0.97477 
  -29.48293  0.26462  3.06227     13.62548  1.67134  1.26609   2.71864  0.12627     0.20386   9849.58616   3817.12975  0.32648         5293.35942     16.65777    3e-05  56857.91707  1.57331   0.7194    8165884.7759  44.60782  22.27102  56932.94164    51.30505       44.51685   32.17004  49.80187   82.0    0.11815  -21.75509  0.96142 
  -32.22886  0.03679  3.21678     13.72017  1.76473  1.13921   8.85456   0.0419     0.02014   8171.46079   7689.85633  0.56026         3895.52256     18.05097  0.00062  56855.17114   3.5269   0.3258   6151732.48311  44.71168  22.27034  56932.94164    51.32928       44.50941   31.83789  49.05734   67.0    0.12061  -21.59897  0.98203 
  -35.06634  0.03886  2.74107     13.61006  1.52612  1.46983  10.71192  0.03493     0.01481   7424.56622   8495.39593  0.59168         4573.98155     19.85035  0.03936  56852.33366  3.52238  0.41626    6413965.4408  44.76947  22.26764  56932.94164    51.34618       44.52496    31.0977  48.72954   65.5    0.12827  -21.67749  0.97954 
  -32.48002  0.14575  3.07177      14.0494  1.59084  0.53083  12.98839  0.03717     0.12143    7897.8298   8132.49499  0.56604         4327.79209     19.27224   0.0104  56854.91998  4.83279  1.89307   1110232.04546  45.45028   22.2607  56930.47312    51.27806       44.50867   28.95303  49.32739   76.5    0.14972  -21.62435  0.90057 
  -34.00558  0.01769  2.96581      14.0022  1.75007  0.51211   7.72257  0.06328     0.14942    9179.7469   6369.14236  0.30975         5652.46866     20.05163  0.06257  56853.39442  3.88195  0.13662    1415032.4688  45.41685  22.25415  56932.94164    51.34707       44.51247   33.24237  51.47206   89.5    0.13741  -21.82284  0.99352 
  -37.93383  0.24072  3.11044     13.92888  1.74418  0.63866   2.13696  0.27984     0.19225   9263.59867   4078.87471   0.2694         5490.94893     18.09406  0.00069  56849.46617  1.09391  0.51441   2174196.06224  45.18749  22.25892  56930.47312    51.40381       44.53902    31.0977  55.82272   72.5    0.13589  -21.75705  0.97351 
  -32.50787  0.02059  2.94089     13.63747  1.60036  1.31275   5.92721  0.07027     0.30517   8911.79722   3894.51422  0.39008         5040.82175     17.53553  0.00019  56854.89213  2.80807  0.12207   6824273.60204  44.70205  22.25191  56930.47312    51.32177       44.53966   30.02537  50.39972   90.0    0.12957  -21.71619  0.99343 
  -32.32137  0.11239  3.35826     13.78347  1.83686  1.34252   8.76068   0.0558     0.04255   8830.15098   6464.40849  0.39933         4633.01701     17.76482  0.00032  56855.07863  4.07475  0.98464    5214057.3156  44.76352  22.25747  56930.47312    51.36065       44.51372    31.0977  57.90607   76.5    0.14732  -21.68551  0.94699 
  -31.12083  0.16401  3.03886     13.69825  1.60338  1.45687   9.43129  0.05057     0.38766   8527.89866   6337.45811  0.50623         5547.28751     16.76168    3e-05  56856.27917   4.0915  1.54686   5517835.36765  44.76669   22.2416  56932.94164    51.36415       44.52734   31.83789  51.80421   87.0    0.14811   -21.7826  0.91904 
  -33.73707  0.11638  2.95453     13.89665  1.68591  0.46121   7.30194  0.04694     0.01535   8846.13803   9068.73895  0.43485         4067.49043     16.16881    1e-05  56853.66293  3.40858  0.84977   2199474.48769  45.21238  22.25903  56932.94164    51.32792       44.50125   32.17004  47.18272   52.5    0.13405  -21.65907  0.95762 
  -33.63189   0.0058  2.94341     13.94277  1.57675  0.51633   7.23611  0.05673     0.05208   8233.37916    4638.4372  0.47972         4101.28014     17.46628  0.00016  56853.76811  2.92609  0.04195   1650992.68161  45.31116  22.25508  56932.94164    51.32548       44.51466   30.76555  49.06169   81.0    0.13082  -21.60798  0.99769 
  -36.11042  0.28783  3.66553     14.07075  1.96629  0.79483  13.02791  0.05289     0.04818   8542.94687   7499.85338  0.38903         4604.51141     17.34431  0.00012  56851.28958  5.67176  3.74979   1771039.45581  45.18599  22.26043  56928.00461    51.29922       44.50919   30.02537  52.54439   76.0    0.14122  -21.67523  0.81577 
  -33.86978  0.05731  2.95244     13.69577  1.63846  1.19028   5.85049  0.07103     0.03564   7795.95411   3394.56285   0.5751         5909.40834     18.73849  0.00304  56853.53022  2.12109  0.33528   5383608.22464  44.81185  22.24379  56930.47312     51.2995       44.52917   30.02537  49.32739   71.5    0.14372  -21.79771  0.98276 
  -33.41853   0.0187  3.01156     13.72741  1.62843  1.17797   6.49167  0.07777     0.19845   8669.79032   5780.63176  0.40421         4332.72743     18.34063  0.00122  56853.98147  2.91072   0.1214   4812121.89133   44.8407  22.26362  56932.94164    51.31807       44.53074   31.83789  49.05734   85.0    0.14258   -21.6548  0.99341 
  -34.05405  0.04793  3.18168     13.83181  1.74315  0.76359   8.55357  0.03965     0.01083   7325.12686   8575.50184  0.73534         3798.93655     17.34465  0.00012  56853.34595  2.73782  0.40995   3555032.86406  44.95402    22.264  56932.94164    51.36061        44.5224   31.83789  50.73187   57.0    0.13603  -21.54609  0.97757 
  -30.03383  0.13747  3.09293     13.79703  1.61789   0.7617   7.43545  0.04811      0.0257   8875.35853   6799.82646  0.48188          3817.4881     17.10251    7e-05  56857.36617  3.49387  1.02216   3659724.03123  44.93361  22.24405  56932.94164    51.34502       44.52506    31.0977  51.47206   66.0    0.13011  -21.61717  0.94301 
  -31.88246   0.0327  3.40415     13.89854   1.8786  0.94851   7.46027  0.05868     0.04243   8174.68629   8227.73267  0.56191         3868.08492     16.40159    1e-05  56855.51754  2.97388  0.24393   3225369.02116  44.97008  22.25908  56932.94164    51.32071       44.53499   30.76555  49.06169   68.0    0.15009  -21.59395  0.98647 
  -31.81928  0.01385  3.09617     13.79579  1.81221  0.78273     5.663  0.06473     0.03966   9764.13119   4726.42999  0.28331         4854.52016     19.83472  0.03797  56855.58072  3.22063  0.07843   4131342.25342  44.92931  22.24989  56930.47312    51.33636       44.52893   28.95303  49.32739   66.0    0.12156  -21.76579  0.99606 
  -32.62876  0.00238  3.47184     13.79498  1.99441  1.41857   3.00048  0.15577     0.12621    9241.1915   4667.97775  0.34607         4081.62544     19.38823  0.01358  56854.77124  1.52853  0.00713   5738440.49343  44.72875  22.26149  56932.94164    51.31818       44.52095    31.0977  49.32739   74.0    0.14068  -21.67774  0.99961 
  -37.47544  0.00462  3.04402     13.63481  1.70587  1.50781   5.31789  0.08712     0.04774   9016.52609   7307.76162  0.29082          3872.9997      18.5534  0.00199  56849.92456  2.57896  0.02458   7889243.52121  44.63686  22.26914  56930.47312    51.37174       44.50364   32.17004  52.80361   68.5    0.12308   -21.6504   0.9987 
  -36.11541  0.00313  2.57089     13.64435  1.35108  0.89507   4.23715  0.11932     0.25473   8839.46569   6214.33794  0.34478         4446.10146     17.99923  0.00055  56851.28459  1.97494  0.01328   4265363.58355  44.94941  22.27419  56930.47312    51.29404       44.51882   30.76555  49.65954   90.0    0.13519  -21.67965   0.9993 
  -31.47703   0.0124  2.61393     13.48932  1.44426  1.15694   5.48083  0.06599     0.03971   9902.05004   5983.56328  0.31721         4715.47173     17.05649    6e-05  56855.92297  3.20571  0.06799   9625129.38334   44.6105  22.27204  56932.94164    51.29276       44.51086    31.0977  46.11039   66.0    0.11361  -21.75901  0.99653 
   -33.8382  0.00104  3.34538     13.78055   1.8692  1.33265   4.20781  0.09804      0.1701   8193.36482   6131.45582   0.4876         4039.69459     16.69841    3e-05   56853.5618  1.68503  0.00437   5336638.21757  44.76434  22.26297  56932.94164    51.31215       44.51631   31.83789  50.73187   90.5    0.14169  -21.59998  0.99976 
  -33.73403  0.00739  2.97616     13.72973  1.62392  1.05572   6.76431  0.07259     0.11873   9044.48537   5529.76982  0.33407         4316.36355     17.20514    9e-05  56853.66597  3.30079  0.04998    4636900.2078  44.86587  22.26199  56932.94164    51.35068        44.5208   32.91022  51.80421   85.0    0.14426  -21.67429  0.99732 
   -37.9659  0.14974  2.62115     13.62446  1.48395  0.76484   2.80162  0.17222     0.06102  10088.60252   8320.84033  0.03224         5080.86074     18.30413  0.00112   56849.4341  1.70098  0.41952   5337131.33554  44.87597  22.24729  56932.94164    51.35619       44.52646   31.83789  47.51487   52.5    0.14209  -21.71785   0.9797 
  -33.79997  0.14898  3.25829     13.74562  1.80166  1.39912    4.5956  0.10334      0.2814   8571.99967   5512.17989  0.49007         5181.65334     16.43277    2e-05  56853.60003  2.01434  0.68466   5731045.79662  44.74031  22.26736  56930.47312    51.32046       44.50851    31.0977  49.80187   86.5    0.13983   -21.7501  0.96356 
  -33.16038  0.02702  2.99619      13.8137  1.64362   0.8665   6.52642    0.069     0.21542   8357.02185   8265.21781   0.4844         5096.03586     16.31873    1e-05  56854.23962  2.71897  0.17635   3231135.27157  45.02215  22.26085  56930.47312    51.29664       44.53934   28.95303  48.25506   77.0     0.1469  -21.72385  0.99068 
  -34.33535  0.00159  3.45968     13.79141  1.96241  1.54729   2.77499  0.14631     0.23295   7945.66156   4155.96324  0.58511         4345.22292      17.9719  0.00052  56853.06465  1.04508   0.0044   5699770.30508  44.72771  22.29313  56932.94164    51.33749       44.49605   35.38704  49.32739   87.5    0.13683  -21.63839  0.99976 
  -35.78573  0.13361  3.39719     14.00036  1.88907  0.65067   3.81685  0.10805     0.07029   7523.97295   8048.02198  0.59205         4124.99414     17.58702  0.00021  56851.61427  1.28892  0.50998    2021094.1439  45.17727  22.27468  56930.47312    51.31245       44.50927   32.91022  52.87654   73.5    0.13057  -21.57956  0.97232 
  -36.07358   0.0028  2.67701     13.56884  1.43102  1.24172   3.70029  0.11828     0.08306   8739.87798   6762.11246  0.36503         4246.05079     19.20337  0.00887  56851.32642  1.68606  0.01036   6935516.98135  44.72811  22.26129  56930.47312    51.35438       44.51365   30.02537  52.80361   75.5    0.12339  -21.65997  0.99945 
  -33.37996  0.01608   3.2117     13.76708  1.81328  1.43158   2.62251  0.17456     0.26098   8008.97133   3024.18856  0.56567         4174.13266     19.65612  0.02517  56854.02004  1.00346  0.04217   5076784.77643  44.80825   22.2749  56932.94164    51.29395       44.50347    31.0977  48.72954   84.5    0.14259  -21.64834  0.99778 
  -33.43949  0.01788  3.68436     13.95324  2.09661  0.92206   4.29307  0.08524      0.0669   7516.87602   8501.91522  0.63427         4148.02485     16.85001    4e-05  56853.96051    1.447  0.07678   3277726.54852  44.94207  22.25263  56932.94164    51.35764       44.51015    31.0977  52.54439   73.5    0.13739  -21.57126  0.99571 
  -31.52371  0.00329  2.98249     13.69698  1.81722  0.78662   5.81239  0.04472     0.02136   8914.19024   3404.49398  0.40831         4790.58896     19.57423  0.02084  56855.87629  2.75515  0.01913   6059157.11408  44.79668  22.24748  56930.47312    51.40258       44.55203   32.17004  49.80187   62.5    0.10954  -21.71619  0.99908 
  -37.29421  0.00216  3.44441     13.96444  1.99509  0.79714   5.46498  0.10128     0.09189   8308.03639   3020.10259  0.45715          4787.3013     17.83753  0.00038  56850.10579  2.25015   0.0118   2588993.71942  45.08145  22.27153  56932.94164    51.30578       44.51257   30.02537  50.39972   78.0    0.14357  -21.69627  0.99938 
  -30.79754  0.36819  2.77639     13.61925  1.39143  1.08201   3.33441  0.11349     0.21895   8824.04463   5201.24975  0.45849          4874.4755       16.153    1e-05  56856.60246  1.54875   1.2277   5750824.86888  44.76561  22.25556  56930.47312    51.29465       44.53581   28.95303  47.18272   88.5    0.13522  -21.69093  0.93207 
  -37.74508  0.00987  2.69586     13.65074  1.48156  0.87755     3.917  0.13022     0.09142   9514.60519   6780.68992  0.20015         5449.08617     18.85579  0.00399  56849.65492  2.11525  0.03868   4994012.54814  44.87972  22.23549  56932.94164    51.33763       44.55274   30.02537  49.32739   73.0    0.12681  -21.74576  0.99802 
  -32.00806   0.0921  3.26707     13.85429  1.78056  0.99027   7.21267  0.06074     0.04807   8105.71479   8025.57089  0.58237          4324.6147     16.46132    2e-05  56855.39194  2.82687  0.66428   3452272.09962  44.95298  22.27093  56932.94164    51.33563       44.51448   31.83789  51.80421   72.5    0.15014   -21.6498  0.96408 
  -34.19813  0.01567  3.08279     13.88529  1.68849  0.64259   8.78379  0.04816     0.04856   8664.70355   5063.13465  0.41863         4105.55268     17.89576  0.00044  56853.20187  3.93384  0.13767   2527043.02592  45.11584    22.255  56932.94164    51.34165       44.50911   32.17004  49.32739   82.5    0.13128  -21.63953   0.9925 
   -37.2073  0.02319  3.10171      13.7693  1.70854  1.21907  10.79018  0.05036     0.04178   8149.62974   6180.69303  0.42348         3822.98905      17.3343  0.00012   56850.1927  4.27496  0.25019    4416213.4971  44.87322  22.24492  56930.47312    51.37152       44.53484   30.02537  50.39972   79.0    0.14427   -21.5892  0.98672 
   -34.9134  0.21416  3.58954     13.87125  1.97421  1.42283   7.92094  0.06388     0.08316   8158.57233   8348.01022  0.52629         4737.08405     17.70054  0.00028   56852.4866  3.14508  1.69634   4273605.10252  44.82337  22.25767  56932.94164    51.31711       44.51852   31.83789  52.06342   74.0    0.14914  -21.68183  0.91065 
  -30.89517  0.02458  3.74065     14.26444  2.09475  0.44625   2.71828  0.16622     0.21622   8004.80323   5888.26744  0.60119         3825.17899     16.19108    1e-05  56856.50483  1.03902   0.0668     805311.4061  45.53812  22.25362  56930.47312    51.36091       44.52311   28.95303  49.32739   81.5    0.15715  -21.56125  0.99617 
  -33.96548   0.0177   2.9103     13.82888  1.54611  0.72967   7.98504  0.05265     0.20188   7763.71947   4144.40704  0.59831         3806.35698     18.83318  0.00378  56853.43452  2.87107  0.14136   2674064.34464  45.10304  22.25864  56935.41015    51.31593       44.51545   32.17004   47.6572   92.0    0.13475  -21.57066  0.99225 
  -36.03211  0.16109   3.4442     13.85812  1.92421  1.02534   7.47706  0.06849     0.22739   8823.62087    7952.7912  0.33721         4123.34444     18.80643  0.00356  56851.36789  3.47257  1.20448   4073779.87546  44.86892  22.25149  56932.94164    51.32291       44.52974    31.0977  48.72954   83.5     0.1383  -21.65693  0.93696 
  -35.04373  0.01528  3.35784      13.9229  1.96576    0.751   5.41916  0.08629     0.07259   9020.63445     7750.578  0.33242         5880.03573     19.34352  0.01225  56852.35627  2.63047   0.0828   2935379.70248  45.04259  22.28054  56935.41015    51.31986       44.50678   33.24237  49.32739   74.0     0.1387  -21.77616  0.99573 
   -35.7786  0.00299  2.82979     13.66037  1.58267  1.23238   5.34777  0.09129     0.07259   8448.39348   5088.91197  0.41525          5769.7807     19.59401  0.02181   56851.6214  2.27692  0.01601   5623136.55293  44.81475   22.2778  56930.47312    51.37796       44.52217    31.0977  53.61673   77.0    0.13821  -21.78115  0.99919 
  -35.59816  0.01936  3.26744     13.72107  1.86378  1.38608   5.66507  0.08224      0.0788   9108.54626   5889.87778    0.286         4829.39256     17.95847   0.0005  56851.80184   2.8037  0.10968   6675508.89514  44.68634  22.25659  56932.94164     51.3668       44.51793   33.98256  52.87654   80.5    0.12827  -21.69834  0.99419 
  -34.02417   0.0144  2.96235     13.84341  1.64105  0.71065    7.0833  0.06618     0.16426   8948.64447   5444.09289  0.39722         5118.41341     18.98516  0.00537  56853.37583  3.38359  0.10199   2750353.22478   45.1013  22.24954  56932.94164    51.34261       44.59336   30.02537  43.96572   88.0    0.13933  -21.75192  0.99466 
  -35.60484  0.00141  2.78066     13.70195  1.70169  0.66366   3.14481  0.10011     0.03176   8396.97105   8641.95136  0.43711         5913.80185     16.16228    1e-05  56851.79516  1.32272  0.00442   4820435.42401  44.92834  22.26297  56932.94164    51.35992       44.51158   30.76555  50.73187   55.5     0.1288  -21.77847   0.9998 
  -34.34327  0.02676  2.51976     13.47401  1.41039  1.05777   5.61665  0.06085     0.02004    8818.2014    8054.6174  0.36865         4205.97671     18.60495  0.00224  56853.05673  2.60534  0.15031   9372327.47021  44.64362  22.24816  56932.94164    51.32302       44.50733   33.24237  50.39972   56.0    0.12989  -21.65917   0.9926 
  -30.85929  0.02282  2.84284     13.58728  1.51891  1.43185   6.61782  0.05461     0.10362   8920.01606   5167.39113  0.42741         4890.90721     17.05012    6e-05  56856.54071  3.14104  0.15102   7625778.66103  44.66059  22.28565  56930.47312    51.37233        44.5124   30.76555  53.94888   87.5    0.13091  -21.70504  0.99178 
  -38.25481  0.00612  3.34345     13.71657  1.97943   1.4636   4.35689  0.11879     0.06351   9858.03417   5548.15787  0.07243         5909.93088     18.65009  0.00248  56849.14519  2.52572  0.02667   7578745.97414   44.6374  22.23217  56930.47312    51.30234       44.54275   26.80836  50.39972   66.0    0.12288  -21.71815  0.99863 
  -34.29221  0.01396  2.87591     13.66808  1.61279  1.01188   1.68105  0.27249     0.17541  10025.82484   3355.10525  0.24307         3963.10128     19.63831  0.02416  56853.10779  1.00797  0.02346   5711935.86347  44.80209  22.24388  56930.47312    51.34195        44.5276   31.83789  52.87654   67.5    0.13256  -21.74098  0.99879 
  -33.74134  0.07783  3.29079     13.69743  1.87932  1.32238  10.37966  0.03569     0.01706   8793.86039   5342.78075   0.3961         5748.23347      18.0592  0.00064  56853.65866  4.78817  0.80786   7612936.17803  44.62669  22.25442  56930.47312    51.30213       44.52706   28.95303  50.39972   66.5    0.12812  -21.76045  0.95829 
  -34.18991  0.14373   3.0991     13.71131  1.65878  1.43124   3.83869  0.11711     0.45581   8248.47645   3768.31008  0.52898          4038.4555     18.55316  0.00199  56853.21009  1.55796  0.55175   5590666.29973   44.7587  22.25289  56930.47312    51.30582       44.50399    31.0977  54.68906   89.0    0.14023  -21.62054  0.96983 
  -33.16293  0.07713  3.31714      13.7695  1.87625  1.09707   5.80369  0.07001     0.06034   9101.64759   5541.81205  0.35711         4799.76822     18.61607   0.0023  56854.23707  2.86795  0.44764     5541629.379  44.75697  22.25877  56932.94164    51.31119       44.52732   30.02537  48.25506   78.0    0.12705  -21.70949  0.97623 
   -33.5683   0.0328  3.44089     13.86074  1.94552  1.11047  10.81692  0.04719     0.06153    8267.2773   6104.96371  0.51221         4630.24776     17.87493  0.00042   56853.8317  4.41018  0.35483   4061728.70612  44.87583  22.25884  56932.94164    51.33538       44.52379   31.83789  44.29787   83.5    0.14268  -21.68605  0.98099 
  -33.53933  0.01925  3.04006     13.76477  1.72833  1.23568  11.62513  0.04318      0.0859   8402.52844   4625.62897   0.4386         4381.09513     19.88139  0.04228  56853.86067  4.89604  0.22376   4381882.10631  44.89905  22.24359  56930.47312    51.30164       44.51837   30.02537  49.32739   84.0    0.14793  -21.69055  0.98877 
  -30.42038  0.01226  2.97622     13.89094  1.68144  0.62691   6.41365  0.05295     0.09281   8468.99382   4299.76222  0.52865         4476.37246     20.00029  0.05559  56856.97962  2.74407  0.07861   2285315.59263  45.18825  22.25324  56932.94164    51.34578       44.51603   31.83789  53.94888   88.5    0.12938  -21.71281  0.99598 
  -31.83037  0.00675  3.19713     13.91297  1.83455  0.67307   9.23502  0.03909     0.01903   7896.11629    3257.1157  0.62198         5773.22845     19.18066  0.00842  56855.56963  3.43473  0.06237   2599765.71876  45.10792  22.25228  56932.94164    51.32713        44.5039   32.17004  54.75039   68.5    0.13576  -21.81359  0.99676 
   -35.2718   0.0206  3.27917      14.0204  1.91507  0.71624    3.5715  0.13892      0.2395   7392.39781   8088.82551  0.59997         4231.81205     19.68296  0.02677   56852.1282  1.16425  0.07358   1740686.39372  45.27878  22.26922  56928.00461    51.30677       44.54109   28.95303  49.32739   76.0    0.14745  -21.62196  0.99631 
  -31.93955  0.13636  3.40092     13.87316  1.91305  0.78537   8.66258  0.04242     0.02192   8738.26459   6512.73876  0.46527         5930.00246     16.39394    1e-05  56855.46045   3.9457   1.1812   3684798.81354  44.92096  22.26942  56928.00461    51.29785       44.52397   25.60611  53.74664   68.5    0.13412  -21.79121  0.93823 
  -30.35733  0.06343  3.32594      14.0492  1.86516  0.50183   5.59346  0.06822     0.40157   8763.28537   5943.96751  0.54939         5772.30427     16.30129    1e-05  56857.04267  2.56237   0.3548   1527400.47207  45.31178   22.2395  56930.47312    51.33778       44.51634   32.91022  53.94888   91.5    0.14226  -21.82171  0.98086 
  -30.92716  0.31853  3.49509     13.91527  1.85363  0.91334   7.90002  0.06444     0.03601   8882.45081   5661.30171  0.44019           5011.705       16.649    2e-05  56856.47284   3.7181  2.51639   3106120.92771  44.95773  22.25151  56930.47312    51.33154       44.52411   30.02537  53.61673   70.0     0.1478  -21.73357  0.86789 
  -37.14777  0.00585  3.08362     13.83776  1.75622  0.83198   9.11775  0.05805     0.01728   8244.18151   9017.54105  0.43452         4978.16079     16.51783    2e-05  56850.25223  3.69666  0.05335   3273430.56428   45.0203  22.24339  56932.94164     51.2802       44.52794   31.83789  44.29787   53.5    0.14449  -21.71357  0.99727 
  -31.18739  0.11521  2.95708     13.62105  1.55132  1.26192  12.59405   0.0308     0.01545   8657.95625   6404.88177  0.49657         4912.61609     18.04884  0.00062  56856.21261  5.63149  1.45101   7213444.28438  44.65968  22.26522  56930.47312    51.29251       44.49727    31.0977  53.61673   69.5    0.12868  -21.72298  0.92287 
  -31.00721  0.05022  3.12559     13.89287  1.70251  0.58778   6.76361  0.05169     0.03594   9248.23777   3899.79736  0.35276         4048.46699     16.60019    2e-05  56856.39279  3.45083  0.33965   2529469.42209  45.10704   22.2599  56930.47312    51.35882       44.52573    27.8807  53.61673   69.0    0.11983  -21.64149  0.98125 
  -33.21856  0.09468  3.63325     13.83036  2.02678   1.3173    7.2865  0.06229     0.40733   9410.93605   5635.53904  0.29966         3666.41573     16.14391    1e-05  56854.18144  3.84957  0.68986   5426109.11572  44.72057  22.28313  56935.41015    51.34581       44.51319   33.24237  48.25506   92.5    0.13753  -21.63316  0.96173 
  -32.18234  0.33441  3.58221     13.79571   2.0316  1.55924   2.87611  0.12729     0.08188   8224.52582   4024.21012  0.54568         4657.54216     19.54525   0.0195  56855.21766  1.16052  0.96179   6202156.46934  44.67584  22.25879  56930.47312    51.34474       44.52135   32.17004  49.79753   75.5    0.13113   -21.6852  0.94884 
   -33.9802  0.00408  3.23554     13.75143  1.75824   1.4883   5.25427  0.07142     0.05015   7060.10931   6101.43761   0.6799         4001.66817     18.36294  0.00128   56853.4198  1.56229  0.02146   5369341.66023  44.76411  22.26092  56930.47312    51.30654       44.51794   30.02537  52.54439   83.5    0.13715  -21.51906   0.9988 
  -34.15863  0.21979  3.52504     13.81435  1.91191  1.32223  12.07018  0.03766     0.01393   8161.16312   7084.77028  0.50732         5187.00116     18.95343  0.00499  56853.24137  4.79562  2.65288   5186918.89127  44.74108   22.2479  56930.47312    51.35247       44.53982   30.02537  50.39972   64.5    0.13766  -21.73145  0.86457 
  -29.05622  0.00228  3.26183      13.8913  1.81286  1.00617  11.30867  0.03044      0.0866   6507.11179   5827.88646  0.92713         4067.99518      19.5745  0.02086  56858.34378  2.85637  0.02582   2954654.54272  45.02978  22.23936  56932.94164    51.33623        44.5232    31.0977  51.47206   87.5    0.15943  -21.55973  0.99861 
  -35.00258  0.04763  2.95204     13.63393  1.64434  1.20591   2.77314  0.18499     0.12392  10387.74026   7220.25692  0.15699         4711.36121     16.72873    3e-05  56852.39742  1.78501  0.13209   7181231.29299   44.6884  22.28123  56932.94164    51.34999       44.50881   32.17004  50.39972   65.5     0.1298  -21.75818  0.99307 
  -32.57937  0.04563  2.70867     13.58442  1.44515  1.51874   6.39112  0.07528     0.09117   8951.06984   7794.89773  0.38833         5163.83701     19.44862  0.01561  56854.82063   3.0546  0.29163   6674390.69285  44.73884  22.26784  56932.94164    51.29418       44.51758   33.24237  48.25506   78.5    0.13962  -21.75001  0.98473 
    -33.307  0.00387  3.06192     13.78703  1.73837   0.7608   5.56513   0.0653     0.03236   8684.44072   8097.13461  0.45512         5853.29012      17.1499    8e-05    56854.093  2.50372  0.02152   4035336.09821  44.93112  22.26809  56930.47312    51.30473       44.52218   30.02537  51.47206   63.0    0.13052  -21.78195  0.99887 
  -36.45751  0.00515  3.61827     13.92292    2.179  1.10494   6.45171  0.08746     0.03026   8170.68375   8852.75096  0.48814         5409.70852     16.21618    1e-05  56850.94249  2.56932  0.03325   3777772.37726  44.91287  22.25991  56932.94164    51.34816       44.53052    31.0977  51.47206   55.5    0.15166  -21.76679  0.99831 
  -33.55483  0.24153  2.60057      13.4304   1.5847  1.10495   6.03125   0.0617      0.0267  10907.03954   7605.28905   0.0662         5075.40132     17.69577  0.00028  56853.84517  4.28005  1.45674  13711665.12516  44.50156  22.26881  56930.47312     51.3079       44.50214   32.17004  53.61673   56.5    0.12502  -21.77966  0.93711 
  -32.80394  0.08459  3.04639      13.6939  1.66162  1.54406   4.44393  0.11056     0.08398   8700.07406    7650.1447  0.45122         5437.18664     18.27031  0.00104  56854.59606   2.0065  0.37592   5862930.24907  44.75369  22.24928  56930.47312    51.36067       44.51607   32.17004  52.54439   71.5    0.14567  -21.76219  0.97996 
  -37.14029    0.351   3.5071     13.85944  1.86156  1.07602   7.22885  0.07514     0.49612   8734.33732   3909.27113  0.33075         3994.86966     16.41491    1e-05  56850.25971   3.2897  2.53733   4061672.64259  44.84012  22.25129  56930.47312    51.31103       44.51336   30.02537  54.68906   88.0    0.12986  -21.62673  0.86661 
  -32.46093   0.0022  3.16589     13.98648  1.86638  0.46185    4.6843  0.06812     0.02446   7912.58534   5408.66928  0.67447         4846.03372     16.21379    1e-05  56854.93907  1.74948  0.01032   1848641.94986    45.272  22.23817  56930.47312    51.34108       44.52485   30.02537  49.32739   65.0    0.12393  -21.73933  0.99948 
  -34.53984  0.43595  2.90377     13.93612  1.58315  1.03827   7.43632  0.08993     0.03995   7041.61169   8413.00321  0.69656          3942.6609     16.88272    4e-05  56852.86016  2.19953  3.24187   1663467.92233  45.32143  22.23184  56932.94164    51.34572       44.52283   31.83789  49.65954   65.0    0.15246  -21.54799  0.85653 
  -34.24834  0.01482  3.20361     13.77044  1.79978   1.0803   7.46417  0.06363     0.03985   8788.51563   5198.91553  0.41646         5173.97857     16.92073    5e-05  56853.15166  3.43906  0.11064   4936770.50973  44.81934  22.24672  56932.94164    51.29386        44.5083   32.91022  49.65954   72.0    0.14246  -21.73903   0.9941 
  -36.89876  0.04982  3.06394     13.72345   1.7213  1.34789   7.67946  0.07522     0.09323   9003.79838   7509.52635  0.26726         5371.96964     19.26217  0.01016  56850.50124  3.71372  0.38262   5362074.09626  44.80281  22.26516  56930.47312    51.36481       44.51819   31.83789  51.80421   78.0    0.14474  -21.72949  0.98044 
   -35.7115  0.06312  2.75832     13.69732  1.50225  1.21198    5.1918  0.11386     0.31891   8430.12711   3825.67261  0.42014         5480.56485     18.07048  0.00065   56851.6885  2.20097   0.3277   4277578.73679   44.9331  22.22627  56930.47312    51.36437       44.53898   30.02537  48.25506   77.5    0.15639  -21.75355  0.98343 
  -35.33554   0.0022  3.19472     13.73857  1.75693  1.39261    5.3141  0.08205     0.08021   7692.85138   8251.75361  0.64803         4005.42926     17.13394    8e-05  56852.06446    1.876  0.01172   5549940.91587  44.76045  22.25645  56930.47312    51.34275       44.52077    31.0977  49.79753   77.5     0.1386  -21.59981  0.99936 
  -31.30367  0.00277  3.55785     13.80569  2.06266  1.29705  11.67115  0.02541     0.01099   7176.87531   7597.01814  0.78729         5034.12774     16.90435    4e-05  56856.09633  3.58601  0.03236   5932381.12232  44.70767  22.26462  56930.47312    51.31052       44.51687   30.02537  50.39972   67.5    0.13765  -21.71544  0.99825 
  -39.17923   0.1113  3.02489     13.85796  1.70579  1.00463   7.49236  0.10507     0.19469   8626.00105   8543.12761  0.31598         4946.22322      16.9974    6e-05  56848.22077  3.32556  0.83389   2787630.52858  45.09411  22.25873  56930.47312    51.32348       44.51988   32.17004  52.54439   63.0    0.15136  -21.69624  0.95934 
   -37.6484  0.02547  3.16369     13.66845  1.86627  1.28738   6.73493  0.06862     0.02991   9174.32506   6916.49831  0.31259         5330.82429     18.91583  0.00458   56849.7516  3.38149  0.17152   7984903.55047  44.63716    22.268  56932.94164    51.34589        44.5333   30.76555  47.51487   65.5    0.12757  -21.76868  0.99141 
  -32.53183  0.48359  3.53388     13.80798   1.8334  1.22869   5.71026  0.08094     0.16655   9004.45666    6825.0934  0.35702         4470.33897     16.89726    4e-05  56854.86817  2.76184  2.76143   5147632.63244  44.72399  22.25188  56930.47312    51.30775       44.52665   28.95303  47.82468   92.0    0.13709  -21.65991  0.85126 
  -33.22395  0.21316  3.33331     13.92421   1.7222  0.81366  11.02934  0.04882     0.02834   8517.23259   6131.11248  0.55016         4212.14659     17.30204  0.00011  56854.17605   4.7728  2.35099   2519025.27005  45.05794  22.28284  56928.00461    51.30774       44.53118   28.95303  51.47206   74.0    0.15253  -21.66585  0.87411 
  -33.72728  0.01245  3.21251     13.75382   1.7716  1.12224   3.44875  0.12672     0.35964   8651.09823   6572.54722  0.40118         3769.48462     17.60637  0.00022  56853.67272  1.53968  0.04293    5275104.9747  44.78129  22.28171  56932.94164    51.32599       44.50645   32.91022  50.73187   94.0    0.13076   -21.6056  0.99763 
    -36.177  0.00291  2.46604     13.56304  1.32908  1.16656   7.45126  0.06695      0.4729    8878.0278   5037.70273  0.32052         3985.24011      19.8881  0.04294    56851.223   3.5034  0.02166   5614284.10627   44.8591   22.2473  56932.94164    51.31812       44.52484   30.76555  49.65954   88.0    0.13512  -21.68843  0.99892 
    -28.788  0.00163  3.22666     13.82016  1.74938  0.88703   3.96054  0.08512     0.14739    8190.1354   7054.99372  0.62286         4528.70735     16.01047    1e-05    56858.612  1.58476  0.00646   3871545.28181  44.90634  22.25307  56930.47312    51.34912       44.52521    27.8807  52.54439   88.5    0.13952  -21.65674  0.99963 
  -31.02195  0.07551  2.81081     13.60831  1.50137  1.48899   2.05918  0.20029     0.15238    8625.3974   6726.42057  0.45058         5430.49298     19.29411  0.01094  56856.37805  0.91386  0.15549   6688729.53708  44.72233  22.24525  56930.47312    51.32836       44.55415   28.95303  50.87421   74.5    0.14509  -21.74431  0.99165 
  -33.51437  0.00823  2.93746     13.82789  1.60213  0.72606   2.96688  0.16097     0.22989   9127.08002   6287.23646  0.29922         4359.43709     19.15878  0.00801  56853.88563  1.47432  0.02442   2835842.46694  45.08492  22.24276  56930.47312    51.28162       44.51594   28.95303  49.32739   84.0    0.13606  -21.67391  0.99869 
  -31.54717  0.09415  3.11409     13.68319  1.73151  1.32211     3.853  0.10172     0.07277   9218.99679   5270.72178   0.3305         4898.36605     19.56705   0.0205  56855.85283  1.95341  0.36275   6706898.86959  44.69409  22.24143  56930.47312    51.35823       44.52587    27.8807   58.9784   71.0    0.12811  -21.71263  0.98078 
  -35.98471  0.17653  3.19808     13.74453  1.76188  1.33321   4.45336  0.10241     0.04856   7759.53133   7851.66799  0.54056         4593.08691     17.97416  0.00052  56851.41529   1.5995  0.78615   5426324.55059  44.77054  22.26963  56932.94164    51.28671       44.50594   30.76555  50.73187   69.0    0.13781   -21.6522   0.9586 
  -35.89718    0.029  2.96174      13.7305  1.59995  1.18276  11.37252  0.04772     0.06057   8303.82314    5990.1182  0.44057         4311.03484       18.475  0.00166  56851.50282  4.67778  0.32977   4508270.36134  44.87585  22.25248  56930.47312    51.33355        44.5679   30.02537  47.82468   83.0    0.14821  -21.64281  0.98246 
  -32.73241  0.20905  2.73031     13.66209  1.35611  1.29349   13.5289  0.03784     0.04776   7641.83058   4555.89922  0.67019         5074.49207     16.86862    4e-05  56854.66759  4.71286  2.82822   4450023.26889  44.88035  22.26159  56932.94164    51.34495       44.52927   30.02537  46.11039   84.5    0.14772   -21.7455  0.85784 
  -29.84006  0.08425  2.65411     13.75534  1.33448  0.58778   3.26023  0.09832     0.05591   8363.87936    6027.4255  0.57631         3685.04474     18.29589   0.0011  56857.55994  1.36048  0.27466   2693300.60344  45.11604  22.24594  56932.94164    51.40964       44.57903    31.0977  50.39972   71.5    0.12422  -21.56433  0.98426 
  -36.18326  0.00549  2.74192     13.90566  1.48027   0.5406   7.86742  0.07462     0.11559   9051.38631   3495.07302  0.33728          4810.0489     16.48665    2e-05  56851.21674  3.84494  0.04316   1595656.09191  45.36014  22.26676  56932.94164    51.32613       44.50775   33.24237  52.54439   80.5    0.14646  -21.72678  0.99774 
  -33.62551  0.04258  2.96135       13.652  1.65972  1.18694  11.56732   0.0304     0.08197    7806.7025   6057.74257  0.61515          5881.3224      18.7681  0.00326  56853.77449  4.20528  0.49248   6711688.06492  44.71907   22.2493  56930.47312    51.38246       44.52343   30.02537  53.61673  100.5    0.12259  -21.81564  0.97491 
  -35.40948   0.1258  2.63103     13.51935  1.41074   1.2798   1.75437  0.25915     0.34078    9629.7896   3435.69474  0.23558         5867.74629     18.06367  0.00064  56851.99052  0.97047   0.2207    8295092.7195  44.65922  22.25344  56932.94164    51.31311       44.51775   30.76555  49.65954   82.0    0.12439  -21.76177  0.98847 
  -33.69277  0.21838  2.70575     13.59221  1.41566  1.34218   2.53512  0.18831     0.41188   8720.45408   8060.38753  0.40134         5361.09882     18.93269  0.00476  56853.70723  1.15002  0.55362   6293938.45963   44.7563   22.2485  56932.94164    51.37762       44.52984    31.0977  50.39972   79.5    0.13989  -21.73612  0.97062 
  -35.16404  0.02086  3.06671     13.76838  1.73154  1.00735   6.42973  0.08226     0.14114   9239.99525   4236.31576  0.28298          5855.5994     18.99336  0.00547  56852.23596  3.27464  0.13409   4393728.56957   44.8911  22.26238  56930.47312    51.27364       44.50755    31.0977  48.25506   81.5    0.14566  -21.77017  0.99308 
  -35.51205   0.0082  3.04584      13.7697   1.6667  1.28432   9.75855  0.05999      0.1573    8127.3104   8189.08104  0.53873         3662.65313     17.97396  0.00052  56851.88795  3.84509  0.08007    4146532.9056   44.9056  22.26018  56930.47312    51.32124        44.5145    31.0977  51.47206   70.5    0.15286  -21.59414  0.99573 
  -32.68261  0.19014  3.22584     13.76159  1.69388  1.47361   9.28943  0.05418     0.05994   8322.73894   5691.68507  0.48195         4140.32453     16.73955    3e-05  56854.71739  3.83839  1.76632   4906885.07553  44.78964  22.28931  56932.94164    51.32736       44.49948   33.24237  50.39972   85.0    0.14138  -21.62738  0.90579 
  -33.98881  0.01682  2.72777     13.57918  1.43196  1.04302   9.48219  0.03537     0.02181   8496.85675   7230.86374  0.46629         3676.45421     18.24801  0.00098  56853.41119  4.08369  0.15953   6870862.00069  44.71615  22.25246  56930.47312    51.32075       44.54019    31.0977  49.32739   70.5    0.11228  -21.58276  0.99121 
  -31.70307  0.03941  3.20121      13.7831  1.77131  0.94101    9.2988   0.0393     0.02075   8422.89366   6562.94807  0.52079         4568.66924     18.47222  0.00165  56855.69693  3.93529  0.36646   4576443.20782  44.84598  22.25771  56932.94164    51.34567       44.51413   30.76555  49.06169   68.5    0.13153  -21.67889  0.98019 
  -35.89136  0.00398  2.78029     13.62991  1.53014  1.50562   5.64031   0.0937     0.05149   8755.20629   4778.19492  0.30759         4126.45444     19.67486  0.02628  56851.50864  2.57907  0.02243   6038297.86914  44.78448  22.26582  56930.47312     51.2555       44.50793    31.0977  45.03805   69.0     0.1386  -21.66538  0.99885 
  -30.19546  0.35564  3.46235     13.96064  1.69396  0.78229  12.36903  0.04275     0.02604   8716.38874    4936.0333  0.54122         4754.48984     17.85019  0.00039  56857.20454  5.60578  4.39896   2260415.95956  45.06482  22.22909  56930.47312    51.29687       44.52447   30.02537  46.11039   74.0    0.15315  -21.72501  0.77074 
  -30.49371  0.00869  3.14285     13.68666  1.74322  1.49423   5.54293  0.05836     0.02596   7518.86035   6690.62694  0.68976         4848.33832     18.19762  0.00088  56856.90629  1.86926  0.04817   6768628.28222  44.68505  22.25095  56932.94164    51.29819       44.53108    31.0977  46.75235   69.5    0.13661  -21.68526  0.99739 
  -32.44347  0.25855  3.09196      13.7937   1.7323  0.99214   2.31697  0.20085      0.1553   8923.00504    7901.6987  0.37506         3715.90977     19.86176  0.04041  56854.95653  1.10045  0.59906   3976593.39542  44.92749  22.26127  56930.47312    51.33467       44.51132   32.91022  55.08254   69.5    0.14062  -21.66579  0.96944 
  -33.89196  0.25491  3.40407     13.78264   1.8457  1.38741   6.51058  0.07401     0.07579    8441.5127   8810.67493  0.47309         4876.81228       17.939  0.00048  56853.50804   2.7675  1.65959   5403787.60871  44.73831  22.25556  56930.47312    51.33075       44.51313    31.0977  52.80361   74.0     0.1379  -21.70403  0.91214 
  -31.24397  0.00933  3.11369     13.72185  1.67345  1.22371   6.21808  0.06842     0.05493   8770.66114   3987.58958   0.4879         4119.00608     17.13172    8e-05  56856.15603  2.85331  0.05799    5423593.0101  44.77162  22.25264  56930.47312    51.38222       44.57661    27.8807  49.32739   75.0    0.14636  -21.64631  0.99674 
  -34.63756  0.00581  2.46522      13.4829  1.28498   1.5637   1.75574  0.29694     0.35716   9618.30826   4298.37261  0.29891         4981.05947     18.95053  0.00496  56852.76244  0.96891   0.0102   7845745.08498   44.6994  22.25545  56930.47312    51.31626       44.54472   30.02537  49.32739   79.0    0.14118  -21.76006  0.99946 
  -33.99072  0.02456   2.6942     13.89373  1.43303  0.46225   2.18062  0.25941     0.25486  10626.20433    7891.8007  0.06963          5275.0398      17.2063    9e-05  56853.40928   1.4688  0.05356   1575676.72116  45.36678  22.26335  56932.94164      51.349       44.54314    31.0977  46.11039   68.5    0.14089  -21.74397  0.99713 
  -32.26702   0.1435  3.17022     13.90895   1.8077  0.58701   2.75736  0.10576     0.04975   8035.10518   8442.35899  0.53459         4500.93603     19.55139  0.01978  56855.13298  1.06195  0.39567    2565726.3235  45.11458  22.25026  56930.47312    51.30842       44.53177   30.02537  50.39972   61.5    0.11198  -21.65012  0.97944 
  -27.02006  0.00121   2.4481     13.50668   1.4421  0.74966   1.95018  0.10257     0.06294   9649.94423   3435.36414  0.37225          5089.1655     18.46392  0.00162  56860.37994  1.08331  0.00235   7782483.27123  44.75906  22.24586  56930.47312    51.38736       44.53427   28.95303  52.54439   61.0    0.11178  -21.74321  0.99989 
  -36.37793  0.11717  2.99583     13.69221  1.66849  1.11733   4.41805  0.12776      0.1055  10053.69677   4957.32056  0.17152         5702.34285     18.61006  0.00226  56851.02207  2.66385  0.51765   5737788.03559  44.77939  22.24917  56932.94164    51.30331       44.52249   30.02537  48.72954   73.0    0.13831  -21.78041   0.9734 
  -32.34329  0.00385  2.95006     13.61811  1.61312  1.46311   3.46072  0.11651     0.11216   9179.77506   5115.66222  0.41926          5535.1643     17.52197  0.00018  56855.05671  1.73963  0.01334   7566839.25413  44.65793  22.26507  56932.94164    51.28433       44.51475   33.24237  47.18272   77.0     0.1368  -21.77735  0.99928 
  -34.28345  0.08935  3.22729     14.03749  1.82181   0.6677   8.69425  0.06358     0.02006   7717.99843    9302.3914  0.56431         4324.15518     18.73041  0.00299  56853.11655  3.08936  0.77684   1482540.98683  45.34067  22.26475  56932.94164    51.30055         44.519   30.76555  50.73187   53.0     0.1517  -21.64081  0.96085 
  -35.03922  0.01003  3.11907     13.61284  1.80891  1.43157   2.09492  0.20595      0.1044  10259.26678   7851.29283  0.15171         3331.13808      18.7973  0.00348  56852.36078  1.31531  0.02102   9718771.49189   44.5506  22.24801  56930.47312    51.30064       44.51755   28.95303  52.54439   58.0    0.12107  -21.70142  0.99891 
   -30.5114  0.01584  3.02045     13.74443   1.6238  0.86741   8.26103  0.04167     0.09817    8875.9827   3587.11643  0.42825          4465.4332     19.10584  0.00709   56856.8886  3.88235  0.13088    4463066.8392   44.8696   22.2319  56930.47312    51.36681       44.51658   30.02537  50.39972   90.5    0.12431  -21.65421  0.99271 
   -33.5627  0.18738  3.19996     13.82129  1.74328  1.46575  11.40096  0.05669     0.11422   8228.97667   9255.89706  0.52275         5513.90643     17.53464  0.00019   56853.8373  4.60533  2.13626   3774831.45674  44.92303  22.26961  56930.47312    51.31947       44.53668   28.95303  50.87421   64.0    0.15845  -21.78134  0.89479 
  -36.15763  0.01989  3.16237     14.21301  1.75897  0.33525   7.45105  0.06138     0.08945    8044.9221   3173.75289   0.4852         4591.75608       18.237  0.00096  56851.24237  2.87666  0.14818    612475.30903  45.72699   22.2787  56930.47312    51.29983       44.51496    31.0977  47.18272   86.0    0.13638  -21.65269  0.99209 
  -33.23225  0.35089  3.10685     13.62126  1.77308  1.43122   1.92875  0.19492     0.09277   9099.42092   6113.26719  0.44081         5087.91973     18.49055  0.00172  56854.16775  0.95264  0.67678   9091950.70705  44.57428  22.26219  56930.47312    51.29914       44.52836    31.0977  48.25506   65.5    0.12549  -21.77194  0.96552 
  -33.02271  0.00271  2.92903     13.67041  1.61501  1.20628   2.42704  0.18111     0.24456   9239.76849   3873.83957  0.30412         5179.89155     19.55113  0.01976  56854.37729  1.23602  0.00658   5869593.81612  44.77496  22.24508  56932.94164    51.33778       44.55402   28.95303  42.89338   80.5    0.13473  -21.72889  0.99965 
  -34.04331  0.33158  2.90271     13.80685  1.54686  0.73349     2.289   0.2249     0.24374   9703.41071   6495.39313  0.20336          4228.9363     19.20133  0.00883  56853.35669  1.28565  0.75898   2945645.17994  45.06351   22.2442  56930.47312    51.31611       44.50889   31.83789  53.94888   80.0    0.13966  -21.69317   0.9598 
  -35.46519  0.00857   2.5275      13.8728   1.3421  0.61548   4.80805  0.11652     0.38531   7494.17197   9468.91943  0.56183         4559.38004     16.02321    1e-05  56851.93481  1.61081  0.04121   1430169.95595  45.43586  22.26067  56932.94164     51.3667       44.55297    31.0977  47.18272   60.0    0.15974  -21.63277  0.99791 
  -36.06204  0.42257  3.58316     14.12912  1.90576  0.56944    6.7489  0.08017     0.17819   8090.83585   8471.31928  0.46912         4324.87953     18.70588  0.00282  56851.33796   2.6354  2.85185   1253621.33157  45.34222   22.2282  56930.47312    51.31121       44.53278   30.02537  46.75235   79.0    0.14013  -21.62475  0.85243 
  -31.55787  0.00189  3.13816     13.77701  1.70939  1.05308   3.73356  0.09622     0.07083   7237.10945   7344.09785  0.73286         4140.06819     18.94872  0.00494  56855.84213  1.16649  0.00705   4365112.00979  44.86834  22.27387  56932.94164    51.33279       44.51078   32.17004  50.39972   80.0    0.13946   -21.5824  0.99961 
  -29.72182  0.32613   3.3516     13.70959  1.70476  1.41005   9.21113  0.03959     0.02213   8639.69148   6091.46675  0.52703         4935.57006     16.14562    1e-05  56857.67818  4.10144  3.00402   6773246.74011  44.61921  22.25069  56930.47312    51.35545       44.51739    31.0977  49.32739   71.5    0.13152  -21.71295  0.83889 
  -34.49491  0.00178  3.30741     13.81444  1.86491  1.18365   3.33063  0.16958     0.36243   9040.51705   7400.60228  0.28287         4081.54455     17.84428  0.00039  56852.90509  1.62383  0.00594   4452092.14136  44.85196  22.25779  56932.94164    51.31512       44.50867   32.17004  49.32739   78.5    0.14767  -21.64955  0.99968 
  -32.07543  0.00349  3.39559     14.11125  1.93488  0.46233   3.25588  0.11323     0.33315   8189.43372    3076.9669  0.54118         5049.21621     18.09343  0.00069  56855.32457  1.30258  0.01137   1241080.66873  45.39987   22.2628  56930.47312    51.33256       44.51974    31.0977  48.25506   92.0    0.13812  -21.71015  0.99939 
  -35.04521  0.06047  2.47147     13.46929  1.30184  1.49868   3.02087   0.1522     0.08182   8899.35728   7762.90131  0.35366         5590.33324     17.27921  0.00011  56852.35479  1.42717  0.18266   8505400.82453   44.6678  22.26262  56932.94164      51.299       44.50844   29.69322   45.3702   67.0     0.1307  -21.76101  0.99054 
  -31.22561   0.4032  3.34272     14.23498  1.48178  0.38593  16.54336  0.03312     0.13212   9103.14182   6310.24972  0.32535         4174.31513     19.02762  0.00592  56856.17439  8.17774  6.67035    520990.34812   45.6746  22.25119  56932.94164    51.35576       44.51752    31.0977  49.32739   96.0    0.15134  -21.62252  0.66248 
  -33.22752  0.12421   3.1244     13.87321   1.7083  0.89667   7.63891  0.07828     0.06293    8648.7007   7040.59973  0.42122          4844.1804     16.53687    2e-05  56854.17248  3.40848  0.94885    2776413.4525  45.06839  22.24672  56930.47312     51.3726       44.51783   32.17004  52.54439   73.0    0.15416  -21.71381  0.95093 
    -33.327  0.02684  3.16232      13.8687  1.77738  0.84884   12.1304  0.03899     0.02543   7971.14886   5231.43827  0.58239         5026.28428     18.59946  0.00221    56854.073  4.59774  0.32556   3021345.34537  45.03841   22.2511  56930.47312    51.34279       44.53324    31.0977  52.54439   74.5    0.14884  -21.74111  0.98308 
  -33.59901  0.26256  3.35293     13.87837  1.78568  1.22565  11.56335  0.05517     0.04168    8167.1043     6715.543  0.52856         4603.02301     17.16861    8e-05  56853.80099  4.60095  3.03602   3263859.95196  44.95607  22.27039  56932.94164    51.34635       44.53725   31.83789  50.73187   77.0    0.14783  -21.69206  0.84974 
  -34.85954  0.05047   3.2146     13.93942  1.80848  0.63234   8.10241  0.05139     0.12959   7997.38367   6837.04315  0.50465         5812.22281     17.21143    9e-05  56852.54046  3.09127  0.40894   2293789.67698  45.15135  22.25506  56930.47312     51.3388       44.51509    31.0977  54.68906   94.5     0.1303  -21.75616  0.97849 
  -38.57139  0.07411  3.15623     13.82529  1.81205  0.95216   4.82809  0.11893     0.18967   8567.12613   5461.65723  0.38659         5438.36765     17.16588    8e-05  56848.82861  2.11385  0.35781   3747583.31688  44.95493  22.23546  56930.47312    51.37293       44.53235    31.0977  51.47206   84.0    0.13666  -21.76273  0.98198 
  -34.33523  0.00391  3.07472     13.82305   1.8368  1.18174   7.09703  0.06902     0.03682   8372.75017   8962.24321   0.3983         3771.65435     20.17263  0.08267  56853.06477  2.96784  0.02772   3642421.66487  44.99591  22.27092  56930.47312    51.30003       44.52084    31.0977  49.80187   58.5    0.14856  -21.66216  0.99869 
  -33.44379  0.01272  2.85227     13.69991  1.51552  1.01934   8.02727  0.06262     0.28602   8953.98525   7273.94137  0.41256         4287.87653     18.91008  0.00452  56853.95621  3.83908  0.10209   4559738.19153  44.88009   22.2635  56930.47312    51.27994       44.51162    31.0977  48.25506   83.0    0.14573  -21.68042  0.99443 
  -37.42238  0.00132  2.70102      13.9783  1.45782  0.45124   3.68042  0.18953     0.17193   9938.41478   7862.22056  0.11209         4309.45124     18.55952  0.00201  56849.97762  2.16849  0.00486   1091367.86124  45.53152  22.23409  56930.47312    51.35983       44.53276    27.8807  53.61673   65.5    0.14861  -21.71352  0.99975 
  -31.87705  0.46414  3.53124     13.78972  1.93728  1.33178   3.01539  0.14141     0.48982   8514.24021   5473.51461  0.56118         5189.02178     17.89934  0.00044  56855.52295  1.30395  1.39955   5907671.71309  44.68877  22.25815  56930.47312    51.31442       44.50774   32.17004  53.61673   91.5    0.13656  -21.75733  0.92437 
  -28.34946  0.49441  3.70109     13.89107  2.07363  0.83689   4.95504  0.05965     0.02816   8553.49662   5250.53076  0.53167         5104.16005     16.01307    1e-05  56859.05054  2.16253  2.44984   4355711.53926  44.80986  22.23321  56930.47312     51.3239       44.53475    31.0977  51.47206   65.5    0.11963  -21.73286  0.87393 
  -34.45479  0.01216  3.44201     13.97132  2.02915  0.68087   4.73863  0.10359     0.09267    9524.9239   4970.75081  0.31245         5765.64919     19.16043  0.00804  56852.94521   2.5645   0.0576    2547495.2649  45.09642  22.25645  56930.47312    51.30687       44.52591   30.02537  51.47206   75.5    0.13546  -21.80235  0.99702 
  -34.42194  0.05791  3.29516     13.82411   1.8546  1.17726   6.43559  0.06663     0.02865   7311.84819   6381.62374  0.63767         4542.92161     17.35208  0.00012  56852.97806  2.05244  0.37267   4203450.03565  44.87774  22.23569  56930.47312    51.33262       44.52884   30.02537  52.80361   72.0    0.14139   -21.6348  0.98037 
  -32.00101  0.10753  3.49297     14.01742  1.95583  0.71129   6.24018    0.076     0.06623   8239.14669   7953.26358  0.48536         4271.36951     16.98784    5e-05  56855.39899   2.5269    0.671   2045024.66004  45.16309  22.24286  56932.94164    51.31682        44.5236   30.76555  47.51487   72.5    0.14646  -21.63385  0.96395 
