 texplosion  fnickel    Pspin  log(Bfield)      Mns  thetaPB   mejecta    kappa  kappagamma     vejecta  temperature    alpha  cutoff_wavelength  log(nhhost)      A_V         MJD0  kenergy  mnickel             TSD   log(L0)  Peak_mag     Peak_MJD  log(E_rad)  log(Peak_lum)  Rise_Time    E_fold  tau_1  delta_m15     r_peak     frac 
  -22.74959  0.00101  2.91089      14.1325  1.55775  0.35189   2.89468  0.15007     0.04426  4495.85989   8742.00421  2.70796         3234.28549     17.38427  0.00013  55499.25041  0.34902  0.00292    665827.06131  45.70993  16.69326  55552.38621    51.28243       44.42857   39.23281  53.07969   81.0    0.12648  -21.49176  0.99984 
  -24.51796  0.00195  3.04767     13.60191  1.84519  1.26928   2.58633  0.10946     0.01221  3670.97003   8460.43764  2.69916         3396.24754     18.27985  0.00106  55497.48204  0.20791  0.00504   9953565.15396  44.56897  16.63987  55553.04841    51.29264       44.44422    39.3556  55.26471   82.0    0.10423  -21.50331  0.99976 
  -25.37478   0.0025   2.8922     13.65024  1.65178  1.52397   5.46417  0.07683     0.01208  4095.62275   9213.81279   2.4973         3307.13947     19.05517  0.00631  55496.62522  0.54675  0.01364   6423142.32052  44.75659  16.65615  55555.58932    51.29919       44.44001   41.54062   55.3875   76.5    0.10996   -21.5042  0.99932 
   -28.6827  0.35842  2.97602     13.74126  1.68853  0.92265   5.52761  0.08392      0.0115  4235.27261   9046.81523  2.07919         3462.67875     18.57793   0.0021   55493.3173  0.59146   1.9812   4571598.25861  44.88902  16.67599  55552.38621    51.33671       44.49221   39.23281  53.07969   77.0    0.09664  -21.52848  0.90788 
  -28.84936  0.00202  2.13762     13.70999  1.16844  0.62131   11.5132  0.06573     0.01002  4734.47881    8935.9293  2.45291         3116.32162     17.29856  0.00011  55493.15064  1.53946  0.02321   1884989.81222  45.40128  16.65955  55553.04841    51.29686       44.45089     36.925   55.3875   72.0    0.09741  -21.51479  0.99895 
  -26.56713  0.00321  2.92446     13.86508  1.73639  0.93118   9.15027  0.07427     0.01423  4534.67917   8380.82266  2.47425         3244.21096     18.71862  0.00291  55495.43287  1.12242   0.0294   2566866.03878    45.167  16.65609  55553.04841    51.29507        44.4445    39.3556  57.57252   76.0    0.10758  -21.51327  0.99864 
  -21.89503  0.00271  2.87292     13.56385  1.75744  1.36895   3.55136    0.069     0.01024  3912.01217   9329.74435  2.58448         3376.29153     20.12412  0.07393  55500.10497  0.32421  0.00963  10037960.01946  44.59543  16.63912  55553.04841    51.29656       44.44367   39.23281   55.3875   79.0    0.10575  -21.56971  0.99956 
  -24.31021  0.04704   3.1056     13.82647   1.8216  1.03238   7.50698  0.06011     0.01051  3888.98463   8137.35266  2.59724         3341.40678     19.64123  0.02432  55497.68979  0.67727  0.35314   3627634.59736  44.98538  16.67536  55555.81981    51.31127        44.4296   43.97123  59.88033   84.0    0.10728    -21.511  0.98299 
  -24.54899  0.00159  2.86793     13.71224  1.68403   1.5518   6.44424  0.08106     0.01402  4268.46996   8423.56513  2.37622         3320.38882     19.76817  0.03258  55497.45101   0.7004  0.01027   4839841.00364  44.89523  16.70866  55555.81981    51.31147       44.42513   43.97123  59.88033   78.5    0.11021  -21.52926  0.99952 
  -24.28648  0.01358  3.02208     13.78361  1.80762  1.13295   8.34156  0.06144     0.01214  4605.75829     8716.259  2.50387         3252.94524     19.90086  0.04422  55497.71352  1.05554  0.11325   4152651.47706  44.94701  16.63479  55553.04841    51.29234       44.44429    39.3556  55.26471   77.5    0.11336  -21.58702  0.99471 
   -27.2794  0.00509  3.40093     14.13788  2.11359  0.57459  10.24263  0.05841     0.01021   4310.6553    8607.6943  2.31409         3294.48588     18.37663  0.00132   55494.7206  1.13534  0.05212   1203016.82706   45.4504  16.67187  55553.04841    51.29374       44.44536   39.23281   55.3875   76.5    0.10468  -21.49217  0.99757 
  -26.42492  0.00208  3.09523     13.81342  1.84428  0.97467   5.61745  0.08239      0.0106  3833.07262   8861.67828  2.47214           3426.596     17.37518  0.00013  55495.57508  0.49233  0.01166   3874245.61971   44.9651  16.65833  55555.58932     51.3163       44.45262   41.66341  55.26471   77.5    0.10441  -21.51602  0.99944 
  -28.11996  0.00485  2.43356     13.60243  1.41245  1.31147  10.22283  0.06526     0.01041  4512.16783   8455.02613  2.72939         2968.21919     17.92045  0.00046  55493.88004  1.24156  0.04956   4846344.46759  44.96092  16.67725  55555.58932    51.29372       44.44128    39.3556  55.26471   77.0    0.09877  -21.50146  0.99783 
  -25.54627  0.00153  3.07268      13.7413  1.75606  1.45676   3.64604  0.12965      0.0233  4030.48585   8466.60737   2.5934         3280.32746     16.14522    1e-05  55496.45373  0.35332  0.00558   5067364.60782  44.83357  16.64102  55553.04841    51.29682       44.44318    39.3556  57.57252   80.5    0.10965  -21.46495  0.99972 
  -20.70786  0.00136  2.98138     13.73214  1.62682   0.9681   1.75445  0.15832     0.02557  3432.45373   8791.86899  2.86985         3456.84438     16.03763    1e-05  55501.29214   0.1233  0.00239    4610126.2198  44.86764  16.66559  55553.04841     51.2907       44.44333    39.3556  55.26471   82.0    0.12192  -21.50223  0.99987 
  -26.30224  0.00736  2.93202     13.73955  1.71302  1.25506   8.65103  0.06229     0.01073  4276.38587   8344.50181  2.49109         3227.36041     18.63219  0.00238  55495.69776  0.94373   0.0637   4537415.77916  44.91146  16.67168  55552.38621    51.31125       44.47145   39.23281   55.3875   79.0    0.10315  -21.49775  0.99696 
  -22.21288   0.4501   2.9122     13.92038  1.67583  1.52468  10.61215  0.06752     0.01204  4501.21858   7704.70834  2.61615         3232.69996     17.16458    8e-05  55499.78712   1.2826  4.77649   1904238.05935  45.28491  16.69147  55555.58932    51.29688       44.44171    39.3556  55.26471   82.0     0.1046  -21.49989  0.81471 
  -25.32088  0.00205  2.94064     13.67047  1.74393  1.36495   3.05855  0.11692     0.01778  3700.54953    8223.7091  2.53709         3367.25599     19.99626  0.05508  55496.67912  0.24985  0.00628   6386803.22154  44.76821  16.65633  55552.39595    51.29533       44.45999   37.04779   52.9569   85.5    0.10802  -21.52144   0.9997 
  -26.23881  0.00394  2.99808     13.88997  1.73648  0.63934   7.35592  0.06684     0.01064  4390.61723   8245.03788  2.38381         3345.31373     16.15006    1e-05  55495.76119  0.84589  0.02896   2405666.82028  45.17359  16.68421  55552.38621    51.32773       44.46928   41.54062   55.3875   80.0    0.10318  -21.52869  0.99856 
  -28.23946  0.00143  2.86402     13.70808  1.71449  1.29602   5.45737  0.12457     0.01849   4699.4428   8889.44748  2.82421         2990.13654     16.89733    4e-05  55493.76054  0.71896  0.00781   5008982.08422  44.88928  16.68777  55553.04841     51.3132       44.43893   43.84844  57.69531   74.5    0.09409   -21.5244  0.99964 
  -25.51869  0.00144  3.10645      13.7818  1.84136   0.9937   2.81672  0.13668     0.01516  3514.70699   8879.43849  2.73898          3391.1338     18.60317  0.00223  55496.48131  0.20756  0.00407   4506856.60609  44.89558  16.67399  55555.58932    51.28564       44.42109    39.3556  57.57252   78.0    0.10386  -21.50559   0.9998 
  -26.08532  0.00109  3.13704       13.693  1.90377  1.07906   4.26065  0.08497     0.01015  4068.88884   8701.00496  2.34669         3387.51965      17.5198  0.00018  55495.91468  0.42078  0.00465   7152509.55632  44.70096  16.64996  55553.04841     51.2794        44.4456   37.04779   52.9569   77.0    0.10239  -21.50664  0.99978 
  -26.01686  0.00457  2.87687      13.7766    1.668  0.73971   5.11123   0.0748     0.01055  4035.40543   8584.89257  2.35233         3416.57363     19.43331  0.01507  55495.98314  0.49651  0.02334   3586419.21925  45.01854  16.66654  55553.04841    51.31374       44.45677   39.23281  57.69531   80.0    0.10253  -21.52193  0.99886 
  -26.87508  0.00525  2.66542     13.64476  1.48602  1.07491   5.74654  0.08465     0.01249  4077.50704    8169.6809  2.52311         3241.92841     16.29731    1e-05  55495.12492  0.56993  0.03016   5033369.47953  44.88748  16.66608  55553.04841    51.30692       44.45744   39.23281   55.3875   81.0    0.10194  -21.46927  0.99851 
  -24.26973   0.3082  3.17545     13.93099  1.86945  1.32448  10.25443  0.07037     0.01107   4558.0429   8439.87818  2.29551         3357.26939     16.74027    3e-05  55497.73027  1.27085  3.16045   2405196.37996   45.1558  16.69279  55553.04841    51.29091       44.42935   41.54062  57.69531   75.0    0.10422  -21.51825  0.86744 
  -22.07174  0.13247  3.29811     13.93151  1.82933   0.8599   9.92312  0.04884     0.01116  4612.53522   8300.64871  2.80114         3152.25754     16.23512    1e-05  55499.92826  1.25937  1.31449   2532854.17883    45.091  16.65535  55553.04841    51.28617       44.43973     36.925   55.3875   80.0    0.11859  -21.51158  0.93293 
  -24.02017  0.02645  2.95115     13.69018  1.65765  1.30835   9.27437  0.05477      0.0115  4909.59386   8441.74143  2.50681         3234.07723     19.51629  0.01824  55497.97983  1.33353  0.24534   5583915.90663  44.80142  16.63448  55553.04841     51.3016        44.4353   41.54062  57.69531   77.0     0.1136  -21.56228  0.98758 
  -27.60378  0.00235  2.64363     13.82686  1.81097  1.06099   3.47384  0.15014     0.01763  3201.96043   8165.62361  2.64665         3357.07978     20.34746  0.12365  55494.39622  0.21246  0.00815   2608560.97938  45.26595  16.66201  55553.04841    51.29292       44.44707   39.23281  53.07969   84.0    0.09556  -21.57788  0.99971 
  -25.35644  0.00284  3.15824     13.76104  1.83743  1.48937   9.52383  0.05447     0.01061   4602.0554   8329.97164  2.49749         3232.79763     18.29655   0.0011  55496.64356  1.20321  0.02702   5114945.18007  44.82532   16.6749  55555.58932    51.28856        44.4317    39.3556  55.26471   78.0    0.11325  -21.52285  0.99865 
  -23.64442  0.49538  3.13235     13.78572  1.60054  1.15533   9.50403  0.05972     0.01001  4930.44559   8000.81501  2.61075         3105.70765     17.00297    6e-05  55498.35558  1.37818  4.70806   3911912.22418  44.88898  16.66777  55550.50751    51.28641       44.44726     36.925  53.07969   80.0    0.10763  -21.53513    0.779 
  -23.66858   0.0017  2.61755     13.68333  1.44019  0.84607   5.15004  0.07755     0.01135  3917.36455   8735.18538  2.47782         3430.79452     19.68858  0.02712  55498.33142  0.47144  0.00876   3938834.90621  44.99611  16.67723  55552.39595    51.31389       44.47894     36.925  53.07969   79.0    0.11053  -21.51934  0.99956 
  -28.64108  0.00418  2.73115     13.75874  1.58025  0.86827   3.20554   0.1261     0.01289  3018.41743    8188.0355  2.57446         3513.71054     17.06915    7e-05  55493.35892  0.17422  0.01339    3324681.5309  45.07313  16.69843  55550.50751    51.32062       44.47234   39.23281   55.3875   84.5    0.09635  -21.44229  0.99937 
  -26.06694  0.00221  3.02575     13.58227  1.82481   1.4979   3.13786  0.09852      0.0128  4035.93613   8605.53018  2.21853         3503.95925     16.36408    1e-05  55495.93306  0.30489  0.00694  10620674.09589  44.54224  16.64601  55555.58932    51.29595        44.4397    39.3556  55.26471   80.0    0.10263  -21.50739  0.99966 
  -24.75575  0.00573    2.918     13.58444  1.67348  1.32626   1.04234  0.25233     0.02432  3059.81958   8070.38515  2.72283         3539.47825     18.35126  0.00125  55497.24425  0.05821  0.00598   8968611.93949  44.60957  16.68375  55552.38621    51.35621       44.51705   39.23281  53.07969   83.0    0.10861  -21.46425   0.9997 
  -22.48081  0.26054  3.44754     14.02628   1.9098  0.73226  10.44787  0.04968     0.01118  4723.75221   8767.14217  2.54672         3185.04552     18.40986  0.00143  55499.51919  1.39069  2.72211   1867552.54151  45.20354  16.68166  55553.04841    51.29954       44.44083   41.54062   55.3875   79.0    0.11338  -21.52236  0.86782 
  -26.94355  0.00104   2.4537     13.94708  1.35696  0.30227   3.00073  0.12476     0.01422   3918.9728   8697.89007  2.63697         3313.29899     16.34761    1e-05  55495.05645  0.27491  0.00311    967972.53749  45.63591  16.66316  55552.38621    51.29336       44.44038     36.925  57.69531   79.0    0.10142  -21.48995  0.99985 
  -25.47578  0.00137  2.77963     13.65252  1.55878  1.14965   7.79815  0.05996     0.01104  4555.34528   8249.89796  2.41987         3217.65391     18.68676   0.0027  55496.52422   0.9653  0.01072    5540230.6897  44.83013   16.6869  55553.04841    51.30129        44.4473   39.23281   55.3875   79.5    0.10595  -21.51254  0.99947 
  -20.99608  0.00945  3.36921     13.94966  1.94139  0.90384   8.56229  0.05324     0.01442  4494.27906   8580.33644    2.415         3382.20965     17.65099  0.00025  55501.00392  1.03166  0.08092   2580228.66578  45.09025  16.66224  55552.38621    51.28256       44.44194   37.04779  55.26471   78.0    0.12681  -21.52625   0.9958 
  -22.09469  0.03713  2.94624     13.98547  1.71725  0.71947  11.44172   0.0484     0.01041  4212.29305   8683.19901  2.40637         3472.96486     16.12979    1e-05  55499.90531  1.21103  0.42486   1479965.89906  45.39489  16.69219  55553.04841    51.37042       44.52063   41.54062   55.3875   75.0    0.11899  -21.53997   0.9802 
  -22.99226  0.01041  2.75675     13.84208  1.67549  0.70768   2.05183  0.17961     0.02666  3688.27005   8283.96216  2.44654         3488.71129     20.29178  0.10877  55499.00774   0.1665  0.02137   2446753.93215   45.2236  16.70137  55552.38621    51.29804       44.44228   39.23281  53.07969   82.5     0.1164  -21.61286  0.99906 
  -23.90463  0.45491  3.61947     13.94723  2.00674  1.53192   9.17986  0.06827     0.01148  4632.94304   8706.20514  2.56346         3309.85978      18.4591   0.0016  55498.09537  1.17538  4.17597    3112755.9286   44.9609  16.67703  55553.04841    51.29597       44.42693   41.54062   55.3875   76.5    0.10784  -21.53811  0.80828 
  -23.08078  0.20585  2.53692      13.8752  1.26148  0.49463   9.43183  0.05037     0.01156  4651.44886   8858.93153   2.3588         3306.02055     18.90182  0.00443  55498.91922  1.21731  1.94159   1339385.25753  45.43421  16.71905  55552.38621    51.28605       44.42852   39.23281  57.69531   79.5     0.1152  -21.50965  0.90076 
   -26.8789   0.0038  2.79123     13.96361  1.61044  0.53898   7.81375  0.07415     0.01102  4304.74903   8678.33724  2.54242         3310.13533     17.44698  0.00016   55495.1211  0.86374  0.02969   1377650.08492  45.44506  16.67346  55555.58932    51.31214       44.43284   46.15625  57.69531   74.5    0.10429  -21.53369  0.99859 
  -23.87064  0.00294  3.05559     13.72564  1.75356  1.51566   5.67671   0.0735     0.01122  3731.80148   8314.65908  2.67707         3351.56544     17.78784  0.00034  55498.12936  0.47159  0.01669   5378383.31301  44.81192  16.69413  55555.58932    51.31279       44.42943   46.15625  57.69531   82.0    0.11211  -21.48206  0.99916 
  -23.19984  0.00124  2.66648     13.70663  1.43268  0.69626   5.41657  0.06017     0.01199  4320.26587   8444.02735  2.43693         3337.82222     16.96143    5e-05  55498.80016  0.60308   0.0067   3652359.42052  45.01054  16.63057  55553.04841    51.29116       44.44889   37.04779  55.26471   83.0    0.10804  -21.49481  0.99964 
  -26.08912  0.00412  3.19049     13.74804  1.88789  1.05436   3.43807  0.11373     0.01439  3898.68921   8404.39333  2.40236         3426.60409     18.71632  0.00289  55495.91088  0.31173  0.01418   5694099.40611  44.78168  16.70717  55553.04841    51.29432       44.43274   39.23281  57.69531   81.0    0.10203  -21.49262  0.99929 
  -24.96907  0.00208  2.73137     13.58756  1.49592  1.13157   2.16495  0.15377      0.0215  3673.55906   8329.57325  2.56406         3409.90772     16.42672    1e-05  55497.03093  0.17428  0.00451   6924233.70847  44.73062  16.67458  55553.04841     51.3038       44.45207   39.23281   55.3875   84.5    0.10618  -21.46251  0.99977 
  -33.23382  0.00254  2.58484     13.44516  1.63568  1.55793   1.67732  0.23983     0.01428  3356.87719   7735.22651  2.53474         3409.62343     16.79942    4e-05  55488.76618  0.11275  0.00427  13063617.33682  44.54161  16.69142  55553.04841    51.29049       44.43209   41.54062  57.69531   81.5    0.10335  -21.47791  0.99982 
  -22.63357  0.00263   2.5507     13.60895  1.48427  1.34323   5.47923  0.07415     0.01437  4206.32198   8135.81864  2.44059         3370.10544     20.17407  0.08295  55499.36643   0.5783  0.01439   5429452.38056  44.89228  16.64402  55552.38621    51.32907       44.50317     36.925  50.77187   81.0    0.11934  -21.61941  0.99935 
  -22.45521  0.02537  2.42058     13.58863  1.29276  1.39005   9.25487  0.05761     0.01381  4588.01556   8717.01082   2.3819         3322.45296     17.85312   0.0004  55499.54479  1.16211  0.23483   4676379.88592  44.94261  16.67487  55553.04841    51.29373       44.44251   39.23281   55.3875   75.0    0.11714  -21.53394  0.98852 
  -26.03375  0.00231   2.8598     13.91445  1.65439  0.56665   4.23868   0.1006     0.01118  3575.30966   8518.30611  2.39433         3490.88002     17.93768  0.00048  55495.96625  0.32321  0.00978   1863050.84019  45.30459  16.66274  55555.58932    51.29302       44.43835    39.3556  55.26471   80.5     0.1002  -21.48332  0.99953 
  -22.96063   0.0022  2.59675     13.73056  1.38504  0.70671   5.60165  0.06745     0.01157  4067.76939   8751.87153  2.40713         3479.82812     17.74573  0.00031  55499.03937  0.55291  0.01231   2999300.01674  45.10443  16.68926  55553.04841     51.2937       44.43997   41.54062  57.69531   78.0    0.11607   -21.5204  0.99936 
  -25.79985  0.00259  2.97119     13.83797  1.87369  1.01533   4.79868  0.08979     0.01022  3316.26452   8632.63532  2.64363         3392.79923     20.00803  0.05659  55496.20015  0.31481  0.01241   3239128.14851  45.08525   16.6502  55553.04841    51.28823       44.43432   39.23281  57.69531   80.5    0.10513  -21.53366  0.99947 
  -28.59441  0.00295  2.83884     13.70307  1.68608  1.49378  10.02959  0.06599     0.01098  4527.73603   8516.90801  2.25248         3257.54058     18.22631  0.00094  55493.40559  1.22651  0.02956   4952515.12562  44.89462  16.64452  55553.04841    51.28517       44.45025     36.925  53.07969   77.0    0.09966  -21.51242  0.99864 
  -19.53902  0.00126  2.43675     13.87535  1.45077  0.56571   7.28014  0.05075     0.01219  4167.00324   9212.43554  2.40666          3421.1119     20.39764  0.13879  55502.46098  0.75407  0.00917   1420172.28222  45.50448  16.68218  55553.04841    51.28819       44.43801   39.23281   55.3875   77.0    0.13497  -21.68549  0.99961 
   -21.5592  0.20344  3.31665      13.8227  1.77968  1.08488  10.09063  0.04302     0.01029  4887.35832   8198.57845  2.27175         3367.45894     19.38198  0.01339   55500.4408  1.43778   2.0528   4113028.88579  44.86363  16.67824  55552.39595    51.28642       44.43853   39.23281  53.07969   80.0     0.1208  -21.54789  0.89361 
   -22.1753  0.00187  2.75775     13.70055  1.63818  1.08882   5.15815   0.0693     0.01253   3969.4443   9089.46578  2.49281         3391.32984      20.2089  0.08987   55499.8247  0.48482  0.00965   4593942.87489  44.93991  16.67458  55552.39595    51.29223       44.45597     36.925  53.07969   79.5    0.12231  -21.60614  0.99956 
  -29.22693  0.00106   2.9901     14.18033  1.80196  0.37024   5.45242  0.10587     0.01455  4017.24624   8484.65171  2.41113         3359.77518     18.98207  0.00533  55492.77307   0.5249  0.00577    652037.16438  45.75895  16.70107  55552.38621    51.32618       44.48227   39.23281  53.07969   79.0    0.10055  -21.50136  0.99973 
  -27.28551  0.00171  3.02833     13.70381  1.81683  1.05615   2.36771  0.11752     0.01291  3089.27846   7780.81744  2.53379          3432.2758      19.4832   0.0169  55494.71449  0.13479  0.00405   6052187.28327  44.78384  16.66535  55552.39595    51.28898       44.44705     36.925   55.3875   88.5    0.10153  -21.43766  0.99981 
  -27.38254   0.1926  2.70855     13.90849  1.71017   1.0739  11.30863  0.07438     0.01042  4151.28546   8621.21259  2.30637         3404.60618     18.61268  0.00228  55494.61746  1.16252  2.17801   1775568.46568  45.38707  16.68625  55555.81981    51.30394       44.42801   41.66341  59.88033   74.5    0.09311  -21.49685   0.9197 
  -23.15979  0.00113  2.82968     13.74611  1.56933  0.98118   6.37608   0.0707     0.01347  4156.60103   8683.44056  2.61854          3311.2288      18.3698   0.0013  55498.84021  0.65714   0.0072   3756469.49577   44.9863  16.66871  55555.58932    51.29627       44.43142   41.66341  57.57252   78.0    0.11915  -21.50624  0.99963 
  -24.34385  0.00149  3.08067     13.76153  1.80668  1.46333   10.9519  0.04946     0.01032  4607.65596   8179.88165  2.44587         3217.42696     18.92376  0.00466  55497.65615    1.387  0.01627   4774536.11535  44.86951  16.66152  55555.58932     51.2996       44.45023    39.3556  55.26471   78.5    0.10926  -21.52345   0.9992 
  -29.02029   0.0011  3.09209     13.74965  1.92241  0.87862   3.44515  0.11239     0.01001  3627.05874   8309.37976  2.60974         3287.21413     16.75251    3e-05  55492.97971  0.27036  0.00379   5405819.19713  44.83932   16.6601  55552.39595    51.30124       44.45463     36.925  57.69531   81.0    0.10246  -21.47115  0.99982 
  -19.51411  0.00223  3.51706     13.93573   1.9837  0.80049   2.36723  0.11462     0.02554  3727.67879   8813.44908  2.66433         3480.00342     17.35233  0.00013  55502.48589  0.19622  0.00527   3063264.55345  44.98778  16.67971  55553.04841    51.29994       44.42842   41.66341  57.57252   84.5    0.13424  -21.49875  0.99971 
  -24.76824  0.00207  3.04044     13.77287  1.83489  1.29138   5.64597  0.08112     0.01463  4019.10009   9161.63879  2.28115         3427.42474     19.84297   0.0387  55497.23176  0.54403  0.01166    4482826.4297  44.91503   16.6895  55553.04841    51.30441       44.45157   41.54062  57.69531   78.0    0.10971  -21.53629  0.99946 
  -26.02302   0.0032  3.09739     13.80733  1.88723  1.40187   8.58168  0.07159     0.01069  4191.81472   8669.83002   2.8681           3172.922     17.68684  0.00027  55495.97698  0.89951  0.02743   4082899.21469  44.95171  16.65443  55553.04841    51.29007       44.42413   41.54062  57.69531   76.0    0.10131  -21.51751  0.99874 
  -25.75218  0.00135  3.23503     14.02549  1.95936   0.5258   5.47996  0.07386     0.01055  4077.14437   8502.83809  2.50144         3341.64856     19.70059  0.02788  55496.24782   0.5434  0.00739   1693224.70431  45.31249  16.67765  55555.58932    51.28984       44.43151   39.23281  57.69531   80.0     0.1042   -21.5359  0.99964 
  -22.75002  0.00546  2.66389     13.65474   1.5234  1.13355  10.23002  0.04302     0.01147  4939.95764   8494.93664  2.75776         3038.24825     20.04895  0.06218  55499.24998  1.48919  0.05585   4922366.04518  44.90846  16.66529  55550.50751    51.28877       44.44643     36.925   55.3875   81.0    0.12084  -21.59802  0.99736 
  -23.14263  0.00203  3.03815     13.76635   1.8827  1.01834   3.32378  0.09048     0.01184  3439.33942   8596.52982   2.5369         3466.68378     20.22249  0.09273  55498.85737  0.23454  0.00675   4732709.75358   44.9033  16.66544  55552.39595     51.3183       44.46856     36.925   55.3875   83.5    0.11398   -21.5746  0.99969 
  -26.10291  0.00517   2.9376     13.65499  1.74943  0.89028   3.62466  0.08531     0.01014  3836.37828   8806.84737  2.58266          3391.7118     17.74716  0.00031  55495.89709  0.31823  0.01873   6866280.56277  44.73903  16.66707  55553.04841    51.31251       44.46113   39.23281   55.3875   80.0    0.10334  -21.49383  0.99908 
  -27.83092  0.00525  3.18012     13.79021   1.9367  1.45306   3.49572  0.16124     0.02156  4036.22481   8555.18579  2.44114         3377.34472      18.8346   0.0038  55494.16908  0.33971  0.01836   4779126.12738  44.87167  16.69316  55549.06261    51.29808       44.46316   34.61719   55.3875   76.5    0.10299  -21.51214  0.99914 
  -28.67759  0.06586   2.6862      14.1344  1.67092  0.43802  10.97702  0.06759     0.01004  4099.27038   8707.85266  2.37456         3305.86607     18.36165  0.00128  55493.32241  1.10033  0.72298    602891.67852  45.85329  16.63705  55553.04841    51.27944       44.44798     36.925  53.07969   77.0    0.09345  -21.50352  0.97111 
  -23.11844   0.0014  3.05792     13.73263  1.75623   1.3536   6.52345  0.07171     0.01258  4311.25332   8866.92327  2.37865         3392.77988     17.22154    9e-05  55498.88156  0.72329  0.00911   5223926.31558  44.82458  16.69324  55555.81981    51.30821       44.43715   41.66341  57.57252   76.5     0.1151  -21.52636  0.99954 
  -27.34873  0.00123  2.39882     13.76166  1.37317   0.6652   4.54176  0.09689     0.01363  3695.07639   8800.61318  2.43632          3317.4985     19.90329  0.04447  55494.65127  0.36991  0.00557   2198951.83068  45.30436  16.67422  55555.81981    51.31804       44.42575   46.15625  60.00312   81.0    0.10787  -21.50019  0.99975 
  -22.97918  0.00229  2.96354     13.72073  1.66896   1.0623   4.85732  0.07356     0.01357  4000.80817    8247.0245  2.39491         3480.58074     19.40811  0.01422  55499.02082  0.46379  0.01113   4925149.79985  44.85525  16.66649  55552.38621    51.30127       44.45615   39.23281   55.3875   83.0    0.11863  -21.52594  0.99943 
  -29.98197  0.00286  2.33844     13.66834   1.3689  1.00149  10.66751  0.07498     0.01182  4508.57266   8597.33469  2.42189         3190.83009     19.24894  0.00986  55492.01803  1.29351  0.03048   3201496.68347  45.16201  16.71685  55552.38621    51.33382       44.47852   39.23281   55.3875   76.5    0.09537  -21.51756  0.99871 
    -23.598  0.01287  2.58753     13.75873  1.37099  0.67593   8.72402  0.05212     0.01075   4613.6755   8630.70722   2.4236         3260.30453     16.39296    1e-05    55498.402  1.10774  0.11225   2589162.34938  45.16695  16.67193  55553.04841    51.29821       44.44082   41.66341  57.57252   77.5    0.11563  -21.50668  0.99415 
  -29.92998  0.00128  3.09797     13.67544  1.91317  1.50791    4.7513  0.09642     0.01025  3964.10509   8625.40916  2.44435         3297.95778     19.31528  0.01148  55492.07002  0.44538  0.00607   7600521.89483   44.6876  16.67928  55555.58932    51.29884       44.43894   41.54062  57.69531   77.0    0.09536  -21.50497  0.99972 
  -24.11188   0.0011  3.20312     13.85459  1.91918  1.39546   6.47108  0.09843     0.02139  4510.97696   8710.69597  2.38089         3348.78937       16.244    1e-05  55497.88812   0.7855  0.00713   3571862.78211  44.98792  16.67567  55553.04841    51.30914       44.44952   41.54062  57.69531   73.5    0.10893  -21.51638  0.99966 
  -20.32284  0.00114  2.98335     14.25528  1.64973  0.30082   9.08151  0.04656     0.01013  4198.39968   8888.59611  2.58148         3421.97484     19.02131  0.00584  55501.67716  0.95489  0.01035    420805.96901  45.91277  16.71557  55555.58932    51.29793       44.42778   41.54062  57.69531   76.0     0.1253  -21.53481  0.99946 
  -25.98555  0.02925  2.89704     13.70854  1.68029  1.17765   6.77998  0.07203     0.01256  4475.18959   8446.04454  2.29458         3330.64563     19.69049  0.02724  55496.01445  0.80999   0.1983    5012182.0225  44.87029  16.67278  55555.81981    51.29043       44.42758   39.23281  57.69531   78.0    0.10767  -21.54765  0.99049 
  -24.61922  0.00173  2.36401     13.82273  1.33545  0.36342   2.65427  0.10659     0.01255  3817.25691   8226.45282  2.43862         3453.96612     19.35453  0.01257  55497.38078  0.23071  0.00459   1567790.81819  45.45189  16.67406  55553.04841    51.28546       44.44155     36.925  53.07969   80.5    0.10481  -21.52543  0.99978 
   -26.3633  0.00159  3.05041     13.67123  1.76991  1.38177   3.95165  0.10521     0.01356  3989.86058    8385.6932   2.5257         3335.34204     16.62366    2e-05   55495.6367  0.37525  0.00628   6950762.87916  44.70605  16.64868  55553.04841    51.29701       44.44168   39.23281   55.3875   79.5    0.10357   -21.4907  0.99968 
  -21.31207  0.49807  3.24645     13.76791  1.62276  1.49704   8.12425  0.05844     0.01198   4759.8266   8370.85896  2.43277         3336.08007     18.50051  0.00176  55500.68793  1.09798  4.04648   4624478.54679  44.79122  16.70536  55553.04841     51.3865       44.51926   43.84844   55.3875   79.0    0.12024  -21.53445  0.79582 
  -26.12625  0.00824  2.93324     13.80448  1.74922  1.12708   8.51599  0.07114     0.01196  4261.82972   8628.65767   2.5264          3365.7063     17.06159    6e-05  55495.87375  0.92269  0.07014   3438715.15137   45.0406  16.66753  55553.04841    51.29391        44.4378   41.54062   55.3875   75.0    0.10848  -21.55106  0.99677 
  -23.21876  0.04942  3.26479     13.78495  1.85832  1.49791   9.28271  0.04873     0.01105  4516.41019   8745.65753  2.20495         3452.73492      18.9419  0.00486  55498.78124  1.12951   0.4588   4951641.39228  44.81551  16.65896  55555.58932    51.30063       44.44196   39.23281  57.69531   78.0    0.11798  -21.52865  0.97644 
  -23.65059   0.0277  2.88835     13.80191  1.62056   0.9203   9.51122  0.05599     0.01073  4438.92637   8560.04022  2.57237         3260.23272     18.32807  0.00118  55498.34941  1.11794  0.26345   3125798.01372  45.06225  16.68837  55553.04841    51.29859       44.44471    39.3556  57.57252   76.5    0.11274  -21.51417   0.9869 
  -21.63016  0.00113  2.72114     13.92814  1.43412  0.46959   2.50984  0.13916     0.03204  4208.70946   8295.53353  2.66894          3337.6663     18.34396  0.00123  55500.36984   0.2652  0.00283   1372853.69461  45.41831  16.72146  55552.39595    51.30603       44.43178   43.84844  57.69531   82.0    0.12401  -21.51236  0.99985 
  -21.93105  0.00145  2.68873     13.93371  1.50829  0.47496   5.19843  0.06786      0.0114  3967.51447   8617.58037  2.57336          3345.7333     19.88279  0.04241  55500.06895  0.48813  0.00754   1373944.76873  45.45027  16.67694  55553.04841     51.3008       44.44121   39.23281  60.00312   80.5    0.11985  -21.54075  0.99963 
  -24.95074  0.00379  3.08447     13.77792  1.84587  1.26672   4.80265  0.07614     0.01177  3407.24637   8639.20129  2.58269         3449.52187     19.87146  0.04132  55497.04926  0.33259  0.01819   4534639.39898  44.90014  16.70645  55552.39595    51.28468       44.42735    39.3556  57.57252   84.5    0.11682  -21.51242  0.99914 
    -23.633  0.00205  3.18487     13.95695  1.93158  0.90108  10.49694  0.05946     0.01336  4610.34258    8048.8834  2.59474         3235.66419     16.82075    4e-05    55498.367  1.33093  0.02156   2218279.64879  45.20256  16.66829  55553.04841    51.30276       44.44753   39.23281   55.3875   76.5    0.11494   -21.5432    0.999 
  -22.81101  0.00133  2.98795     13.92473  1.86986  0.72962   3.95492  0.09728     0.01621  3755.53292    8796.5498  2.88747          3212.3236     20.27474  0.10458  55499.18899  0.33274  0.00527   2192356.39526    45.249  16.66821  55555.81981    51.31104       44.42967   43.97123  59.88033   81.5    0.11924  -21.59103  0.99977 
  -25.70435  0.00465  3.08116     14.11573  1.87219  0.38777   2.15493  0.16633     0.02201  3624.29429   8691.85507  2.73192         3318.85172      19.8635  0.04057  55496.29565  0.16885  0.01002    968566.38985  45.57764   16.6946  55555.58932    51.29214       44.42145   41.66341  59.88033   83.0    0.10499  -21.53051  0.99953 
  -20.46431  0.09492  2.69378     13.71062  1.43139  1.05675   9.30204  0.04794     0.01184  4436.55262   8441.34653  2.76874         3259.55514     19.67755  0.02644  55501.53569  1.09219  0.88299   3656380.63506  45.00083  16.66116  55555.58932    51.30107       44.42801   41.66341  59.88033   78.5    0.12859  -21.55033  0.95558 
  -24.62304  0.00152  3.45594     13.85421  2.10454   1.2303   3.65891  0.12826     0.01905  4127.27484   8706.41783  2.42189         3308.21535     17.90459  0.00045  55497.37696   0.3718  0.00556    4567503.4709  44.85519  16.68722  55555.58932    51.29582       44.43253     36.925   55.3875   76.5     0.1052  -21.49368  0.99973 
  -28.16467  0.00329  2.64476     13.97623  1.55129  0.50419   8.18138  0.07874     0.01209  4212.88831   8623.26109  2.22309         3383.16755     17.14756    8e-05  55493.83533  0.86619  0.02693   1124165.06783  45.56394   16.6761  55553.04841    51.29443       44.43646    39.3556  57.57252   77.0    0.09488  -21.50907  0.99879 
  -22.45181  0.02322  2.96557     13.70212   1.6628  1.25651   7.76185  0.05781     0.01087   4465.5527   8586.10761  2.48896         3366.78685     19.03647  0.00604  55499.54819   0.9233  0.18027   5353521.38935  44.81683  16.68441  55553.04841    51.30264       44.44814   41.54062   55.3875   77.0    0.11868  -21.55239   0.9908 
  -24.87246   0.0142  2.82211     13.77572  1.61328  0.97792   9.74705  0.06078      0.0121  4748.05514   8620.20623  2.28186         3280.54654     17.53744  0.00019  55497.12754  1.31079  0.13839   3351499.45995  45.05017  16.65943  55553.04841    51.32229       44.44757   41.54062  60.00312   74.0    0.11047  -21.53682  0.99334 
  -23.17207  0.00304  3.00045     13.85761  1.79301  0.81456   4.50274  0.08031     0.01514  3778.30764   8707.46682  2.53972         3415.94674     20.10022  0.06998  55498.82793  0.38344  0.01368    2887681.7464   45.1075  16.67699  55555.81981    51.30363       44.42067   43.97123  59.88033   83.5     0.1187  -21.56653  0.99936 
  -21.91373  0.00139  2.56783     13.57938  1.36313  1.18295   9.19113  0.04757     0.01136  4791.44416   8258.17478    2.854         3079.92674     17.18426    8e-05  55500.08627  1.25872  0.01279   5790539.00677  44.82153  16.67934  55555.58932    51.29443       44.42252   41.54062  57.69531   80.0    0.12045  -21.52831  0.99933 
  -22.43949  0.00703  3.58547     13.94403  2.13975  0.81838   6.68561  0.06124     0.01204  4588.48569   8598.16608  2.60345         3235.81306     17.68966  0.00027  55499.56051  0.83967  0.04699   3305382.27658  44.97089  16.67894  55552.38621    51.33328       44.49406     36.925   55.3875   79.0    0.11382  -21.53192  0.99756 
  -23.53531  0.00175  2.96347       13.746  1.67842  1.10405   4.13904    0.105     0.01968  4102.49491    7955.9306  2.57123         3416.81375     18.16316  0.00081  55498.46469  0.41555  0.00726    4408887.6368  44.90582  16.69223  55553.04841    51.30977       44.44976   39.23281   55.3875   82.5    0.11895  -21.54257  0.99963 
  -28.02834  0.00167  2.94341     13.72493  1.75065  1.16983   5.17966  0.10772     0.01509  4098.06435   8637.82444  2.39626         3273.10941      19.1084  0.00713  55493.97166   0.5189  0.00863   4998626.27056  44.87549  16.68835  55555.58932    51.31014       44.45506    39.3556  55.26471   80.5    0.09365  -21.48438  0.99959 
  -22.36715  0.00122   3.0169     13.73345  1.73903  1.07007   2.58069  0.14092     0.02675  4256.27173   8933.06617  2.52714         3324.76496     19.84608  0.03898  55499.63285  0.27888  0.00316   5015889.84916  44.84968  16.64385  55553.04841    51.32309       44.47092   39.23281   55.3875   78.5    0.11805  -21.54712  0.99984 
  -22.60295  0.00864  3.28932     13.85611   1.9515  1.21256   9.43671  0.05542     0.01099  4490.67974   8492.83305   2.6856          3263.9658      17.1932    9e-05  55499.39705   1.1352  0.08157   3803450.40459  44.94482  16.69498  55555.58932    51.30279       44.43287   41.54062   55.3875   75.0    0.12047   -21.5515  0.99599 
  -23.46239  0.00386  3.29173     13.79431  1.93358  1.52957   6.64537  0.07103     0.01361   4424.7348   8197.33078  2.78822         3151.68596     17.11425    7e-05  55498.53761  0.77611  0.02564   5016651.79369  44.81994  16.66452  55553.04841    51.30238       44.43856   41.66341  57.57252   80.0    0.11656  -21.51337  0.99871 
  -25.15495  0.00192  2.94569     13.86523  1.81006  0.99773   8.47189  0.08088     0.01665  4778.08431   9015.76038  2.56101         3120.18617     19.61257  0.02277  55496.84505  1.15376  0.01623    2712797.0701  45.15475  16.68652  55555.81981    51.32449        44.4471   43.84844  57.69531   71.5    0.10387  -21.55652  0.99928 
  -22.89423  0.04175   2.9065     14.05237  1.63717  0.47267   6.97438  0.07763      0.0166  4692.44089   8297.63891  2.56199         3161.76869     18.68007  0.00266  55499.10577  0.91607  0.29121   1009060.58437  45.55228   16.7174  55553.04841    51.28819       44.42613   41.54062   55.3875   78.0     0.1109  -21.51533  0.98558 
  -23.65088  0.01724  3.08188     13.79195  1.77307  0.87934   2.28363  0.17163     0.02753  4147.09673   8279.40087  2.45544         3445.98013     17.98319  0.00053  55498.34912  0.23428  0.03936   4076287.62515  44.92968  16.66645  55550.50751    51.28195       44.44638     36.925   55.3875   79.5     0.1133  -21.54254    0.998 
  -22.67013  0.00279   3.0313     13.89086  1.73072  0.79834   9.66655  0.04967     0.01014  4310.94172   8416.10447  2.44652         3358.29761     16.91765    5e-05  55499.32987  1.07163  0.02693   2441036.85355  45.15624  16.69068  55553.04841     51.3047       44.43988   41.54062   55.3875   79.0    0.11453  -21.51857  0.99865 
  -25.63221  0.00177  2.91947     13.82122  1.67828  0.77695   1.56873  0.25211       0.033  3583.05362    7857.7581   2.4885         3491.84844     18.99922  0.00555  55496.36779  0.12014  0.00278   3025870.49259  45.08225  16.70843  55552.38621    51.32951       44.47269   39.23281  57.69531   82.5     0.1093  -21.49976  0.99986 
  -23.56624  0.10802  3.09571     13.77199  1.68748  1.18044  10.67238  0.04363     0.01058  4531.71866   8630.85026  2.45584         3335.69953     18.40668  0.00142  55498.43376  1.30742  1.15288   4291387.75615  44.88197  16.70648  55550.50751    51.33979       44.50333   34.61719  57.69531   81.0    0.11995  -21.52409  0.94082 
  -24.65418  0.00161  2.91717      13.7233  1.66893  1.12969    5.8653  0.07165     0.01134  3892.86946   8437.97037  2.50351         3383.50694     19.32803  0.01182  55497.34582  0.53022  0.00945   4716129.05421  44.88778  16.67958  55553.04841     51.3026       44.44422   41.54062   55.3875   80.0    0.11298  -21.50419  0.99953 
  -21.32482  0.00169  3.44148     13.88881  1.98223  0.86551   5.02788  0.06299     0.01054  3760.43126   8857.50877   2.6333         3485.98174     17.12223    7e-05  55500.67518  0.42412  0.00848      3637758.69  44.93167  16.64231  55553.04841    51.28847       44.44375   37.04779   52.9569   81.0    0.12168  -21.51235  0.99954 
  -23.03954  0.00696  3.42802     13.86774  2.12928  1.38583   5.31436  0.06623     0.01134  3375.71723   7930.78294  2.66448         3377.39762      19.7943   0.0346  55498.96046  0.36125  0.03696   4272176.59165  44.89634  16.74614  55550.50751    51.32029       44.46126   39.23281  57.69531   87.5    0.12151  -21.50153  0.99826 
  -21.35692  0.00347  3.15716       14.073  1.75581  0.42514   7.11501  0.05021     0.01187  4571.78948   8918.22479  2.40496         3358.91857     17.87401  0.00042  55500.64308  0.88711  0.02469    1161170.5957  45.44983  16.68502  55555.81981    51.30633       44.42083   41.54062  60.00312   78.5    0.11957  -21.51983  0.99866 
  -25.66896  0.17436  2.26813     13.63329  1.20896  1.01055  10.78398  0.06322     0.01015  4394.99199   8538.23132  2.85997         3088.25091     17.38067  0.00013  55496.33104  1.24257  1.88032   3125897.62929  45.14494   16.6771  55553.04841    51.29012       44.43913    39.3556  55.26471   77.5     0.0994  -21.50285  0.91752 
  -25.07621  0.00618  2.24245     13.91254  1.17258  0.31281   2.33171  0.19713     0.03067  4422.64669   8387.85377  2.53654         3254.93764     16.79716    3e-05  55496.92379  0.27206   0.0144    819085.31676  45.72321  16.67119  55555.58932    51.30276        44.4449   39.23281   55.3875   78.0    0.10456  -21.52109  0.99928 
  -23.69774  0.00304  2.82515     13.69792  1.61361  1.38241   4.53014  0.11133     0.02042  4345.79433   8528.13647  2.34185         3362.98354     18.94981  0.00495  55498.30226  0.51036  0.01377   4806752.49522  44.89271  16.70793  55555.58932    51.30467       44.43237   43.97123  57.57252   77.0    0.11573  -21.52917  0.99933 
  -23.51514  0.00331  3.25444     13.73379  1.90828  1.19712    6.5121  0.05592      0.0104  4518.16991   8897.07317  2.36898         3380.13371     19.65426  0.02506  55498.48486    0.793  0.02157   6394705.41394  44.71872  16.67186  55550.50751    51.28238       44.45272   34.61719  53.07969   78.5    0.11096  -21.55076   0.9989 
  -26.12075  0.00196  2.66493     13.63536  1.49333  1.22498   5.10906  0.09263     0.01344  3789.49674   8173.84389  2.69428         3347.16625     16.81852    4e-05  55495.87925  0.43765  0.01001   5279934.26182    44.869  16.68223  55553.04841    51.32531       44.47136   39.23281   55.3875   83.5    0.10533  -21.50032  0.99951 
  -25.21152  0.00225  2.83314     14.09538   1.6973  0.28322   2.21016  0.13371     0.01361  3575.41684   9390.72671  2.58482         3415.95298     19.58925  0.02158  55496.78848  0.16854  0.00496    815363.22999  45.68272  16.66814  55555.58932     51.2994       44.42954   41.66341  57.57252   76.0    0.10532  -21.50842  0.99977 
   -25.1721  0.02079  2.60525     13.81096  1.38951   0.6156   4.23298  0.12061     0.02663  4627.69495   8448.50054  2.33995         3397.11909     16.74687    3e-05   55496.8279  0.54076    0.088   2091476.11511  45.25955  16.67412  55553.04841    51.31213       44.45438   41.54062   55.3875   79.5    0.11034  -21.53642  0.99545 
  -23.45628  0.44061  3.53312     13.92732  1.92517  1.24986   9.30725  0.06105     0.01001  4501.19882   8470.65475  2.36601         3344.28762     16.50842    2e-05  55498.54372  1.12488  4.10082   3118538.16266  44.96305  16.64947  55552.38621    51.34086       44.50177     36.925   55.3875   78.0    0.10871  -21.51113  0.80857 
  -22.51902  0.00252  3.59489     14.01485  2.08548  0.75487   9.88559  0.04016     0.01069  4415.28373   8770.39329  2.58143         3318.78366     16.31249    1e-05  55499.48098   1.1496  0.02492   2337195.18849  45.10799  16.68598  55552.38621    51.34665       44.50876   39.23281  53.07969   80.0     0.1302  -21.51665  0.99866 
  -24.72643  0.00137  2.58029     13.71698  1.45817  0.98148  12.82809  0.04169     0.01041  4648.11782   8699.49847  2.32676         3264.54509     19.72657   0.0296  55497.27357  1.65327  0.01755   3319034.40944   45.0883  16.68886  55553.04841    51.29442       44.42586   41.54062  60.00312   76.5     0.1156  -21.55097  0.99917 
  -24.49214  0.13664  3.52684     14.08982  2.12342  0.65357    9.2905  0.05743     0.01106  4737.97202   8804.27863  2.52128         3143.12058     19.60251  0.02225  55497.50786  1.24409  1.26941   1621729.83104  45.29113  16.67366  55555.58932    51.30093        44.4276   43.84844  57.69531   75.5     0.1133  -21.54476  0.94017 
  -21.56051  0.00129  3.23981     13.71205  1.84618  1.27796   1.54791  0.16129     0.03013  3645.14417   8818.10999  2.64173         3452.95823     19.59926  0.02208  55500.43949  0.12269  0.00199   6776740.25662  44.68306   16.6739   55555.8106    51.32228       44.43796   43.84844  57.69531   85.5    0.11908  -21.49934  0.99989 
  -21.00551  0.03589  3.60072     14.04526  2.07122  0.67457   8.82439  0.04901      0.0116  4962.35954   8621.02608  2.49741         3276.40623     18.07118  0.00065  55500.99449  1.29625  0.31666    2024448.1678  45.16599  16.65933  55555.58932    51.29249       44.44048    39.3556  55.26471   74.0    0.13047  -21.55221  0.98301 
  -20.91658  0.00899  3.16964     13.85565  1.78715   0.9314   8.96129  0.04538     0.01133  4385.10119   8825.06237  2.59247         3257.63509     17.57897  0.00021  55501.08342  1.02791  0.08053   3241146.30897  45.00829  16.68255  55553.04841    51.30768       44.42861   43.84844  57.69531   78.5    0.12691  -21.50667  0.99578 
  -27.24451  0.00163  2.84594     13.78545  1.74511  1.24487  10.23782  0.06889     0.01056  4444.05032   8851.17356  2.34001         3178.13107     18.04136  0.00061  55494.75549  1.20613  0.01672    3525216.7879  45.05503  16.65685  55553.04841    51.28435       44.44888     36.925  53.07969   72.5    0.09941  -21.49591  0.99927 
  -22.90457  0.01708  2.97479     13.78134  1.64768  1.07784  10.07779  0.04679     0.01159  4402.67503   8560.09959  2.52767         3309.06561      17.1643    8e-05  55499.09543  1.16527  0.17216    3706110.1004  44.96989  16.65654  55552.38621    51.34799       44.51527     36.925  53.07969   78.5     0.1215  -21.50581  0.99111 
  -20.18651  0.13241  2.85463     13.89736  1.46695  0.60897  10.91952  0.03926     0.01014  4783.81884   8476.12077  2.48453         3317.90407      18.0299   0.0006  55501.81349  1.49066  1.44589   1780752.56666  45.27356  16.62288  55552.38621    51.37817       44.56351   34.61719  48.46406   78.0    0.12732  -21.54158  0.92354 
  -25.33322  0.00114   2.6802     13.83052  1.69011  0.61987   3.01516  0.10956     0.01134   3325.8522   8769.27981   2.6523         3337.85576     20.27199  0.10392  55496.66678  0.19895  0.00343   2460511.14846   45.2494  16.66687  55553.04841    51.35421       44.51249   39.23281   55.3875   82.5    0.10378  -21.57959  0.99986 
  -24.35288  0.00149  2.62787     13.61406  1.42792  1.50976   3.32102  0.13596     0.03032  4117.18009   8463.37206  2.44567         3370.83647     19.49768  0.01747  55497.64712  0.33581  0.00494   5415005.95659  44.85074  16.65432  55555.58932    51.28765       44.42344   39.23281  57.69531   83.0    0.11365  -21.49742  0.99975 
  -26.92701  0.01538  3.04117     13.80822   1.8139  1.29265  11.15989  0.05724     0.01038  4441.33143   8836.84883  2.49494         3250.79291     17.69648  0.00028  55495.07299  1.31315  0.17167   3767653.05854  44.98531  16.68348  55553.04841    51.29335       44.43787   39.23281   55.3875   75.0    0.10348  -21.51075    0.992 
  -24.30069  0.00151    3.152     13.82773  1.78614  0.83283   2.50718  0.12829     0.01799  3356.12945   8032.31612  2.70341         3448.47141     18.11625  0.00073  55497.69931  0.16846  0.00379   3642903.65285  44.96214  16.65304  55555.58932    51.29676       44.42879   41.66341  57.57252   87.5    0.10772  -21.45392   0.9998 
  -31.36854  0.00547  2.20823     13.63264  1.35631  0.46251   2.58673  0.15354      0.0124   4067.9376   8746.57023  2.20607         3382.10355     18.80123  0.00352  55490.63146  0.25534  0.01416   3334135.55034  45.19013  16.69586  55553.04841    51.29131       44.43607    39.3556  55.26471   77.0    0.10128  -21.51716  0.99941 
  -30.13975  0.00111  2.81399     13.74581  1.72171  1.27939   5.67128  0.11131     0.01352  3848.56655   8197.93874  2.59039          3258.5355     16.86814    4e-05  55491.86025  0.50108  0.00631   4081243.70855  44.99537  16.68891  55552.38621    51.29463       44.44494     36.925  57.69531   80.5    0.09669  -21.47726  0.99973 
  -20.54371  0.33614  3.05918     13.83679  1.56292   0.7656   8.50481  0.05026     0.01019  4795.66315   8794.67253  2.56917         3286.67306     18.11418  0.00072  55501.45629  1.16678  2.85877   2879997.60147  45.03218  16.69359  55555.58932    51.29415       44.42976   41.66341  57.57252   77.0    0.11578   -21.5579  0.85334 
  -25.79702  0.01343  3.29244     13.83282  1.95473  1.52085  11.24904  0.04829     0.01004  4357.46911    8264.2133  2.66714         3150.60912     17.60129  0.00022  55496.20298  1.27412  0.15105   4249087.82082   44.8966  16.71555  55552.39595    51.28906       44.42862   41.54062  57.69531   80.0     0.1075  -21.47882   0.9926 
   -24.1901  0.01797  2.89562     13.83802  1.66344  0.83814   9.84251  0.05386     0.01079  4598.22512   8828.51784  2.64549         3137.64132     19.42416  0.01475   55497.8099   1.2414  0.17687     2730640.293  45.13011  16.69476  55553.04841    51.30682       44.42104   48.58685  59.88033   75.5    0.11229  -21.52826  0.99145 
    -25.033  0.00166  2.64479     13.73591   1.4523   0.6576     2.312  0.14773     0.01843  3620.09931   8653.21272  2.51188         3479.49416     16.32637    1e-05    55496.967  0.18074  0.00384   3182932.45035  45.08329  16.63991  55552.38621    51.34821       44.51237   39.23281  53.07969   80.0    0.10557  -21.48617   0.9998 
  -20.36581  0.00178  2.91591     13.72572  1.71724  1.56153   7.42191  0.05011     0.01036  3949.76373   8876.00115  2.61783         3384.63049     20.06402  0.06438  55501.63419  0.69069  0.01322   4794696.31986  44.89337  16.65352  55553.04841    51.29474       44.44915   39.23281  53.07969   79.0    0.13007  -21.59192  0.99938 
  -24.13232  0.00212  2.92938     13.70323  1.66641  1.33683   7.22372  0.06589     0.01142  4317.95253   8305.70727  2.49341         3284.19895     16.33987    1e-05  55497.86768  0.80342  0.01533   5208127.31655  44.84039  16.69546  55555.58932    51.29768       44.43224   41.66341  57.57252   79.5    0.11375  -21.51089  0.99924 
  -24.21638  0.00103   2.7895     13.88478  1.57212  0.65718   8.59598  0.06381     0.01213  4614.86487   8606.06015  2.57782         3200.73962     17.28903  0.00011  55497.78362  1.09205  0.00886   1931012.15348  45.28849  16.66047  55553.04841    51.28877       44.44277   39.23281   55.3875   74.5    0.11035   -21.5276  0.99956 
  -25.10612  0.00154  3.21524     13.64421  1.96474  1.46858   1.46166  0.19624     0.02129    3600.091   8579.57668  2.51902         3472.47673     19.08835  0.00681  55496.89388  0.11301  0.00225   9707894.09401   44.5606  16.69173  55553.04841    51.33695       44.48315   41.54062   55.3875   80.5    0.10923  -21.49474  0.99989 
  -22.59358  0.08168  2.91711     13.63393  1.58474  1.10566   7.66536  0.05212     0.01062  4954.28125   8665.21582   2.4913         3251.07047     17.11447    7e-05  55499.40642  1.12233  0.62609   6758083.28239  44.70907  16.67721  55555.81981    51.31129       44.42891   43.84844  57.69531   77.0    0.10781  -21.54351  0.96699 
  -21.69546  0.00234  2.87623     13.61018  1.68825  1.48158   1.70479  0.15627     0.02921  3827.45217   8819.16705   2.3977         3426.53016     20.13365  0.07558  55500.30454  0.14898    0.004   7808002.54037   44.6861  16.65363  55553.04841    51.29257        44.4533     36.925  53.07969   85.5    0.11608  -21.54119  0.99981 
  -25.72139  0.00118  2.72106     13.63913  1.52359  1.38542    6.5452  0.06885     0.01044  3765.77022   8768.84877  2.60398         3362.60624     16.80258    4e-05  55496.27861  0.55368  0.00773   5519445.31333  44.84034   16.6939  55553.04841    51.29719       44.43341   41.54062  57.69531   80.0    0.10844  -21.48479  0.99962 
