 log(Bfield)      Mns     Pspin  cutoff_power  cutoff_wavelength  fnickel    kappa  kappagamma   mejecta  log(nhhost)  temperature  texplosion  thetaPB      vejecta      A_V        MJD_0   log(KE)      M_Ni  Peak_mag     Peak_MJD 
    12.90338  1.56108   2.31746       3.05707          4570.2601  0.14081  0.04288     0.04454   7.18526     16.18901   3509.40047   -21.44062  0.94545   4671.68751    1e-05  56402.73038   51.9064   8.71864  19.57929  56469.27537 
    13.35266  1.60742   6.82236       1.14149         4900.48076  0.27714  0.05144     0.04864  18.15543     19.51703   8809.10067   -14.70704  0.25292  15456.17292  0.01827  56409.46396  53.03077   20.8753  19.59978  56461.59784 
    13.37362   1.7127   4.57064       2.91972         3611.55874  0.10677  0.01443     0.04764  18.50059     18.25977   8594.50465   -17.37535  0.95815   8670.69055  0.00101  56406.79565  52.53024   8.07146  19.06336  56492.30795 
    15.08011  1.84543   7.82416       2.73613         5422.31178  0.17783  0.19776     0.06259   3.19047     16.97104   8492.30079    -6.88754  0.30176  10808.95557    5e-05  56417.28346  52.54371   8.92331  19.78664  56446.24279 
    14.13704  1.74754    7.4054       4.00363         3368.44876  0.46906  0.13898      0.0186  12.20686     20.59359   8014.73893   -19.42688   1.1169   12187.5138  0.21793  56404.74412  52.78997   32.6393   19.7026  56446.24279 
    13.41043   1.4971  28.01879       2.39805         5075.02744  0.26037  0.06393     0.20345  51.11045     18.14881   4728.13023   -19.67452  0.03688  10611.34972  0.00078  56404.49648  52.78282  23.50958  19.68273  56441.12444 
    13.95158  2.12575   3.74176       0.98821         3761.32728  0.00922  0.11258     0.11517  14.93197     16.54028   3810.80595    -28.2461  0.92495   3899.78727    2e-05   56395.9249  51.81804   0.66877  19.74969  56438.56526 
    15.08528  1.77248  28.83146       1.42487         5040.57867  0.38362  0.14899     0.13421   88.6044     19.29776   7129.30173   -20.48672  0.16433    19136.121  0.01103  56403.68428  53.33167  37.69043  19.75172  56451.36114 
    15.00781   1.9317  17.01377       4.64988         4018.63448  0.44442  0.01444     0.04179  13.16807     21.06021    5926.7343   -10.42614  0.88148   5618.28926  0.63817  56413.74486  52.12413  31.41156  19.79877    56444.271 
    14.33648  1.74584  22.43624       3.49431           5116.927  0.24441  0.02327     0.28917  11.18163     16.14189   9696.54237     -8.4339  0.47451  11059.98998    1e-05   56415.7371  52.69765  16.69703  19.77828  56451.36114 
    14.17065  1.75732   6.17737       3.25679         5770.88147  0.21701  0.12469     0.02315   5.97918     19.25241   4754.11478   -16.22915  1.42228   5304.05441  0.00993  56407.94185  51.99762  12.86022  19.72942  56446.24279 
    14.67987  1.51019   2.02872       4.94036         3463.40742  0.04415  0.11327      0.0198   6.08013     16.66442    4529.9265    -2.33217   1.2443   7073.60989    3e-05  56421.83883  52.24946   2.62716  19.69645  56466.71619 
    14.33254  1.51536   2.74144       3.24012         4876.36288  0.26868  0.27275     0.01019   9.73669     17.99542   5525.44369    -6.07487   1.2014    7144.6819  0.00055  56418.09613   52.3052  17.81746  19.12462   56497.4263 
    14.49641  1.53628   8.64642       4.34025           4516.931  0.07625  0.02484     0.04067  12.89408     17.31797   5256.58733   -16.97479  0.59772   3701.18729  0.00012  56407.19621  51.75973   5.36598   19.6827  56436.00609 
    14.85171  2.01157  24.42091       2.84939         5721.97012  0.30518  0.03549     0.01713   12.4054     19.63853   9221.66448   -10.37237  0.52463  13081.26911  0.02417  56413.79863  52.85289  21.30678  19.83372  56441.12444 
     14.7419  1.77472  29.71723       3.32426         4030.94654  0.43004  0.12192     0.16548  19.72148     17.73203    4896.3658   -22.38572  1.32749  11967.04485   0.0003  56401.78528  52.81538   32.9072  19.83588     56443.25 
    14.59195  1.73419   5.91512       1.92922          2389.0252  0.06547  0.22331     0.03233    5.3361     16.60009   6151.11329   -10.27863   0.7547  15196.05234    2e-05  56413.89237  52.89964   3.77229  19.78295  56451.36114 
    14.51125  1.29784   5.85603       4.74557         5456.17893  0.18605  0.15547     0.28161   8.55059     19.79509   9300.91959   -13.38988   0.6106  14329.41358  0.03466  56410.78112  52.89721  11.98851  19.22652  56505.10382 
    13.11152   1.8989  15.67227        1.0346         3391.40592  0.36484  0.01773     0.46577  16.24124     17.06214   8604.41645   -19.48412  0.49903   6051.53052    6e-05  56404.68688  52.20691  26.89398  19.74972    56443.178 
    14.47557  1.68645  10.30434       2.56301         5461.62895  0.44861  0.10914     0.17131  63.01868     20.93703   9544.22449   -17.12375  1.37426  22016.93288  0.48057  56407.04725  53.43113  41.86502  19.56019  56466.71619 
    13.76844  1.20286  16.54263        2.5881          3315.3868  0.25573  0.03567      0.3887  20.78088     16.66214   9950.69533   -14.81258  1.22778   11714.1144    3e-05  56409.35842   52.8011  19.76245  19.61347  56438.56526 
    14.91337  2.07853   9.85468       2.80367         5002.67486  0.07513  0.04857     0.02351   8.78006     18.49881   9930.22889    -7.71732  0.56806   8357.27903  0.00175  56416.45368  52.43146   4.86949  19.69905  56438.56526 
    14.94806  1.54881   8.60002       1.84107         4286.71506  0.28762   0.1413     0.26454  39.18312     20.29935   8909.24567   -14.78801  0.42728  29926.81972  0.11068  56409.38299  53.66451  24.86521  19.76918  56441.12444 
    14.68514   1.5369      4.43       0.99221          5364.0525  0.10689  0.21724     0.04208   1.54185     17.79277   9597.41381    -5.81455  1.06758   8393.88918  0.00034  56418.35645  52.22193   4.23938  19.73348  56451.36114 
    14.61053  1.66761   4.46747         1.765         3957.25559  0.07526   0.0306     0.12071   4.77023     21.03102   7655.39562   -12.02808  0.12637   8164.96023  0.59669  56412.14292  52.34769   4.21422  19.80963  56438.56526 
    12.20616  1.94105  27.03187       4.42638         5990.81028   0.4854  0.07325     0.17811  26.78525     16.83268   9084.50638   -26.19711  0.87002   7892.80075    4e-05  56397.97389   52.4783   39.2926  19.61689  56438.56526 
    15.15866   1.5464  10.31396        3.9419         5633.85131  0.45784  0.04567     0.01195   5.30566     19.60887    9511.2816     -6.0271  0.53649   8417.18897  0.02257   56418.1439  52.38588   26.3411  19.45505  56474.39372 
    13.80734  1.52757    3.0965       1.86457         3630.29723  0.27267  0.01501     0.01996  20.41082     21.34218   6923.91128   -18.41265  0.49742   8793.01828  1.22154  56405.75835   52.5505  21.00084  19.65279  56438.56526 
    13.60909  1.81022   4.54696       4.44411         2835.39342  0.12395   0.0716     0.10898  13.85134     16.95951   5741.83828   -22.56485  1.31735   8709.47556    5e-05  56401.60615  52.50938   8.85175  19.64286  56441.12444 
    14.71405   1.4298   6.87702       3.41712         5060.61146  0.25378  0.32839     0.06387   2.29952     20.02161   7589.77366    -9.04904  0.41441  12871.35201  0.05839  56415.12196  52.65234  11.53259  19.84188  56446.24279 
    14.77877  1.53261  19.31466       3.80837         4827.74655  0.42229  0.06237     0.14475  15.06798     20.45875   4551.06195   -18.06911  0.13449   9460.60993  0.15976  56406.10189  52.58858   30.6704  19.76524  56441.12444 
    14.28429  1.71906  20.40954       4.32204         4159.26874  0.15782  0.02895     0.24376  25.93845     17.47561   5638.36507   -10.10982   1.3683  14700.89069  0.00017  56414.06118  53.01603  12.70222  19.76739    56443.178 
    14.75863  1.76636  10.52014       4.47848         5350.21543  0.15182  0.03428     0.01871   9.49739     17.91142   9804.08751    -6.18998  1.43956   9359.55854  0.00045  56417.98102  52.53738  10.01296  19.74746  56438.56526 
    14.55473  2.04796   2.33845       2.93859         2348.67802   0.1082  0.24019     0.02251  30.75797     17.29374   6271.91185   -16.56203  0.19706    7454.9262  0.00011  56407.60897  52.43932   8.97476  19.72306  56446.24279 
    14.99451  2.16684  14.71944       3.04626         4353.82457   0.4147  0.06553     0.02568    2.9054     19.41957   7377.16553    -9.09048  0.36733   8634.13017   0.0146  56415.08052   52.3367  20.24749  19.76263    56445.173 
    13.66485   1.5622  13.17386       1.98795         4448.30168  0.33826  0.04838     0.31796  20.54349      18.0923   8363.44689   -21.72619  1.11654   6477.67941  0.00069  56402.44481  52.28559   26.0839  19.64376  56438.56526 
    14.26732  2.08306  26.24299       4.84707         4121.98251  0.40343  0.12753     0.07708  15.80828     19.12914   7716.35349    -13.5122  0.19069  24314.12215  0.00748   56410.6588  53.41258  29.58078  19.51997  56451.36114 
    12.93226  1.63795   2.16842       2.30804          5503.4065  0.12489  0.03685     0.05944  14.10405      16.3061   6031.53529   -20.10476  0.67848   9258.53836    1e-05  56404.06624  52.56407   8.95094  19.59016  56469.27537 
      12.507   1.2812  18.66049       1.49878         5125.91135  0.23687  0.01428     0.11059   21.8823     20.80984   9329.40842    -9.85287  0.53903  14372.62949  0.35856  56414.31813  52.98293  18.48173  19.79037    56444.271 
    14.41912  1.79069   8.28429       3.25205         3345.19828  0.11413  0.32208     0.43272   2.35899      16.3682   5260.36416   -10.57793  0.91345  15351.68072    1e-05  56413.59307  52.80892   5.22853  19.71441  56438.56526 
    14.10389  1.85353   7.68875        2.3373         4892.89732  0.05141  0.10417      0.0134   3.41307     17.59335   9602.42701   -10.35986  0.95419  13722.04288  0.00022  56413.81114  52.75934   2.63007  19.75779  56446.24279 
    14.65529  2.10918   8.69839       1.90904         5357.67876    0.041  0.16641     0.01292   2.39847     20.58442   8632.07794    -7.15358  1.33659  12240.51342  0.21337  56417.01742  52.61447   1.88834  19.80814  56441.12444 
    14.41724  2.00649  16.22412       4.31708         3574.16666  0.12407  0.01447     0.03267  16.50275      17.4135   7355.30021    -9.74943  1.21138  12858.71686  0.00014  56414.42157  52.86293   9.17408  19.83313    56445.282 
    13.62079  1.72991   27.6556        2.1365         5339.06384  0.49969  0.17676     0.13907  27.00588     19.85854   5426.25089   -21.25618  0.58427  17923.04001  0.04011  56402.91482   53.1913  40.50853  19.73633  56441.12444 
     14.6833   1.5657   9.40733        4.6201         4753.83109  0.15568  0.12874     0.09032   2.68883     18.72045   5145.54848    -7.37775  0.60732   9518.79732  0.00292  56416.79325  52.41135   7.42682  19.73359  56441.12444 
    14.53552  2.15933  10.32075       1.31371         4411.83989  0.11053   0.1275     0.01181   2.38802     19.78294   9521.70276    -8.45857  1.56286  11499.66718   0.0337  56415.71243  52.55965   5.08301  19.74136    56443.237 
    14.52392  1.80287  11.11332       2.55617         4841.21952  0.32307   0.1689      0.1996    1.2813      17.0917   9752.04977    -7.00767  1.36125   9526.85967    7e-05  56417.16333  52.30155  11.94877  19.68391     56444.17 
    14.82348  1.75923  25.22998       0.39781         5050.35178  0.46062  0.19218     0.42601  42.99139     17.47928   7601.22691    -24.5809  0.64584  20598.02935  0.00017   56399.5901  53.34673  40.43883  19.47885  56461.59784 
    14.72926  1.76391   6.82434        1.6913         4362.43667  0.23691   0.3011     0.01151    3.3803     19.68268   5760.81977   -14.58639  0.31173  11107.94375  0.02676  56409.58461  52.57459  12.08572  19.68603  56438.56526 
    14.67376  1.91425  21.07674       3.79267         5879.31804  0.31705  0.04309     0.23863  16.62664     16.52046   9485.30187   -14.73719  0.61976  11541.01587    2e-05  56409.43381  52.76966  23.47813  19.72712  56438.56526 
    14.54511  1.90084   3.35638       0.01923         5760.10268  0.06862  0.20633     0.17813    5.0295     18.85739   3121.04167   -19.91832  0.59811   5336.48868    0.004  56404.25268  51.98419   3.89474  19.72232  56446.24279 
    12.74213  1.41183  21.26842       0.78343         5968.94809  0.49487  0.22558     0.18406  25.54003     18.13109   8404.57071   -15.99681  0.13206  41341.75304  0.00075  56408.17419  53.91291  39.71847   19.7205    56443.178 
    12.13668  1.17943  14.04213       3.57179         4909.05521  0.28498  0.02997     0.02794  29.87746     16.19774   6724.84477   -21.14282  0.72775   4453.99474    1e-05  56403.02818  51.98973  23.51893  19.63736  56438.56526 
     14.4772  1.85709  10.49611       3.93192          4971.4613  0.17969  0.17401     0.04968   1.85864     18.48692   9301.48238   -12.29109  1.33278    8097.8696   0.0017  56411.87991  52.21937   7.61254   19.7259  56441.12444 
    14.65444  2.05564   6.04959       0.26402         3810.43925  0.07732  0.04365     0.08006  37.36393     16.97989   9092.91315    -8.21292  1.55171  16256.63788    5e-05  56415.95808  53.13099   6.63112  19.19226  56492.30795 
    14.70724  1.92507  14.41781       4.94283          3141.8142  0.27885   0.0668     0.03237  26.52108     19.56144   8410.55463   -16.38437   0.0734  16783.39947  0.02024  56407.78663  53.13283  22.53288  19.75223  56441.12444 
    14.87355  1.74524   7.86927       1.94214          3617.3692  0.06167   0.2137     0.01204   1.34517     16.60831   8157.05292    -6.74607  0.36321  11516.67081    2e-05  56417.42493  52.47449    2.3242  19.80814     56443.25 
    14.54059  1.74908  29.34821       1.63079         2463.22167  0.12513  0.02714     0.01875  46.21599     18.25096   6694.54007   -12.51104  1.02607  21409.29673  0.00099  56411.65996  53.38543  11.11609  19.77981  56451.36114 
    14.57821  1.64262  29.31182       4.82554         4730.02733   0.2396  0.04091     0.29992  69.18873     16.23488     6932.654   -50.91595  0.79721   2249.59902    1e-05  56373.25505  51.45606  22.68405  19.53681  56459.03867 
    14.05581   1.5699   4.52993       1.12871         4452.67493  0.06714  0.23814     0.03646   9.55936      20.0451   4670.40676   -20.38018  1.36596   9202.06625  0.06163  56403.79082  52.52326   4.43442  19.69104  56438.56526 
     14.6996  2.06901  12.69478        4.1294         4402.39613  0.28911  0.11123     0.01565   2.51833     17.39411   8816.87377    -9.42309  0.57267  11661.03917  0.00014  56414.74791  52.57895  13.51777  19.77837  56446.24279 
    14.20718  1.86834   7.66182       0.81988         4283.39973   0.0775  0.07196     0.02127   5.63666     19.50062   7158.15876   -13.55025  1.21907   9813.63854  0.01759  56410.62075  52.52577   4.52686  19.66341  56441.12444 
    14.17495  1.28924   3.80981       4.69795         4356.05562  0.04819  0.10717     0.30534  11.81955     19.67406   7459.18679    -12.0978  1.46821   5031.19175  0.02623   56412.0732  52.01856   3.33071  19.71761  56441.12444 
    14.07258   1.6624   4.21804       0.93825         4242.32387  0.37264  0.12665     0.05303   40.0629     18.83837   6059.81537   -16.90054  0.05496  20194.72229  0.00383  56407.27046  53.32448  32.33445  19.73634  56438.56526 
    14.04611  1.81226  24.88492       3.90618          4842.6553   0.3185  0.10969     0.03981  14.29967     16.36295   3558.65465   -10.96321  0.65409  32540.34981    1e-05  56413.20779  53.65703   22.8912  19.76828  56441.12444 
    12.10121  1.50842   20.5628       3.38014         4675.82049  0.45758  0.14876     0.04668  16.99479     18.65027   5127.17362   -15.72415  1.36335  19976.81243  0.00248  56408.44685  53.24807  34.02995  19.76516  56441.12444 
    14.69318   1.5803   5.80955       4.29561         2676.06899  0.16161  0.20783       0.011   1.88757     16.46704   9852.19533    -6.66312  0.69667    9846.7711    2e-05  56417.50788   52.3915   6.88245  19.70511  56446.24279 
    15.03544  1.76454   0.94472       4.11546         2227.37007  0.08981  0.03365     0.24919  26.92527     17.23897    6750.2688    -6.17825  0.92104  12278.13114   0.0001  56417.99275  52.86251   7.27714  19.73424  56448.80196 
    13.69159  1.68221   5.34418       1.37354          4258.8171  0.08029  0.18872      0.0457   1.19063     17.39674   6664.39656   -12.68196  1.24077  10917.35279  0.00014  56411.48904  52.40724   2.88446  19.72655  56438.56526 
    12.74122  1.60646  24.47895       4.08635         4717.86168   0.4151  0.15338     0.05112  33.62022     17.73534   9674.74941   -14.21259  0.74322  23933.00575   0.0003  56409.95841  53.45912  34.96625  19.53659  56466.71619 
    14.66644  1.51181  25.75652       3.74208         4762.47035  0.37529  0.06623     0.01207  10.48616     19.75103   6761.91581   -12.84169  0.23097  13905.76443  0.03132  56411.32931  52.89059  25.28945  19.52527  56456.47949 
    13.90916  1.74333   3.21114       3.28491         5674.10233  0.11318  0.33944     0.10612   8.13132     16.99204   4279.70619   -24.88941  1.54894   4023.56937    5e-05  56399.28159  51.78905   7.21036  19.85601  56456.47949 
    14.42785  2.19866  10.67977        4.3651         2501.50036  0.13744  0.08535     0.04478   9.83563     18.85042   3976.54754   -12.65037  1.48955   19342.5933  0.00394  56411.52063  53.17122     9.134  19.62186  56436.00609 
    14.59068  1.88273   7.73773       0.87507         4481.39616  0.06259  0.07756     0.03959  10.09224     18.96399   4225.91154   -14.62819  0.46772  12587.02593  0.00511  56409.54281  52.80046    4.1828  19.68655    56443.178 
    14.45895  1.68077   8.31568       1.38145         5870.73076  0.07414  0.13212     0.19462   1.26535     19.41631   9678.22336   -12.21333  0.58408    8973.6003  0.01449  56411.95767  52.24745   2.72867  19.79748  56438.56526 
    14.97233   1.7137   5.99377       2.18286         3700.79802  0.13988   0.1547     0.49834   7.70401     20.60249   6735.59524    -5.51092   0.3986  23088.38056  0.22244  56418.66008  53.30126   8.80247  19.67826  56448.80196 
    14.17974  1.83365   2.60994        1.8041         5359.42031  0.06706  0.07785      0.0612  23.78064     19.62455   4009.97397   -29.27181  0.08827   8801.59123   0.0234  56394.89919  52.56363   5.31276  19.74055  56451.36114 
    12.55051  1.73173  29.94533       2.93459         4785.87142  0.34558  0.10607     0.37137     31.65     19.97814    6125.8478   -20.10821  0.58572  16517.59319  0.05283  56404.06279  53.13249  28.80807  19.69763     56444.27 
    14.56725  1.90479   9.49472        2.7475         4364.27428  0.07997  0.32808     0.03629   1.48832     16.74198   9975.23111    -8.04501  0.78361  18377.51854    3e-05  56416.12599  52.89694   3.13086  19.66701  56459.03867 
    14.48444  1.79299   9.60377       2.89424         4150.44553  0.06732   0.0384      0.4311    2.1916     19.04667   6799.54267    -7.77614  0.63242   7131.70264  0.00619  56416.39486  52.13278   3.01251  19.75987  56441.12444 
    15.15833   1.7533  26.08186         4.362         4801.62062  0.29603  0.09734     0.02986  15.91165     19.97793   7071.88591    -10.8515  0.90886   30698.1019   0.0528   56413.3195  53.61565  21.73349  19.75387  56446.24279 
    14.74044     1.81  10.91493         3.974         4768.97063  0.39804  0.20083     0.01565  21.82245     19.26372   8424.67929   -17.11517  0.51544  23487.46823   0.0102  56407.05583  53.40931  31.04117  19.69397  56471.83454 
    15.09275  1.83255   9.64575       3.15317         4954.50521  0.16716  0.17715     0.32241   6.50309     18.32056   9386.02147    -8.19033  0.36386  26070.50119  0.00116  56415.98067  53.38952  10.10912   19.7123  56438.56526 
    14.36529  1.74332   9.37179       3.76683         5034.15319   0.1079  0.12267      0.0101   2.69906      16.7093   9153.44684    -7.37463  1.07995  14473.44264    3e-05  56416.79637  52.77583   5.15336  19.86186  56448.80196 
    14.14909  1.59537   2.63891       2.23554         4637.10121  0.09836  0.30573     0.03784   6.91409     17.26665   4682.10517   -14.25051  1.24165   3964.72344   0.0001  56409.92049  51.75996   6.03599  19.44374  56471.83454 
    15.11611  1.96324   6.34998       3.58057         3565.37238  0.05672  0.10848     0.01223   2.06489     18.71631   7761.07688    -2.38258  0.62268   8487.34274  0.00289  56421.78842   52.2755   2.48903  19.69486  56443.68361 
    15.05865  1.53744  28.11129       1.64416         5393.21902  0.15629  0.01821     0.01525  21.71944     16.03579   5671.32304    -6.85331  0.84187  17312.64181    1e-05  56417.31769  53.14399  12.17793  19.65845  56453.92032 
     14.5676  2.14584   6.13458       1.62376          4589.7438  0.06282  0.10471     0.38273   2.41014     16.99974   7735.91056   -19.29224  0.13757   9802.91791    6e-05  56404.87876  52.42225   2.89721  19.67301  56448.80196 
    14.04948  1.98127  20.73515       2.34579         4104.84374  0.22501  0.02992     0.01697   14.6193     17.46419   9212.55784    -9.41443  0.64209  16649.03452  0.00016  56414.75657  53.07689  16.24414  19.70791  56441.12444 
    14.54189  1.97654   4.28602        0.4223         4892.64817  0.14368   0.0237     0.01511   6.00627      20.4901   7680.45695    -8.17723  1.27106   5648.52049  0.17172  56415.99377  52.05275   8.52392  18.81118  56515.34053 
    14.47294  1.59197   8.23048       4.34475         5936.98662  0.09196  0.05693     0.09463   5.49099     19.41093   9659.55308    -8.36514  0.84844   11044.8756  0.01431  56415.80586   52.6256   5.33621  19.76729  56441.12444 
    14.99149  1.65005   7.64514        3.0737         4627.46061  0.14194  0.12855      0.1054   2.93538     20.40828   8411.57829   -11.07746  0.20954   6642.21065  0.14224  56413.09354  52.11021   6.95121  19.35023  56482.07125 
    14.50776  1.75021    5.0175       3.49017         3169.23396   0.0922  0.33446     0.01043   6.65849     18.79763   9344.36215    -7.75247  0.97371  18432.76632  0.00349  56416.41853  53.09084   5.60757  19.65883  56469.27537 
    12.65204  1.96881   1.51391        0.7435         2919.66502  0.02059  0.10306     0.44704   5.67778     16.86313   8260.00986   -24.47585  1.16088   7826.49563    4e-05  56399.69515  52.33002   1.20462  19.85144  56448.80196 
    13.15237  1.94428  21.11643       4.93211         5828.87291  0.35727   0.0381     0.03617  19.75009     16.58852   6790.10894   -13.80497  1.45449   8627.19672    2e-05  56410.36603  52.53127  27.34655  19.71928  56446.24279 
    15.07876  1.82304     4.092       3.65001         3753.32382  0.23574   0.1983     0.01528  40.60863     20.50515   7270.79653   -15.03027  0.22219  26836.12582  0.17778  56409.14073  53.57242  20.50143  19.76279  56446.24279 
    12.17792  1.74714  28.96017       2.44451         5440.33833  0.38592  0.06407     0.03718  20.31673     18.99304   6544.45301   -15.50554  0.28046  10463.51524  0.00547  56408.66546   52.7012  29.69696  19.87463     56444.17 
    13.61617  1.71122   3.29686       0.08748         2249.00004  0.12087    0.312     0.21933  10.95971     16.62296   5046.18209   -22.27592  1.17596  11375.76004    2e-05  56401.89508  52.72026   8.22225  19.69779    56444.271 
    13.53708  1.90382   4.82168       0.65904         5206.03918  0.03685  0.19891     0.46661   2.29342     18.04938   8513.74117   -20.59704  1.45694  15360.90677  0.00062  56403.57396  52.80556   1.67301  19.62196  56461.59784 
    14.61567  1.86148   4.17982       0.51047         5137.72886  0.19736  0.15012     0.12405   7.47267     20.24294   4769.26629   -10.14694  1.55043  11803.43769   0.0972  56414.02406  52.71543  12.33257    19.383   56487.1896 
     14.7191  1.66255   5.06082       4.09482         2774.80004  0.07097  0.17554     0.01448   2.05179     20.33829   3433.29761    -5.87039  0.75153   9465.38191  0.12107  56418.30061  52.36932    3.1081  19.19488   56497.4263 
    14.59918  1.69122   8.59441       4.21854         2546.00458  0.04948  0.04345     0.02919   5.71447     18.73503   9706.29437    -8.29195  0.65179  12983.04892  0.00302  56415.87905  52.77033   2.90002  19.05534  56512.78135 
    14.01835  1.53039   5.60735       0.71964         5648.94404  0.11714  0.32488     0.01956   4.10342     19.19313   9292.16557   -15.32192  1.02525  16492.38949  0.00867  56408.84908  52.94112   6.30402  19.75553    56443.178 
    14.80587  1.54756    3.1484       4.98355         3991.92171  0.13753  0.28122     0.29807   2.17203     16.71458   6561.91098    -1.95541  1.02132   7369.76953    3e-05  56422.21559  52.16004   6.13619   19.7626  56441.12444 
    13.98256  1.75992    7.8849        2.1913         4506.63839  0.15181  0.02714     0.01995   9.73346     19.44082   5396.09911   -19.73382  1.50942   4621.51201  0.01533  56404.43718  51.92677  10.06626  19.65163  56456.47949 
    14.81203   1.7343  27.86434       2.16858         4709.52295   0.4895  0.06364     0.26119    7.9433     17.88381   3576.75659   -12.17165   0.4914  10764.48508  0.00043  56411.99935   52.6415  31.01934  19.72808     56443.25 
    13.64937  1.80663  24.50288       1.29333         5243.24677  0.49126  0.24179     0.03213  35.00764     17.02461   7112.27772   -18.12736  0.87886  28357.27194    6e-05  56406.04364  53.60946  41.66918  19.56521  56464.15702 
    14.18344  1.85648    2.9243       1.59225         2350.63681  0.28575  0.08936     0.01851  56.09845     20.68074   9534.39664   -13.76679  1.37018  10638.65472  0.26636  56410.40421  52.79149  26.18631  19.84489  56448.80196 
    14.89135  1.72981   7.23363       4.82261         4845.88264  0.05229  0.21758     0.07354   2.35401     16.91658   4515.59561     -2.2428  1.11124  15385.12739    5e-05   56421.9282  52.81052   2.39389  19.75808  56441.12444 
    14.81289  1.94104   6.36422       0.74328         4307.36104  0.07862  0.10366     0.08712    3.6124       18.711   8885.91116   -11.16996   0.7427   7896.72362  0.00286  56413.00104  52.28631   4.08634  19.66496  56466.71619 
    14.54781  1.98044   7.74524        4.5664         2315.74394  0.05283  0.29888     0.04585   2.32126     18.00344   7506.24511   -14.57142  0.72421  12299.00602  0.00056  56409.59958  52.61413   2.40783  19.94636    56443.178 
    14.61091  1.81027  21.45345        3.0161         5255.90494  0.27956  0.01526     0.01039    8.4332     19.57922   8196.73438    -6.32535  0.87737   9107.34076  0.02108  56417.84565  52.50219  17.95785  19.71775    56443.178 
    12.31875  1.83107  29.20302       2.99804         5387.64619  0.47042  0.13072     0.03302  21.46373     19.18929   8195.84961   -11.60223  0.34266  27926.86381  0.00859  56412.56877  53.55835  36.57303  19.70555  56448.80196 
     13.9766   1.8162   4.75423       1.93253         3588.84835  0.00197  0.02133     0.49326   21.2859     18.32782   4248.89223   -25.14884  0.52936   4653.59877  0.00118  56399.02216  52.00121    0.1531   19.7015  56441.12444 
    14.56572  1.80753   2.76613       0.47647         4101.72311  0.03131  0.31106     0.10263   7.80776     19.23517   4156.60246    -7.64605   1.2736  12929.56784  0.00955  56416.52495  52.79897   1.97609  19.35129  56533.25475 
    13.19902  1.72357  18.23805       1.08112         5973.60851  0.44373  0.16863     0.03632  34.96403     16.40466   8374.23074     -14.986  0.58908  32411.93593    1e-05    56409.185  53.72545  37.62944  19.70299  56461.59784 
    14.24926  1.79502   6.92046        4.6068         2192.14441  0.06886  0.23292     0.01225   1.85526     16.25576   9538.14482    -9.76018  1.18664  14985.33068    1e-05  56414.41082  52.75369   2.91522  19.76179  56441.12444 
    14.75294  1.87065   8.25805       1.50391         5691.07351  0.23758  0.08669      0.1497  13.50103     16.17637   8659.12302    -9.48588  1.39407   15273.2963    1e-05  56414.68512    52.995  16.87777  19.70198  56448.80196 
    14.14613  1.68348  14.83978       2.50709         5800.26431  0.47394   0.0989     0.02198  11.60315     17.54967   5864.32022    -9.94603    0.889  27459.27169   0.0002  56414.22497  53.49091  32.63096  19.73045  56456.47949 
    12.88816  1.31957  25.60406       4.68775         4690.52716  0.12339  0.02347     0.02794  26.66041     18.74272   7758.65152    -8.66181  0.00594  19937.07634  0.00307  56415.50919   53.2828   9.97998  19.36165  56479.51207 
    14.82869  1.83381    6.2905       2.28617         3352.35927  0.03154  0.14886     0.08707   1.60034     17.50864   8832.90637    -4.95605  0.86761   8200.53177  0.00018  56419.21495  52.20754   1.26786  19.86454  56441.12444 
    14.70009  1.36219   3.09287       4.64123         2746.59383  0.14463  0.27401     0.03679    1.4201       18.517   9808.15478    -2.52403  0.92709   8846.23446  0.00183  56421.64697  52.25429   5.56429  19.67104  56453.92032 
    14.54148  2.01389  24.27931       1.29524          5217.0675  0.46014  0.03951     0.13632   7.82488     20.27599   5939.33836    -9.58633  0.91561  13394.87012  0.10489  56414.58467   52.8299  29.05883  19.71076  56441.12444 
    14.85161  1.64079  24.37796       4.45176          5294.7138  0.44503   0.0946     0.01457  13.29496     19.22506   3396.51624   -13.94416  1.41604  15521.08013  0.00933  56410.22684  53.00762  31.51666    19.803    56445.174 
    13.97429  1.62846   6.40275       2.63754         4439.42091  0.00867  0.19658     0.01522   3.71508     16.26775   7529.48643   -20.29387  1.49906   8852.70933    1e-05  56403.87713  52.38894   0.45404  19.67301  56446.24279 
    14.85302  1.88831  10.63092       4.39192         3597.00312  0.08756   0.0514     0.22305   2.59784     16.94198   8841.54426    -7.15857  0.46055   7475.68638    5e-05  56417.01243  52.19693    4.1334  19.41336  56469.27537 
    15.05969  1.72454  10.23073       4.13872         3193.60516  0.44473  0.03343     0.26256  18.53321     17.83482   5676.92379   -18.48974  1.38136    4994.8619  0.00038  56405.68126  52.05133   33.6319  19.75883     56443.25 
    13.27903  1.75629   23.9103       1.14616         5581.79909  0.21183   0.0404     0.05495  38.39555     17.78156   6524.12563   -12.64744  0.86916  15950.15139  0.00034  56411.52356  53.11645  18.25035  19.41245  56484.63042 
    12.38948  1.60955  25.58492       0.19317         5864.69784  0.19926  0.04343     0.03106   35.6318      19.9127   9561.74567    -22.8172  0.01125  12478.90365  0.04544   56401.3538  52.89779  16.95239  19.79221    56444.271 
    14.38192  1.64527   8.93225       2.02578         4485.56096  0.10302  0.04791     0.49434   8.77979     17.44655   5678.28236   -14.36099  1.23976   8283.00427  0.00016  56409.81001   52.4237   6.67785  19.68047  56448.80196 
    15.08436  2.03057  10.11277       4.18292         4364.56563  0.04741  0.06442     0.02285   2.65983     20.33635   6140.39647    -3.82498  0.57411   7928.10778  0.12052  56420.34602  52.25109   2.25429  19.73715  56456.47949 
    14.45176  1.74365  11.66576       4.53808         5275.16018  0.37226  0.05374     0.20758   7.81824     18.70091   9921.27751   -10.30558  0.29955  13883.20687  0.00279  56413.86542  52.86091  23.50461  19.64739  56438.56526 
     14.2306  1.85495  12.29515       2.83556         5583.34287  0.17758  0.02857     0.10699  15.00081     19.43046   9099.94112    -9.93808  1.08323  16371.15713  0.01497  56414.23292  53.06451  12.88575  19.60556  56451.36114 
    13.36537  1.73477  28.49847       0.20994         4673.94962  0.45278  0.08723     0.10172  11.41571       20.143   8887.67735   -12.95518  1.43887   21919.6588  0.07722  56411.21582  53.29371  31.06742  19.81086  56446.24279 
    14.48885  1.54375   8.61374       2.52356         4985.87425  0.03943    0.295     0.09836   1.25782     16.29161   5859.79665    -6.81736  1.49692  13030.58723    1e-05  56417.35364  52.57043   1.44767  19.70116    56443.178 
    13.70886  1.49249  25.03986       3.83602         5144.22128  0.49477  0.08578     0.11546   9.34347     16.03367    6627.0729   -13.44099  0.76171  12576.02109    1e-05  56410.73001   52.7924   32.5154  19.75142  56438.56526 
    14.43055  1.67286  28.68457       0.98091          4810.9111  0.18302  0.01449      0.0116  18.57612     18.36282   5569.80027    -9.61644  0.06338  12537.76635  0.00128  56414.55456  52.85091  13.84661  19.80063  56438.56526 
     14.1627  1.55013   6.60802       3.57809          5070.9673  0.14148  0.30286     0.21295   4.19081     19.51187   9618.10646    -20.9812  0.85144   14012.4738  0.01805   56403.1898  52.80203   7.65722  19.65548  56471.83454 
    13.71885   1.8305  25.61556       4.21224         4544.19058  0.46836  0.05778     0.06269   6.81037      20.2302   5712.53691    -8.67282  0.44867  13958.95384  0.09439  56415.49818  52.85169  28.63763   19.6786  56441.12444 
    13.75959  1.43974  17.41307        4.9451         4777.87651  0.27074  0.03166     0.02017  10.39581     19.89481   4713.93384      -7.653  0.64959   12338.1743  0.04361    56416.518  52.78589   18.2104  19.76416  56441.12444 
    14.21487  1.80274   7.38323       3.13641         3950.93631  0.12775  0.33263      0.0223   2.03477     18.51577    7704.4658   -16.09244   0.9419  11241.81484  0.00182  56408.07856  52.51752    5.5793  19.73586  56441.12444 
    14.97876   1.6237   6.77784       2.27355         4861.95228  0.14765  0.21044     0.01245   4.88635     18.47327   6906.52815   -13.01028   0.2253  11879.59924  0.00165  56411.16072  52.67607     8.319  19.38944  56484.63042 
    14.00897  1.39668   3.72606       0.73137         3173.70397  0.03797  0.15273     0.03534  11.27704     20.05603   5092.82191   -14.84819  1.22583   9927.88686  0.06321  56409.32281  52.60464   2.59875  19.74966    56444.271 
    14.90972  1.84019   5.88718       1.76464         4444.48852  0.03638  0.07525     0.02645   2.64464     18.60951    7884.4371    -3.17455  0.97254   7581.51093  0.00226  56420.99645  52.21151     1.727  19.80683    56445.282 
    14.66626  1.67501    7.1234       3.71124         3197.21207  0.12365  0.26996     0.01361   2.97991       18.525   9120.27789     -9.4068  0.42867  17279.94769  0.00186   56414.7642   52.9426   6.08233   19.6189  56461.59784 
    12.61914  1.94345  21.09212       4.90876          4417.9069  0.48065  0.10736      0.1751   8.71697     16.37339   8528.08656    -9.88678  0.84767  18017.88925    1e-05  56414.28422  53.09803  31.10509  19.71836  56451.36114 
    14.79371  1.75864   9.84073       4.66979         4475.79231  0.45669  0.28308     0.16784   8.06943     19.18527    9332.8146    -7.25777  1.10574  38644.95768  0.00851  56416.91323  53.75326  29.04428  19.40433  56476.95289 
    14.71763   1.9566  10.25819        2.0956         4591.65482  0.02018  0.16806     0.43773   1.19874     18.38605   9890.47633    -5.04357  1.47356  10891.55653  0.00135  56419.12743  52.40637   0.72699  19.79106  56441.12444 
    14.88516   2.1507   9.10589       1.12091         5380.40399  0.15225  0.08381     0.01412   3.61717     17.09174   9276.15312     -9.2851  0.56373   8125.53402    7e-05   56414.8859  52.31128   7.91594  19.66361  56456.47949 
    13.93752  1.58556   7.68001       4.37267         4537.92876  0.16053  0.07032     0.41961   3.78063     20.30171   9645.78468   -11.81358  1.27224   9946.74178  0.11129  56412.35742  52.49225   8.44904  19.79896     56444.17 
