 texplosion  fnickel     Pspin  log(Bfield)      Mns  thetaPB   mejecta    kappa  kappagamma      vejecta  temperature    alpha  cutoff_wavelength  log(nhhost)      A_V         MJD0   kenergy  mnickel                 TSD   log(L0)  Peak_mag     Peak_MJD  log(E_rad)  log(Peak_lum)  Rise_Time     E_fold  tau_1  delta_m15     r_peak     frac 
   -10.4915  0.48863   9.93139     14.86199  1.33967  0.39596   6.77717  0.01743     0.36819   6014.59783   7251.41738  1.62086         3942.95634     18.12179  0.00074   56413.6795   1.46248   3.3115        231663.96796  45.03696   19.7526  56440.26445     50.7929         44.041   17.34996   32.96493   99.5    0.33606  -20.47782  0.28132 
   -8.02123  0.44629   7.26742     13.92904  1.89097  0.55539   3.09811  0.01745     0.45322   5390.70484   8289.22481  4.64742         4131.12333      16.9736    5e-05  56416.14977   0.53705  1.38266      12858007.53529   43.7136  19.73079  56438.05892    50.56854       43.71653   15.61497   55.51989  149.0    0.34189  -20.52028  0.68114 
   -6.17482  0.40978  18.34582     14.54068  1.25633   1.3712   6.05666    0.011     0.05883   6064.17271   6304.58429  2.97463         4232.73522     19.77777   0.0333  56417.99618   1.32863  2.48187       3255598.03766  43.32824   19.7663  56449.08656    50.93829        43.7229   27.75994  144.00471   72.5    0.53924  -20.55347  0.12071 
  -12.14531  0.48675  14.33692     12.73351  1.22624  0.69103   7.43008  0.02401     0.21181   4660.66072   7061.65916  3.39219         4472.64176     17.68191  0.00027  56412.02569   0.96275   3.6166    7985103768.25093  40.14223  19.76873    56444.271    50.67768       43.76404   20.81996   72.86985  102.0    0.24852  -20.53429  0.00113 
  -16.32951  0.48741  19.86434     12.66759  2.05308  0.59854   8.86562   0.0139     0.01916   2504.72824   3232.66315  4.17175         5455.78014     20.33469  0.12006  56407.84149   0.33179  4.32117   34768994451.03183  39.44391  19.78577  56442.46997    50.57393       43.70214   19.08496   60.72488   95.0    0.19694  -20.99357  0.00015 
  -10.85861  0.49996    7.8048     14.48919  1.17447   0.3964   2.69891   0.0593     0.49919   5627.25188   3556.67091   3.5976         5899.33536     19.86857  0.04105  56413.31239   0.50981  1.34936         698230.9132  44.70997  19.62683  56446.88103    50.84098       43.89008   22.55495   81.54484   40.0    0.45016  -21.23132  0.55584 
  -13.36806  0.49907   2.14972     12.36475  1.70263  0.21366   8.31511  0.02792     0.38162   3886.81864   7952.41592  3.81136         5118.30441     19.92029  0.04624  56410.80294   0.74935  4.14979    1362088759.31126    42.701  19.55084  56435.85339    50.41918       43.83612   12.14498   24.28995  101.5    0.17361   -20.8073  0.03825 
  -10.49191  0.49849   9.74449     12.71108  1.33967  0.16445    7.0002  0.02569     0.01397   4829.15239   9136.95397  4.81478         4135.48582     19.45573  0.01587  56413.67909   0.97382  3.48955    4468659914.36466  40.76815  19.88308  56440.26445    50.66658       43.76355   20.81996   67.66486   80.5    0.28737  -20.55522  0.00033 
   -6.34414  0.32061   3.67575     12.51985  1.45709  0.09929   6.80725  0.01042     0.09047   5081.95324   6748.93887  4.71006          5060.0451     18.43522  0.00151  56417.82686   1.04872  2.18244    1668411522.02824  42.07934  19.69894  56440.26445    50.62561       43.75482   17.34996   60.72488   47.0    0.62577  -20.80848  0.00395 
   -8.20907  0.47503    8.0277     12.94207  1.54308  1.08684   5.15621   0.0254     0.46779   5931.12069   3555.55367  4.80792         4402.11541     19.45386   0.0158  56415.96193   1.08201  2.44933    1205712247.25495  41.56681  19.68952  56435.85339    50.38962       43.76706   12.14498   24.28995   67.5    0.46289  -20.53262  0.07386 
   -7.72108  0.44113   8.73448     12.71252  1.49028   1.1946   5.17568  0.01279     0.18482    4413.9473   8804.43896  4.24511         4637.27874     19.11677  0.00727  56416.44992   0.60152  2.28314    3967524631.38869  40.96112  19.77046  56440.26445     50.6032       43.92471   17.34996   39.90492   66.5    0.53715  -20.55538   0.0241 
  -15.58485  0.45394  10.40393     14.07645  1.54022  1.29388   5.92812   0.0437     0.06286   4242.94819   7326.11081  3.26368         4633.54476     17.63953  0.00024  56408.58615   0.63662    2.691      10886736.78426  43.38513  19.71107  56438.05892    50.64968       43.82996   13.87997    48.5799  100.0    0.15536  -20.56901   0.3342 
    -8.3552  0.49966  10.07024     12.81634   1.7872  0.27213    5.6083  0.02086      0.4672   7728.92502   3194.85108  2.39058         4502.07411     17.36593  0.00013   56415.8158   1.99847  2.80226    3920902804.74727  40.92155  19.67863  56438.05892    50.55017       43.71565   15.61497   53.78489   71.5    0.49371  -20.50166  0.00157 
   -9.18795  0.47154  21.95074     13.39026  1.66396  0.60086   6.71115  0.01267      0.1868   6161.66946   3003.50676  2.54569         3917.77491     17.91364  0.00046  56414.98305   1.51992   3.1646    1234064213.78749  40.71575  19.69044  56449.08656    51.27699       43.99195   22.55495  180.43964   94.5    0.41714  -20.35978  0.00372 
  -12.76038  0.48891  14.61809     13.24835  1.27996  1.27681    6.1044  0.01072     0.48952   1768.51201   7215.03056  4.08564         4928.89871     16.83899    4e-05  56411.41062   0.11389  2.98448     809267593.45879  41.13817  19.66464  56440.26445    50.73574       43.73291   17.34996   79.80984  104.5    0.23465  -20.46446  0.02592 
   -9.48723  0.42008  18.38599     14.92993  1.80466  0.67373   5.30612   0.0275     0.32415   6498.26431   9711.73154  4.93172         3974.03635     20.33499  0.12015  56414.68377   1.33659  2.22898        782205.93938  44.10295  19.56982  56475.55289    51.09854       44.03221   45.10991    97.1598   53.0    0.48584  -20.60184  0.20872 
   -8.78277  0.39294  13.35155     12.13848  1.83337  0.80519   5.98482   0.0249     0.11918   6008.29685   8583.22374  4.65845         4686.82165     17.40259  0.00014  56415.38823   1.28879  2.35167   160384982316.0077  39.07587  19.65689     56444.17     50.9589       44.14101   19.08496    48.5799   69.0     0.4526  -20.55098  0.00019 
  -11.52905  0.46265    9.9018     14.24495  1.40906  0.52354   7.18967    0.024     0.47843   5107.28287   9972.14121  3.30454         3857.17033     18.82658  0.00373  56412.64195   1.11871  3.32631       4152218.08874  43.80807  19.79142  56438.05892    50.65025       43.82201   15.61497    48.5799  103.5    0.20631  -20.55009  0.27606 
   -8.40654  0.38005   7.98787     13.79663  1.75357  0.34045    6.3177  0.01266     0.40808   4216.31371   6036.24157  4.08509         4791.27646     18.37522  0.00132  56415.76446   0.66996  2.40106      26505774.62009  43.28457  19.68809  56440.26445    50.81837       43.78502   17.34996    98.8948   87.0    0.42627  -20.63287  0.30158 
   -8.38566   0.4978  12.85652     14.45386  1.98132  1.16131    2.5359  0.06144     0.41164    7442.0937   6762.66777  3.22534         4393.35407     17.59554  0.00022  56415.78534   0.83782  1.26238       3760869.17479  43.77226  19.62387  56435.85339    50.56873       43.73262   13.87997   45.10991   53.0     0.4413  -20.62859  0.51747 
   -10.7712      0.5   2.97349     13.24106  1.65606  0.52082   3.55925  0.02447         0.5   6667.74602   4958.14455  2.00095          4006.6588     17.66512  0.00026   56413.3998   0.94394  1.77962      44803156.56831  43.89008  19.72028  56449.08656    50.65116       43.67744   29.49494   95.42481  290.5    0.11053  -20.55519   0.8232 
  -19.25694   0.2877  13.50524     12.74995  1.50837  0.16913  23.08215  0.02506     0.09556   3937.74577   8631.05326  2.65601         4882.65464     16.94097    5e-05  56404.91406     2.135  6.64067    8080131677.33658  40.27893  19.58262  56451.29208    50.84982       43.84877   29.49494   93.68981  113.0    0.07598  -20.78367    6e-05 
   -8.09433  0.46839   9.20178     12.60125   1.3662  1.24301   6.24706   0.0119     0.49963   5086.02486   7583.46538  3.71318          4262.9744     19.74022  0.03055  56416.07667   0.96396  2.92607    6738552070.56666  40.64805  19.74315   56468.9363    50.84077       43.73301    50.3149  114.50977   82.5    0.49881   -20.5766  0.00972 
   -8.38902  0.48168  18.41705     14.64459  1.52073  0.22045   5.46623  0.01516     0.05959   5092.99243   8702.57155  2.66997         4908.38549     19.81831  0.03656  56415.78198   0.84579    2.633       2461053.74551  43.52934  19.68612  56440.26445    50.42619        43.7113   13.87997   29.49494   91.0    0.41896   -20.5207  0.11193 
   -9.53037    0.476  17.46283     14.66247  1.43458  0.71388   4.59145  0.01861     0.39476   3945.34546   7659.53801  3.74257         4379.71526     18.17608  0.00083  56414.64063   0.42633  2.18554       1922318.94292  43.65752  19.68124  56440.26445    50.56009       43.75054   17.34996   60.72488   77.0    0.39074  -20.43288  0.17218 
   -9.31285  0.48378  12.84393      13.6227  1.95609   1.1567   5.87264  0.02145     0.34344   5186.02535   5873.73329  3.54274         5322.09747     18.94942  0.00494  56414.85815   0.94217  2.84104     170290670.23911  42.11165  19.68846  56440.26445    50.60296       43.79294   17.34996   45.10991   71.5     0.4068  -20.84271  0.15086 
   -6.99525   0.4657  18.89978     13.98066  1.87612  0.74075   5.67565  0.01645     0.47488   5325.55371   8437.55802  4.18216         4515.22169     19.93708  0.04806  56417.17575   0.96022  2.64313      68024570.92466  42.15653  19.77781  56440.26445    50.65139       43.70941   15.61497   72.86985   75.5    0.49118  -20.64277  0.09153 
   -7.60992  0.48541  10.23845     13.57539  1.23352  0.01876   5.47441   0.0271     0.24787   7007.15017   7089.68195   4.8049         4279.31315     17.59546  0.00022  56416.56108   1.60342  2.65731      84849833.74676  42.41087  19.85094  56440.26445    50.55897       43.69307   17.34996   64.19487   71.0     0.4835  -20.59731  0.00025 
   -6.17698  0.49646  13.53604     14.78601  1.96111  1.05425   3.55757  0.03083     0.20806   7718.21164   8977.76741  3.95288         3391.80019     17.52752  0.00019  56417.99402   1.26419   1.7662        893900.38089  44.34708  19.75555  56438.05892    50.55596       43.81794   13.87997   34.69993   41.0    0.62024   -20.5566  0.41192 
  -10.12932  0.35427  15.99965     13.54787   1.7383  0.58026   9.16734  0.01366     0.03217    4864.7686   9933.93771  4.34877         5580.60204     19.94114  0.04851  56414.04168   1.29418  3.24772     331458975.21278  41.58032  19.81811  56440.26445    50.68225       43.77593   17.34996   64.19487   65.0    0.43436  -21.16266   0.0227 
   -9.91333  0.46335   8.38053     12.96432  1.87224  0.36784   7.21157  0.01246     0.15701   3078.35884   8629.98643  4.81953         4016.43744     18.88444  0.00426  56414.25767   0.40766  3.34147    1439066505.50183  41.53658  19.83542  56442.46997    50.69614        43.8121   19.08496   64.19487  103.0    0.30922  -20.43087  0.00957 
   -8.16767  0.46918   1.65147     12.69179  1.73139  0.28171   4.81374  0.02326     0.12743   6799.86133   6595.42374  3.10349         4811.67544     16.78937    3e-05  56416.00333   1.32773   2.2585     181284215.32839  43.81314  19.75275    56444.171    50.68072        43.7561   21.37693   74.04787  132.5    0.40698  -20.64274  0.60796 
   -7.62654  0.46663    6.9086     13.22639  1.85196  1.08723     3.634  0.01008     0.20632   2836.64915   4795.54123  4.29687         4758.11222      17.8897  0.00043  56416.54446   0.17443  1.69572     289360965.41986  42.39626  19.59265  56455.70314    50.87181       43.77164   36.43493  111.03978   89.5    0.48526  -20.36449  0.38921 
   -5.74191   0.4966  13.97324     14.41225  1.36841   1.1179   3.24702   0.0122     0.20579   4965.52413   4642.96966  3.29633         4310.22201     16.86075    4e-05  56418.42909   0.47758  1.61248       3716346.03325  43.54435  19.75113  56451.29208    50.95775       43.78066   27.75994  161.35467   59.5    0.58338    -20.486  0.29086 
   -8.84536   0.4754   8.94241     12.46433  1.48198  0.91287   5.58583  0.02326     0.03479   7344.65589   5622.53227  2.73645         5025.52942     18.94316  0.00487  56415.32564   1.79746  2.65553    12968724758.7411  40.42388  19.81749  56440.26445    50.52648       43.77284   19.08496   55.51989   59.5    0.51658  -20.64438  0.00454 
   -7.48805  0.48157  13.23085     13.20425  1.53332  1.49772   6.35215  0.01076     0.27286   3751.73894   3509.15515  3.32692         5523.28591     19.13634   0.0076  56416.68295   0.53335  3.05903      973000438.8012  41.22319  19.62248  56440.26445    50.72361       43.82316   19.08496   65.92987   71.5    0.46018   -20.9393  0.03395 
   -8.96916  0.47084  13.18516     12.94841  1.05762  0.31952   5.49363  0.01857     0.17184   4263.20653   7257.93928  4.06404         5093.94586     18.70363  0.00281  56415.20184   0.59561  2.58664    2165148517.07195  40.71752   19.7222    56445.282      51.045       43.95034   22.55495    97.1598   69.5    0.42546  -20.69618  0.00145 
  -15.37811  0.47036  10.91506     14.20857  1.62649  0.99304   5.10406  0.03133     0.33437   2848.23534   9491.98151  3.72448         5148.10626     17.62444  0.00023  56408.79289     0.247  2.40077       6886248.86293  43.56606  19.76778    56443.178    50.70983       43.77032   22.55495   78.07484   91.5    0.17308  -20.70968  0.35951 
  -10.49065  0.47281   3.21885     12.82127  1.66025  0.15681   7.28656  0.02367     0.49597   6186.43482   5330.52405  3.50813         4103.78922     16.63161    2e-05  56413.68035   1.66353  3.44516     363791857.97522  42.91277  19.80139  56451.29208    50.69065       43.69466   29.49494   95.42481   90.5    0.33117  -20.54133  0.04043 
   -8.22931  0.33612   7.65213      13.4014   1.2385  1.46511   5.81381  0.01623     0.06939   5229.24568    5917.2065  4.06754         4872.12956     18.33158  0.00119  56415.94169   0.94835  1.95414     106042044.54985   42.5687  19.80024  56440.26445    50.56569       43.67834   19.08496   64.19487   83.0    0.42391  -20.57562  0.36719 
   -6.70279  0.47544  10.53577     12.51627  1.78711  0.99976   5.40223  0.01372     0.26994   5790.56206     3202.777  2.95034         4819.70261     18.63903  0.00242  56417.46821   1.08054  2.56842   17090852128.53905   40.2429  19.81985  56438.05892    50.42456        43.6414   15.61497   38.16992   68.5    0.53763  -20.59227  0.00351 
  -11.43802  0.45754  10.42605     13.32179  1.35312  1.50956  11.03485    0.015     0.09911   4563.33805    5821.5646  3.44466         3621.08141     18.11024  0.00072  56412.73298   1.37075  5.04889     310324557.18398  41.87213  19.75712  56442.46997    50.62415       43.71537   20.81996   71.13486  136.0    0.19986  -20.53257  0.06918 
   -8.73828  0.46694  10.73989     12.78263  1.33712  1.19738   5.28791  0.02111     0.43802   5701.88884   5258.63036  3.55502         4562.72042     18.36069  0.00127  56415.43272   1.02553  2.46912    3896876962.18413   40.7423  19.80306  56446.88103    50.74201       43.79436   22.55495   79.80984   71.0    0.46185  -20.47285  0.01361 
  -11.05333   0.4776   6.68929     13.63057  1.81849  0.75607   6.66383  0.02093     0.41434   5506.81339   9023.24124  2.78687         4033.23869     18.17383  0.00083  56413.11767   1.20546  3.18263      41414811.67621  43.26064  19.72992  56451.29208     50.8544       43.83992   27.75994   95.42481  158.0    0.21089  -20.51258    0.454 
  -10.69669  0.37103  15.82729     13.09849  1.50754  0.19915   9.61384  0.01891     0.43357   4277.51564   5892.25298  4.18146         5150.49618      17.4225  0.00015  56413.47431   1.04932  3.56703    2227977928.83588  40.70039  19.83704  56438.05892     50.5187        43.7006   19.08496   57.25488   80.0    0.26653  -20.86312   0.0004 
   -7.79115  0.34652   9.30389     14.20218   1.6569  0.73547   4.40024  0.01421     0.25529   6423.24766   4284.78149  2.61975         4162.78707     17.01116    6e-05  56416.37985   1.08296  1.52479       5249043.86276  43.83073  19.79949  56440.26445    50.52924       43.74044   17.34996   57.25488   87.0    0.32524  -20.52828   0.5522 
   -7.26125  0.49443   2.76822     12.19265  1.65932  0.14752   4.81883  0.02042     0.37154   6670.20431   5512.46323  4.11293         4317.12456     16.44733    2e-05  56416.90975   1.27893  2.38257    4862230543.07098  41.91754  19.78158  56438.05892    50.57262       43.72476   15.61497   52.04989   62.0    0.57532   -20.5274  0.00547 
   -8.63798  0.49637   13.2023     12.36869  1.44293   0.5634   5.66393  0.01324     0.40736   4425.56412   5268.23765  3.46661         5478.52221     18.77429   0.0033  56415.53302   0.66173  2.81139   42754529872.33902  39.55581  19.82645  56440.26445    50.68878       43.77868   20.81996   71.13486   62.5    0.50925  -20.92572  0.00027 
  -16.00153  0.46475  12.28008     14.97518   1.7184  1.04681  15.20155  0.02442     0.29066   3442.49301   8567.74144  2.53635         4115.56352     19.68009   0.0266  56408.16947   1.07464  7.06488        269762.16841  44.89459  19.69379  56440.26445    50.66827       43.75864   17.34996   69.39986  125.0    0.07706   -20.6553   0.1504 
  -10.64894  0.49997   9.78985      14.3375  2.15092  0.68327   0.99644  0.02271     0.49941   1622.84489   3557.07085  3.66981         4367.64932     16.76426    3e-05  56413.52206   0.01565  0.49819       4045713.06224  44.01292  19.80619    56443.178    50.78697       43.87967   19.08496   65.92987  103.0     0.2305  -20.28234  0.83459 
   -9.81023  0.49299  12.52258     13.11746  1.43799  0.65031   5.71339  0.02061     0.28862   4108.36695   9523.96003   4.2602         4882.91531     18.25757  0.00101  56414.36077   0.57525  2.81664     1219076466.9394  41.14518  19.75407  56442.46997    50.61621       43.70483   20.81996   71.13486   79.5    0.35593  -20.65941  0.01265 
   -11.3226  0.46785  25.05795     12.29172  1.78805  0.92488    7.8965   0.0183     0.25001   3756.43323   6958.41902  2.81513         5044.76601      19.4954  0.01738   56412.8484   0.66468  3.69437   272045943226.3736  38.28869   19.7702  56442.46997    50.54082       43.77947   20.81996   46.84491  105.0    0.23539  -20.58737    2e-05 
   -6.94092  0.49393  13.62597     13.11201   1.6334  0.78153   4.77118  0.01244     0.33778   6358.02277   3761.93116  2.88942         4807.48966     19.63424  0.02393  56417.23008   1.15053  2.35663    1681189191.13832  40.98759  19.72666  56438.05892    50.68484       43.89148   15.61497   53.78489   62.5    0.61824  -20.58551  0.01426 
  -11.67153   0.4972  18.29897     12.19648  1.76097  1.52498   7.86706  0.02245     0.35514   5312.09624   5244.85144  2.52467         5554.25432     18.88805  0.00429  56412.49947   1.32425   3.9115  221544997730.35553  38.64428  19.87275  56438.05892    50.58991       43.76656   17.34996   52.04989   83.5    0.29113  -20.85861    8e-05 
  -13.32596  0.46339  15.13559     13.23499  1.54832  0.07141   7.99063  0.02226     0.19058   2715.58703   8685.71412  4.93215         4709.32244     18.17409  0.00083  56410.84504   0.35151  3.70278    1116065117.76579  41.05102  19.69969  56435.85339     50.4186       43.68643   12.14498   43.37491  104.5    0.15404  -20.58106  0.00011 
  -20.85157   0.3871  16.76633     12.66552  1.60599  0.31379    20.462  0.01301     0.34163   1370.96328   7183.53779  4.01546         5119.43728     19.59799  0.02201  56403.31943   0.22942  7.92075   19561004797.39128  39.73432  19.75788  56438.05892    50.39762       43.64757   17.34996   39.90492  122.5    0.05295   -20.9758    5e-05 
   -9.30678  0.49187  18.33718     13.96898  1.80489  1.18314   6.72952  0.01647     0.16203   3847.99273   7468.01793  4.52801         3941.42274     17.95049   0.0005  56414.86422    0.5944  3.31002      65008893.89562  42.18566  19.93444  56442.46997    50.56168       43.75159   19.08496   46.84491  113.5    0.28829  -20.43871  0.10059 
  -14.91833  0.31475   1.34776     12.09175  2.13599  0.28361  21.58675  0.04187      0.3688  11413.88294   4369.34905  2.77727         3437.22002      18.9408  0.00485  56409.25267  16.77572  6.79452    2361186576.51925  42.96609  19.81345  56442.46997    50.56751       43.64738   20.81996   72.86985   83.0    0.15952  -20.95691  0.07229 
  -19.72775  0.43987   10.8065     13.45451  1.34178  0.87858  13.34893  0.01906     0.43356   3712.10523   7695.54954  2.37143         3998.07986      19.2383  0.00962  56404.44325   1.09727  5.87182     179409491.15712  42.07531  19.68706  56438.05892    50.59623       43.78795   15.61497   43.37491  137.5    0.09034   -20.4556  0.05667 
  -11.78873   0.4975  18.25277     12.91973  1.59031  0.30107   7.74341   0.0162     0.48047   4853.16854   9621.52912  1.77438         5385.18479      17.4985  0.00018  56412.38227   1.08795  3.85238    7120162390.77484  40.09518   19.7072  56438.05892    50.55489         43.742   15.61497   46.84491  104.0    0.26304  -20.54433  0.00021 
   -7.12533  0.47097  15.92268     14.21065  1.49735  0.77873   5.24675  0.01628     0.47817   6489.72577    9838.8663  3.44602         4802.47591     20.38702  0.13544  56417.04567   1.31817  2.47108      13362208.15285  42.91426  19.67651  56442.46997    50.56868       43.69355   19.64194   67.10789   69.0     0.5317  -20.77175  0.16848 
   -7.83886  0.42584  10.75559     12.83715  1.69286  0.16195   6.78877  0.01267     0.30273   5222.75699   9453.08145  4.84169         3852.65119      17.1729    8e-05  56416.33214   1.10463  2.89096    3849553150.34457  40.84879  19.60314  56449.08656    50.83815       43.84852   27.75994   91.95481   77.0    0.47162  -20.49013  0.00047 
    -9.5398  0.49974  10.89705     14.41668  1.95539  1.17214   3.24298  0.04387     0.01822    7323.8086   7006.37112  4.57533          3021.9463     16.80471    4e-05   56414.6312   1.03764  1.62066       3164551.52303  43.98515  19.67728    56444.271    50.62842       43.71114   22.55495   79.80984   48.0    0.37641  -20.51121  0.53431 
  -10.40781  0.47821  13.32488     12.79965  1.95479  0.92803   6.41197  0.02496     0.33835   4561.26757   4805.90782  3.75685           4408.558     18.42158  0.00147  56413.76319   0.79577  3.06624    8108552184.99088  40.40168   19.7255  56442.46997    50.66279       43.72327   20.81996   85.01483   90.5    0.28104  -20.43352  0.00382 
   -6.03382  0.46494   7.54194     13.74187   1.5639  0.68079   4.76511  0.01128     0.10799   5530.95423   8329.42143  3.08713         5434.75142     19.17776  0.00837  56418.13718   0.86956  2.21551      27117570.67966  43.27484  19.75032  56442.46997    50.68201       43.77706   19.08496   62.45987   96.5    0.47943    -20.952  0.45911 
  -14.27647   0.3774  25.13528     13.31485  1.97108  0.71256  14.06549  0.01069     0.46089   1867.85583   9751.16346  3.37054         5019.92025     16.58599    2e-05  56409.89453   0.29273  5.30833     2712558977.6863   40.3296  19.75904  56440.26445    50.53492       43.66689   19.08496   58.98988  123.5    0.09826  -20.68832  0.00124 
    -8.1826  0.46321  15.53409     14.45542  1.44994  1.01162   5.13564  0.01299     0.11766   4808.31834   9926.12216  2.70367          4997.0078     16.49366    2e-05   56415.9884   0.70829   2.3789       3989342.45969  43.44672  19.72179  56451.29208    51.03865       43.91678   23.16857  119.10114   67.0    0.45377  -20.69232   0.1958 
   -9.63472  0.40456  13.48383     13.40354   1.9321   0.5361   7.63388  0.02319     0.46237   5123.89406   8323.71308  3.34489         4744.55124     18.99338  0.00547  56414.53628   1.19556  3.08837     508614967.70782  41.58886  19.83735  56438.05892    50.58114       43.76944   17.34996   64.19487   92.0    0.29707  -20.54399  0.02218 
  -11.48063  0.49219   4.48715     13.85748  1.47683  0.13407   6.04474  0.02295     0.04838   4403.96985   6403.77062  3.37267         5450.91674     18.12031  0.00073  56412.69037   0.69935  2.97515       5322561.42271  44.40811  19.65382  56440.26445    50.48263       43.72529   15.61497   41.63992  112.0    0.26588  -20.88054   0.4372 
   -7.31575    0.436  12.73416     13.18211  1.70662  0.82617   5.96389  0.01165     0.27454   4303.77227   7432.74613  4.47157         5390.26986     18.28793  0.00108  56416.85525   0.65895  2.60028    1110895601.96968  41.24537  19.70209  56451.29208     51.0945       44.25427   24.28995    48.5799   51.5    0.56246   -21.0324  0.02468 
  -12.07928  0.47479  18.02118     13.86739  1.36228  0.08613   6.94438  0.03026      0.0863   5107.05655   6058.09065  3.65987         4432.13355     16.54591    2e-05  56412.09172   1.08044  3.29713      75659267.95402  42.01268  19.75184    56445.173    50.62568       43.66848   24.28995   85.01483   95.5    0.25548  -20.47547  0.00167 
   -8.72072  0.49499  19.14164     12.91591  1.31078   0.2333   6.57354  0.01886     0.48352   5029.60145   6485.47434  4.05432         4218.23848     18.06848  0.00065  56415.45028   0.99196  3.25385    6568716932.51813  40.00494  19.75663     56444.17    50.64759       43.74919   22.55495   76.33985   91.0     0.3753  -20.57198  0.00012 
   -8.40337  0.45492   5.04079     12.76384  1.58275  0.45514   5.04942   0.0333     0.09338   7542.57121   6815.12921  4.28971         4688.34587     19.07695  0.00663  56415.76763   1.71359  2.29709    1107992424.86343  42.01872  19.66349  56442.46997    50.73176       44.00005   15.61497   38.16992   65.0    0.50434  -20.57002  0.05928 
  -11.95755  0.46107   5.96077     12.96287  1.74459  0.22941   8.07645  0.02143     0.47609   4691.42558   8493.23899  2.63382         4584.51862     17.66252  0.00026  56412.21345   1.06037  3.72384     682935652.09128  42.12555  19.72766  56438.05892    50.68282       44.06971   12.58955   23.84538  107.0    0.23895  -20.47592   0.0133 
    -8.5079  0.47073   9.05407     14.33212   2.0329  0.58676   2.25904   0.0164     0.23431   3720.49124   6799.62784  3.06453         3969.88722     17.00425    6e-05   56415.6631   0.18653  1.06341       3352559.59425   44.1379  19.77679  56440.26445    50.77148       43.90769   15.61497   58.98988  117.0    0.23717  -20.39644  0.71665 
   -7.53968  0.46919  10.75811     14.55057  1.86189  1.50612   3.93308  0.02461     0.32274   7760.62666   8086.65016    2.197         3293.92625     17.32131  0.00012  56416.63132   1.41304  1.84537       1585236.06426  44.27523  19.79615    56445.282    50.72239       43.77475   22.55495   79.80984   57.0    0.50892   -20.5017  0.49456 
   -5.48926  0.48113  22.32502     14.20039  1.84048  1.21405   3.63635  0.01867     0.05854   6881.67226   5443.40462  4.64764         4687.22649     19.42066  0.01463  56418.68174   1.02726  1.74954      33849637.87447  42.30664  19.88101     56444.17    51.15523       43.86357   17.34996   248.1045   48.0     0.6917  -20.61647   0.1531 
   -6.33327  0.40268    2.2361     12.61266  1.20437  0.17983   5.39717  0.01351     0.35163   6096.74502   5558.57189  4.44596         5077.37459     17.50286  0.00018  56417.83773   1.19671  2.17332     332838712.82918  43.12839  19.63513  56473.34736    50.90158       43.79356    50.3149  116.24477   45.5    0.66525  -20.85929   0.1252 
  -12.85525  0.32252  17.75793     13.15032  1.50284  0.00855  11.25366  0.02668     0.02829   5022.12453   4741.02238  4.73337         4927.43359     17.93638  0.00048  56411.31575   1.69315  3.62952    2202304459.12016   40.6041   19.6626  56438.05892    50.64838        43.8261   13.87997   46.84491   80.5    0.20415   -20.7421      0.0 
  -13.41936  0.42332   9.46893     12.42233   1.9906  0.78902  12.45738   0.0222      0.4391   4870.63262   5339.66617  3.50408         4117.10477     17.12366    7e-05  56410.75164   1.76289  5.27345   23699311712.08122  40.24049  19.84185  56440.26445    50.61323       43.77915   17.34996   55.51989  109.5    0.16409   -20.6897  0.00121 
  -21.85497  0.46636  19.32561     12.38771  2.00815  1.16869  12.35646  0.04671     0.44278   3955.43877   4568.96207  2.94837         4722.33393     17.86133   0.0004  56402.31603   1.15322   5.7626   116804034845.3981  38.93192  19.77326  56440.26445    50.58128       43.74302   17.34996   52.04989  103.0    0.07908  -20.63363    9e-05 
   -5.77686  0.49686   14.6344     14.76583  1.54136  1.50036   2.79573  0.02128     0.12554   3060.76916   6517.44737  4.43183         4809.71064     19.40789  0.01421  56418.39414   0.15624   1.3891        901173.21053  44.17119  19.77181  56440.26445    50.68657       43.74157   19.08496   71.13486   35.5    0.59721  -20.59404  0.34769 
   -7.26291  0.49964  11.33232     13.04235  1.69212  0.64162   5.71869  0.02228     0.03507   5852.67346   6156.23486  3.94561         5259.12954     16.84408    4e-05  56416.90809   1.16851  2.85728    1660273794.34226  41.16846  19.65173  56440.26445    50.63753       43.75915   17.34996   55.51989   58.0    0.47677  -20.92324  0.01303 
   -6.49456  0.49822    14.911     14.60201  1.63159  0.60089   3.84123  0.01146     0.49288    2936.5184   6962.47073  4.66212         5607.71718     19.04911  0.00622  56417.67644   0.19759  1.91376        2105850.9697  43.81101  19.68691  56440.26445    50.57961       43.72365   17.34996   58.98988   46.0    0.50479  -21.20752   0.2796 
   -7.37449  0.30958  10.29243     13.93369  1.51458   0.9611    5.3865  0.01502     0.46918   5930.85427     9028.411  3.46223         4899.60015     16.36392    1e-05  56416.79651   1.13023  1.66754      20219367.92421  43.11833  19.67538  56438.05892     50.5782        43.9448   13.87997   24.28995   89.0    0.42719  -20.58999  0.41755 
   -8.54734  0.46838   3.26033      12.4699  1.52121  0.77614   5.03131   0.0261     0.09055   6684.75173   3065.00244  3.18881         5040.40183      16.8748    4e-05  56415.62366   1.34115  2.35658     1724716039.2165  42.18779  19.78244  56440.26445    50.64628       43.77857   19.08496   65.92987   65.0    0.47571  -20.59997  0.18494 
   -7.66301  0.49767  13.38228     14.38721   1.3846   1.2626    3.4129  0.02164     0.44605   5948.99034   3786.77128   2.5722         5196.37729     19.33936  0.01214  56416.50799    0.7205  1.69851       3870614.53212  43.56933  19.75655    56443.178    50.68214       43.76812   20.81996   71.13486   52.0    0.54054  -20.68993  0.30217 
   -9.56616  0.48263   8.95222      13.1165  1.19007  1.46792   6.15385  0.01485     0.44051   4282.89799   9412.74703  3.85735         4139.99067     19.78346  0.03374  56414.60484   0.67336  2.97002     517897705.59397  41.72631  19.70349  56440.26445    50.80193       43.75623   17.34996  104.09979   95.0     0.3809  -20.43091  0.09189 
  -10.71054  0.45572  10.71659      12.7644  1.90025  0.89432    7.5366  0.01794     0.21892   5579.88846   4045.39671  2.08715         5174.26298     18.39377  0.00138  56413.46046   1.39976  3.43457    5997084891.20764   40.7096  19.87611  56438.05892    50.62353       43.63883   13.87997   62.45987   89.0    0.33341  -20.58313  0.00653 
   -9.77794  0.43288   15.5003      12.7295  1.48415  1.50903   7.85395  0.01674     0.15453   4025.69547   5693.28171  3.76095         4796.75936     20.29482  0.10953  56414.39306   0.75927  3.39985   11507444340.68609  39.99867  19.69099  56435.85339    50.53683       43.84395   10.85455   30.78537   87.5    0.30648  -20.68467  0.00211 
  -16.19307  0.36137   7.85653     14.11622  1.58608  0.49958    8.1872  0.01636     0.28814   1973.96836   8387.67179  4.68258         5304.01132     18.09773   0.0007  56407.97793    0.1903  2.95861        5323076.6603  43.95255   19.7842  56438.05892     50.5051       43.75313   17.34996   52.04989  111.0    0.12005   -21.0306  0.43606 
  -14.38809  0.49574   3.58243     12.95689  1.49953  1.43207   6.21133  0.04213     0.10893   6132.26155   6582.95114  2.63277         4435.69318     19.49408  0.01733  56409.78291   1.39333  3.07921     217946461.83066   42.9981  19.67433  56442.46997    50.55669       43.78186   19.08496   43.37491  186.0    0.14623  -20.61826  0.59242 
   -7.22483  0.37373   6.37623     13.76924  1.39278  0.65568   4.47793  0.01983     0.36141   6238.81454   3123.59272   3.2617          5322.0084     16.40851    1e-05  56416.94617    1.0397  1.67353       15217901.4505  43.62125  19.72717  56440.26445    50.67149       43.81022   15.61497   55.51989   91.5    0.34872  -20.90329  0.60843 
   -7.40587  0.49852  23.17235     13.64363  1.69056  0.66197   5.89712  0.01036     0.45749   4012.77815   6061.19491  4.68145         3787.43874      19.5411  0.01931  56416.76513   0.56645  2.93986     435037667.57876  41.12841  19.66387  56440.26445    50.71411       43.72324   17.34996   72.86985   96.0    0.46987  -20.41007   0.0113 
   -8.29313  0.48877   6.53059     14.18487  1.30938  0.59097   6.97758  0.01441     0.23634   5307.59056   7063.06337  4.71573         2892.57488     20.46586   0.1624  56415.87787   1.17254  3.41043       2213333.20775  44.41096  19.78747  56440.26445    50.51408       43.64339   19.08496   65.92987  113.0    0.26809  -20.73558   0.4498 
   -10.9643  0.46959  14.26607     13.42062   1.8327   0.2658   6.84696  0.01484     0.43639   3733.54178   6341.47271  3.54488         4896.55608     20.53732  0.19145   56413.2067   0.56933  3.21524     499207427.58736  41.52505  19.69958  56438.05892      50.833       43.76404   13.87997  107.56978   88.5    0.34063  -20.66141  0.00516 
    -8.1629  0.49859  11.48414     12.93951  1.21624  0.91313   4.95397  0.01879     0.40406   5082.25048   4266.27845  3.74255          4953.4359     18.50441  0.00177   56416.0081    0.7633     2.47    1967937395.35926  40.93966  19.69455  56438.05892    50.59604       43.88018   13.87997   34.69993   64.5    0.50015  -20.65297  0.01523 
  -12.47992  0.49027   2.09674     12.97423  1.43335  0.23291   6.58486  0.05128     0.39367   6865.75967   6313.00647  3.00352         4718.13335     18.89882   0.0044  56411.69108   1.85162  3.22837      65886217.96999  43.96331  19.72036   56444.6755     50.7007       43.75487   23.11193   80.98786  150.0    0.19596    -20.655  0.50053 
   -9.98458  0.41851  14.23512     12.83469  1.90876  1.47271   8.14739  0.01713     0.08132   4435.88788   3753.08146  2.86899          5072.9408     17.56682   0.0002  56414.18642   0.95633  3.40975    7689629169.90021  40.35697  19.79612    56443.178    50.75679       43.78767   26.02495   88.48482   89.0    0.29665  -20.63951  0.00475 
   -6.77745  0.49966  21.13964      13.1128  1.21351   0.4496   5.13811  0.01987     0.43812   4649.81808   6771.77924  4.25723         5279.51707     16.97018    5e-05  56417.39355   0.66268  2.56732    2995334508.97681  40.22625  19.80106  56440.26445     50.6108       43.82019   20.81996   43.37491   59.5    0.46373  -20.83724   0.0009 
  -12.47689  0.41638   23.7919      13.7314  1.45059  1.33768  11.87445  0.01403     0.08018   4308.66121   4935.17372  2.41246         5442.99297     16.10361    1e-05  56411.69411     1.315  4.94429     262675071.80469  41.25811  19.73418  56449.08656    50.76165       43.73839   29.49494    97.1598  103.0    0.21524  -20.90621   0.0168 
   -5.55112  0.44413   9.95726     14.42585  1.44928  0.91415    0.9672  0.01921     0.29116    1872.3723   5283.06245  4.81942         5568.81262      17.8052  0.00035  56418.61988   0.02023  0.42956       1877317.59824  44.16018  19.72289    56445.173    50.59913        43.7441   23.89308   73.26672   23.5    0.74121  -21.27746  0.76959 
   -9.02646  0.48536   11.2202     12.68349  2.05501  1.14264   5.90057  0.01151     0.40754   3194.14411   3249.62307  4.00184          5306.0783     16.84423    4e-05  56415.14454   0.35911  2.86392   10319238682.95777  40.46801  19.66142  56438.05892    50.50691       43.70661   15.61497   45.10991   69.5    0.42685  -20.87353  0.00614 
  -22.63936  0.48973   6.05473     14.58792  1.47821  0.18086  12.36056  0.03097      0.3987   3295.52174   8770.04927  1.95628          3686.8927     18.79618  0.00347  56401.53164   0.80078  6.05336        335667.68119  45.34848  19.75401  56440.26445    50.58353       43.68491   19.08496   62.45987  126.0    0.06851  -20.71205  0.38517 
   -5.66976   0.2456  14.67896     14.66641  1.65358    1.133   4.03346  0.02258      0.3488   8067.14578   9866.46247  4.20307         4205.29425     18.52083  0.00184  56418.50124   1.56583  0.99062       1537483.96288  43.96707   19.6901  56438.05892    50.54135        43.7144   15.61497   46.84491   27.0    0.80918  -20.56628     0.45 
   -8.76389  0.49117   7.85492     14.19481  1.43358  0.75555   2.16144  0.03668     0.05165   6351.58353   7091.77841  4.38927         3231.65769     19.07403  0.00659  56415.40711   0.52016  1.06163       3348963.31944  44.11007  19.74124  56453.49761    50.71991       43.72938   32.96493   88.48482   68.0     0.3592  -20.47355  0.67481 
   -7.84892   0.4674  11.83109     14.45882  1.22511  0.37475   4.60045  0.01506     0.45885    6146.1543   8876.05086  3.12008         4257.70029     16.44474    2e-05  56416.32208   1.03665  2.15023       1924863.77396  43.92657  19.78525  56438.05892    50.62038       43.80139   15.61497    48.5799   79.5    0.44823  -20.51532  0.25491 
   -6.18677  0.27648   4.61279     13.07641  1.83554  0.37758    8.0158  0.01407     0.07391    7692.1315   6981.97226  4.40176         4459.28333     17.87323  0.00041  56417.98423   2.82923  2.21625     255082957.75492    42.798  19.87284  56438.05892    50.67382       43.86893   14.32454   46.40034   65.0    0.58544  -20.60651  0.20984 
  -12.26577  0.42943   2.48234     13.07846   1.5207  0.49366   9.29247  0.01296     0.43078   4598.29732   9263.83616  2.88699         3463.72095     18.88984  0.00431  56411.90523   1.17207  3.99048      60627756.37747   43.8785  19.81354    56443.178    50.63261       43.67882   24.28995   79.80984  323.5    0.09926   -20.6363  0.67671 
   -7.04208  0.48328   7.06833      14.0728  1.92925  0.18724   4.53346  0.02672     0.34736   7519.77011   9071.06041  3.75215         4660.53355     17.48614  0.00017  56417.12892   1.52921  2.19094       6400914.63882  44.04936  19.80497  56440.26445    50.58879       43.78697   17.34996   43.37491   94.5    0.47353  -20.65925   0.4426 
   -9.31104  0.38648   4.75853     12.45211  1.99778  1.10034   8.18255  0.02069     0.01101   6742.08131    5418.4401  3.54398         5714.88524     18.37859  0.00133  56414.85996   2.21873  3.16239    5237080810.00894  41.49536  19.72258  56446.88103    50.82402       43.85604   23.89229   81.94249   49.5     0.4581  -21.08835  0.05365 
   -8.40231  0.36757  15.73725     14.78405  1.70126  0.26571   7.84269  0.01292     0.41922   4745.74426   5918.41034  4.00322         5535.10758      19.4149  0.01444  56415.76869   1.05366  2.88277       1057680.04662  44.08141  19.58154  56471.14183    50.97068       43.85205   52.04989  117.97976   64.5    0.41018  -21.18721  0.18748 
  -13.97981  0.43946     1.908     12.25939  1.95968  1.01472   11.7816  0.01175     0.48536   3923.27072   6810.65654  3.29885         3531.85716     16.07403    1e-05  56410.19119   1.08175  5.17751    2006256566.80789  42.69749  19.77458  56440.26445    50.57127       43.69128   19.08496   64.19487  192.0    0.15525  -20.47862  0.32837 
   -11.2071  0.37853   3.45621     12.61681  1.90683  0.26373   9.40354  0.01425     0.09006   3935.70492   3407.46873  3.77559         5028.72203     20.40973  0.14271   56412.9639   0.86889  3.55949    1235119145.31417  42.38025  19.73654  56442.46997    50.71029        43.7912   20.81996   71.13486   86.5    0.29569  -20.80648  0.03233 
   -9.74504  0.37715   6.34774       12.803  1.55595  0.06032   6.91273  0.02222     0.41517   4885.36772   9135.20986  4.97215         4710.60595     20.00221  0.05584  56414.42596   0.98417  2.60716    1442270262.24712  41.69656   19.8129  56455.70314    50.91742       43.86827   32.96493  102.36479   76.5    0.36121  -20.58442  0.00051 
    -6.2213  0.49174  18.60955     13.93971  1.22468  0.44383    5.1426  0.01912     0.43616   7792.72933   5540.06285  4.77004         4211.09174     20.26538  0.10236   56417.9497    1.8629   2.5288      51986598.79008   42.1015  19.90299    56443.178    50.74461       43.85083   19.08496   65.92987   56.0    0.62646  -20.69039  0.04246 
   -7.03996  0.49994  10.71277     12.73422  1.45009  0.66416   4.82005  0.01724     0.23606   5681.85106   5761.99619  4.06498         4381.66785     18.75325  0.00315  56417.13104   0.92824  2.40974    5255049322.84068  40.64986  19.70195  56438.05892    50.65777       43.80655   15.61497   52.04989   66.5     0.5441  -20.52471  0.00509 
   -7.35559  0.46284   17.4137     12.93871  1.57645  0.51031   5.82598   0.0202      0.0606   4488.46769   5579.22947  4.84732         4903.93843     19.60459  0.02235  56416.81541   0.70015  2.69651    5886531980.45042  40.21488  19.72577  56438.05892    50.63414       43.80177   15.61497    50.3149   66.5    0.41187  -20.74232  0.00106 
  -12.87675  0.44869  23.54473     12.92624  1.10678  0.01843  11.36128  0.01367      0.3147   2969.39501   4325.65904  3.41402         5548.98145     17.74544  0.00031  56411.29425   0.59757  5.09769    8001754102.56822  39.66593   19.7628  56442.46997    50.54109       43.93561   17.34996   34.69993   99.5    0.18661  -21.08553      0.0 
   -9.20932  0.43315   8.95876     13.98069  1.92543  0.08273   7.26651  0.03185     0.08012     6559.127   7375.24439  4.45037         4860.65354     19.69884  0.02777  56414.96168   1.86485  3.14752      15683823.60673  43.45342  19.82763   56444.6755    50.63486       43.69859   23.16857   77.46123   79.0    0.34973   -20.7911  0.04124 
   -8.93301  0.41721   1.80365     12.22895   1.5105  0.68787   6.50605  0.03239     0.07672   8049.33235   5639.00832  4.27462         4280.34424     16.89271    4e-05  56415.23799   2.51457  2.71439    1589808678.01028  42.73432  19.64819  56438.05892    50.76083       43.84391   13.87997   69.39986   88.0    0.39457  -20.60905  0.36377 
   -8.94368  0.48209  11.90097      13.3149  1.88039  1.37236   6.29466  0.01186     0.25892   3356.54637   6362.44071  3.28781         4567.76875     18.30247  0.00111  56415.22732   0.42304   3.0346     580013603.69946  41.62849  19.64803  56457.90867    50.83654       43.79139   34.69993  104.09979  104.0    0.34186  -20.45252  0.07621 
   -8.47216  0.32877   7.52889     13.53023  1.31266  0.02321   7.10549  0.01047     0.33374   3505.64288   8375.84723  4.68922         5044.71207     18.42724  0.00149  56415.69884    0.5209   2.3361      60114186.43928  42.85456  19.63502  56438.05892    50.63729       43.85747   15.61497   41.63992   65.0    0.46414  -20.68271  0.00121 
  -11.15759  0.47341   5.30399     13.40746    1.592  0.95702   8.26108  0.02559      0.4733   6889.31972   5132.30776  1.86169         3928.21009     17.50126  0.00018  56413.01341   2.33893   3.9109      63687304.50912  43.21753  19.79614    56445.282    50.64756       43.70558    22.1573    76.7375  173.0    0.15421  -20.61952  0.46714 
  -10.94875  0.47091  17.07497     14.16628  1.70431  0.85668   5.64382  0.01391      0.0139   4109.61332   9736.43644  3.58334         4166.87085     16.34369    1e-05  56413.22225   0.56859  2.65774      21454504.63337  42.70416  19.78877     56443.25    50.80571       43.75674   22.55495  109.30478   88.5    0.36303   -20.3601  0.15544 
    -6.1198  0.43828  10.98031     14.59249  1.56433  0.41965   1.66346  0.02062     0.17605    3061.3409   8484.25867   4.3186         4790.41889     16.50083    2e-05   56418.0512     0.093  0.72906       1143904.58609  44.32355   19.6759  56438.05892    50.59956       43.76009   15.61497    50.3149   51.5    0.46443  -20.60177  0.63791 
  -15.69332  0.49943   6.19671     14.11368  2.08445  1.30814    5.7625   0.0378     0.49242   6002.93816   4964.54414  2.26325         2873.70408     20.74105  0.30604  56408.47768    1.2387  2.87798       4403228.43375  44.35974  19.80567    56445.282    50.64436       43.70194   23.89229   83.67749  104.0    0.17135  -20.91346  0.68536 
  -11.66102  0.42921  10.44038     12.32303  1.44353  1.22287   7.19277  0.02587     0.13462   4400.01675   4694.13858  4.59407         4564.14127     18.78239  0.00337  56412.50998   0.83068  3.08724    33007982389.8719  39.87222  19.66401  56442.46997     50.6727       43.78548   19.08496   65.92987   86.0    0.26389  -20.53045  0.00156 
  -10.82678  0.45574  12.35038      12.2872  1.43375  0.59009   7.41656  0.03161     0.08565   7006.26242   8315.72113  2.70901         4864.47781      18.3369  0.00121  56413.34422   2.17171  3.38004   54105422502.65524  39.50872  19.80393  56440.26445    50.49399        43.6545   19.08496   62.45987   87.0    0.33052  -20.64572  0.00022 
  -11.39482  0.47855  13.06588     14.59805  1.29386  0.79957   4.30936  0.02278     0.06656   3560.06754   8792.45193  2.92326         4388.66016     17.98026  0.00053  56412.77618    0.3258  2.06223       1305799.94697  44.03258  19.56448  56457.90867    50.97432       43.90676   34.69993  107.56978   80.0    0.33671  -20.26314  0.25502 
   -7.95086  0.49908  10.61044     14.35347  1.97187  1.11607   3.66078   0.0222     0.14841   6294.40298   6086.43184  1.68997         5381.97356     19.91595  0.04578  56416.22014   0.86519  1.82702       4047880.51286  43.90503  19.75114  56451.29208    50.71215       43.72059   31.22994   83.27983   70.5    0.35642  -20.82297  0.51815 
   -8.45474  0.42983  16.08638     14.73755  1.38735  0.64535   3.26665   0.0407     0.12685   6675.20397   8673.01039  4.87231         4689.45394     17.50095  0.00018  56415.71626   0.86828  1.40409        1116385.9524   43.9503  19.77336     56444.17    50.72351       43.77919   20.81996   76.33985   41.0    0.58672  -20.58428  0.26827 
   -9.06101  0.44766  11.17186     12.74105  1.48348  1.04395   6.11572  0.02219     0.15756   7688.29319   7876.82849  2.97813         4194.79108     19.76728  0.03251  56415.10999   2.15643  2.73775    5665561406.36811  40.59063  19.69301  56451.29208    50.68922       43.67034   31.22994    98.8948   79.5     0.4829  -20.45942  0.00761 
  -12.80501  0.49154  28.09205     12.97193  1.17515  0.53337   7.67617  0.01658     0.01748   2133.08989   6868.24087  4.87012         4329.11973      19.7753  0.03312  56411.36599   0.20835  3.77317    9799568978.57466  39.45057  19.79254  56440.26445    50.61381       43.66768   19.08496   79.80984  117.0    0.15685   -20.4098  0.00014 
   -9.86087  0.48427  15.18661     13.67552  1.99321  0.31717   5.19124  0.02328     0.21936   5018.06596   9323.62435  3.98355         4588.10763     18.86987  0.00412  56414.31013   0.77978  2.51395     190218612.47047  41.92622  19.70457  56438.05892    50.58849       43.78937   13.87997   43.37491   77.0    0.41535  -20.47676  0.02212 
   -7.22551  0.48376  15.65708      14.8801  1.22988   0.9348   3.26993  0.02256      0.2312    3473.7143   7771.48999  4.77635         4557.93279     18.53926  0.00192  56416.94549   0.23537  1.58186         486285.7053   44.2824   19.7026  56446.88103    50.87682       43.91461   23.11193   80.98786   50.0    0.53148  -20.38905  0.22618 
   -9.73418  0.41809   3.44784     12.81188  1.66731  0.09405   7.12111  0.03479     0.33367   8336.99973   8888.52039    3.962         4320.26312     16.32367    1e-05  56414.43682   2.95253  2.97724     437678441.57834  42.77461  19.79957  56440.26445    50.56506        43.7053   17.34996   57.25488   76.0    0.38962  -20.59299  0.01274 
  -12.56618  0.48067  15.88891     12.85278  1.93533  0.33612   8.24461  0.01356     0.47518   2918.07985   9165.88375  2.75212         4713.96283      18.5684  0.00206  56411.60482   0.41879  3.96297    8937238301.85075  40.20221  19.75469   56444.6755    50.94443       43.85173   20.81996  107.56978  119.5    0.19853  -20.42519  0.00032 
  -13.89184  0.36589  14.03871     13.43451  2.06238  1.25513  13.89568   0.0131      0.2763   3281.74551   5429.74325  3.21939         4430.57822     20.31914  0.11584  56410.27916   0.89272  5.08428     510302259.73424  41.58073  19.67482    56445.282    50.69204       43.73012   24.76706   84.53772  124.0    0.14061  -20.61816  0.03969 
   -8.51228  0.43692  24.77691     13.49425  1.56206  0.77472   5.71128  0.01468     0.02367   4077.54915   3883.72969  4.90273         5447.46336     17.89821  0.00044  56415.65872   0.56645  2.49536       914339108.151  40.71334  19.70753  56438.05892    50.72015       43.89174   13.87997   53.78489   52.5    0.49314  -20.98543   0.0069 
   -8.79673  0.49422  20.04952     12.85025  1.65055  0.70901   5.43882  0.02259     0.03783   6232.55931   5196.41847  3.73548         4570.15715     20.26703  0.10275  56415.37427   1.26027  2.68795   12278564987.16693  39.79312  19.72459  56438.05892    50.55133       43.73543   15.61497   46.84491   66.5    0.48302  -20.60335  0.00072 
   -8.15112  0.49003  13.47229     13.12155  1.52147  1.22799   5.00059  0.01693     0.47465    4943.5737   5366.23619  3.53299         5158.90824     19.03929  0.00608  56416.01988     0.729  2.45044    1465078554.56374  41.02637  19.74095  56438.05892    50.62217       43.78447   17.34996    50.3149   63.0    0.51112  -20.70116  0.02546 
  -13.35292  0.48727  24.85301     13.10406   2.0212  0.50408   7.01977   0.0124     0.25028   2991.05069   7300.11065  2.81669         4834.88962      16.1748    1e-05  56410.81808   0.37463  3.42053    7178903123.39989  39.92764   19.6429  56466.73078    50.96789       43.90893   38.16992  104.09979  114.0    0.25452  -20.41067  0.00042 
   -9.38833  0.45449  13.67103     13.94096  1.45118  0.78018   6.00735  0.01605     0.09981   4586.83174   5231.04624  3.73604         4442.75928     16.30055    1e-05  56414.78267   0.75394   2.7303      33053160.00841  42.63975  19.83803  56440.26445    50.68305       43.78052   19.08496   62.45987   92.5    0.37839  -20.53002  0.16059 
  -11.78547  0.48724   9.21462     13.39545  1.53606  0.49307   8.18248  0.01944     0.47632   6551.13334    8263.2365  1.54915         4739.28769     18.52911  0.00188  56412.38553   2.09481  3.98682     196009977.70674  42.23402  19.70039  56442.46997    50.60955       43.69716   20.81996   69.39986  111.5    0.27789  -20.50726  0.05786 
   -9.77233  0.31362  13.61516     12.56423  1.25881  0.56411   9.25179  0.01559     0.27458   4890.48959   3057.41755  4.14481         4866.79075     20.00431  0.05611  56414.39867   1.31995  2.90155   16120163216.28172  39.89339    19.812  56446.88103    50.71091       43.76318   23.89229    80.2075   73.0    0.37143   -20.6843  0.00056 
  -10.60073  0.39612  15.45026     14.90124  2.02822  0.65639   5.26636  0.02595      0.0165   4173.13087   6629.05602  3.91701          4508.2565     20.43459  0.15112  56413.57027   0.54709  2.08612        708468.36927  44.34777  19.72685  56435.85339    50.56355       43.80181   12.58955   34.25536   60.0    0.37869  -20.63522  0.32227 
   -8.49596  0.47748   14.8867     14.38559  2.09234  0.96279   5.14949    0.012     0.03864    4812.7229    9182.3711  2.41601         5677.17033     16.30146    1e-05  56415.67504    0.7115  2.45878       7292299.14259  43.38102  19.77935     56443.25    50.74096       43.81328   22.55495   74.60485   82.0    0.39238  -20.88939  0.29694 
  -20.77908  0.34819  11.28222     13.07543  1.26975  0.45577  22.54933  0.01553      0.4653   2158.35331    4971.5308  3.86517         5569.20808     19.64171  0.02435  56403.39192   0.62662  7.85141    1060366530.66367  41.24232  19.46893  56482.16947    50.96234       43.83003   58.98988  117.97976  111.5    0.06565  -21.21983  0.00307 
  -11.31182  0.47067  12.85385     12.33575  1.29029   0.2643   7.84958   0.0152      0.3155   4257.60727   3754.02859   2.4513         5229.53103     18.88743  0.00429  56412.85918    0.8488  3.69453    42175460406.5787  39.53641   19.7834  56442.46997    50.72323       43.81859   20.81996   69.39986   96.5    0.29057   -20.6514    5e-05 
