 texplosion  fnickel     Pspin  log(Bfield)      Mns  thetaPB   mejecta    kappa  kappagamma     vejecta  temperature    alpha  cutoff_wavelength  log(nhhost)      A_V         MJD0  kenergy  mnickel             TSD   log(L0)  Peak_mag     Peak_MJD  log(E_rad)  log(Peak_lum)  Rise_Time    E_fold  tau_1  delta_m15     r_peak     frac 
   -4.54519  0.01368   7.51128     14.26752  1.43921  0.45213   8.99982   0.0275     0.02479  5735.92868   7767.79408  4.83415         2860.26154     16.77909    3e-05  58459.96481  1.76632  0.12309   2199488.53561  44.33322  18.46263  58502.63149    50.48626       43.59379   32.09306  67.09559   75.0    0.18881  -19.94289  0.95024 
   -3.90373  0.00305   8.36432     14.35321  1.70589  0.46431   2.46416   0.0871     0.08921  5741.68656   7889.91566   3.4814         3155.36853     16.20826    1e-05  58460.60627  0.48459  0.00751   2178758.19454  44.31773  18.45625  58502.10125     50.4892       43.58636   32.09306  69.63472   74.5     0.2053  -19.97281  0.99693 
   -4.09032  0.01482   7.34417     13.91006  1.42581  1.56985   2.72753  0.08519     0.11814  5819.85485   7871.27117  4.39676         2844.99852     17.03037    6e-05  58460.41968  0.55109  0.04043  10805522.00265  43.65737  18.47811  58496.17473    50.51053        43.6601   22.62634  63.80067   74.0    0.19631  -19.96152  0.98369 
   -3.06572  0.00958   7.89433     14.07183  1.50432  0.79527  11.99066  0.01684     0.01758  5635.92411   7672.57819  4.78982         3104.37753     16.12008    1e-05  58461.44428  2.27196  0.11483   6253585.26271  43.85543  18.52106  58500.62564    50.47363       43.56304   30.59962  73.70283   79.0    0.20171  -19.94722  0.95161 
   -4.41028  0.00328   8.79523     14.07884  1.83312  1.14273   3.13323  0.06405     0.06658  5643.57815   7587.48904   4.0152          2958.3751     17.31924  0.00012  58460.09972  0.59529  0.01027   9158611.22127  43.68171  18.43104  58499.13799    50.51265       43.65459   27.07581  62.02166   80.5    0.19399  -19.92607  0.99582 
   -6.46458   0.0031    7.5845     14.02942  1.52614  0.94482  14.85032  0.01718     0.01424  5388.52192   7810.68096  2.58229         3030.74906     19.46838  0.01633  58458.04542  2.57219   0.0461   7119188.22696  43.84015  18.46748  58500.62564    50.51911       43.62567   29.81047  68.35398   76.0    0.17241  -19.92161  0.98209 
   -4.05458  0.00567   8.66367     14.33096  1.82236  0.55173      16.9   0.0142     0.01205  5511.12852   8145.75581   4.7611         2924.52435     20.14655  0.07785  58460.45542  3.06193  0.09588   2766536.56591  44.21214  18.48569  58502.10125    50.47785        43.5711   32.09306  69.67082   75.0    0.18353  -19.99133  0.96339 
   -3.22197  0.01361   8.44301     14.24646  1.62592  0.60495  14.45439  0.01384     0.01229  5034.27607   7657.93719  4.66157         3257.01873     19.70601  0.02823  58461.28803  2.18525  0.19674   3459267.88373  44.08797  18.52656  58505.06451    50.47061       43.56002   32.54084  72.06598   79.5    0.20475  -19.98017  0.91916 
   -4.74702  0.01383   8.62399     14.03492  1.78874  1.34787   5.64389  0.03814     0.04516  6220.54707   7909.57776  3.66855         2587.25772     17.38627  0.00014  58459.76298  1.30275  0.07806  10518303.35282  43.62803  18.45815  58500.62564    50.50364       43.62138   30.69563  65.53576   76.5    0.18056  -19.91955  0.96922 
   -3.79217  0.00336   8.47357     13.97515  1.74834  1.50466   4.29683  0.03731     0.04383  5718.48505   7357.22377  4.70369         2904.74474     17.16388    8e-05  58460.71783  0.83818  0.01443  13069758.82951  43.53907  18.49525  58500.62564    50.47633       43.57389   30.69563  70.93239   85.5    0.18822  -19.88921  0.99408 
   -3.93151  0.01174   8.22237     14.08518  1.66478  0.93957   4.99483  0.05137     0.06878  6485.41934   7858.02381  3.35922         2716.64412     18.45826   0.0016  58460.57849  1.25321  0.05862   7059860.46357  43.81141  18.48814  58502.10125    50.46206       43.54844   32.09306  74.29544   74.0    0.19301  -19.95912  0.97652 
   -4.06304  0.00378   8.66097     14.04447  1.75801  1.20957   3.27265   0.0568     0.07509  5492.84664   7683.48528  4.18516         3001.72611     18.83639  0.00381  58460.44696  0.58901  0.01237   9977439.83537  43.63971  18.43679  58502.10125    50.48573       43.59658   30.69563  68.25797   83.0    0.19383  -19.89969  0.99481 
   -5.49634  0.01263   7.38439     14.04644  1.50427  0.78783   4.85697  0.05112     0.04557  5815.94775   7778.51045  4.22331         2827.12644      19.9034  0.04448  58459.01366  0.98002  0.06133   6150277.64486  43.92065   18.5273  58503.46431    50.47731       43.57296   32.09306  70.52822   78.5     0.1768  -19.97083  0.97679 
   -4.50623  0.00696   8.53441     14.07262  1.69518  1.04169  12.22779  0.02035     0.01836  5542.26206   7825.07973  3.89411         3104.40383     16.90599    4e-05  58460.00377  2.24052  0.08505   8206152.65738  43.72157  18.46983  58500.62564    50.47491        43.5803   29.81047  68.58903   77.0    0.18684  -19.92923  0.96463 
   -3.69961  0.01076    9.6731     14.24654  2.07174  0.90954   5.80068  0.03668     0.03559  5465.10599   7696.02357  3.95521         2984.08397     18.82431  0.00371  58460.81039  1.03348  0.06241   5783780.06317  43.85184  18.44361  58500.62564    50.49251       43.61178   29.41864  64.18612   78.0    0.19495   -19.9568   0.9752 
   -4.47675  0.00265   8.35102     14.01978  1.72143  1.23447   5.47967  0.03248     0.03519  5362.03254   7780.85807  4.54258         3062.96831     19.80087  0.03512  58460.03325  0.93981  0.01452  10177276.23659  43.65362  18.45188  58499.13799    50.48324       43.60262   28.62949  64.18612   80.5    0.19556  -19.95624  0.99416 
    -4.4175   0.0401   8.66726     14.01619  1.69817  1.41617   4.67344  0.05461     0.04688  5835.84895   7889.34998  4.82228         2960.48168      18.1992  0.00088   58460.0925  0.94945  0.18739   10994548.8623  43.58189  18.43602  58502.10125    50.51518       43.62843   30.59962  65.63177   75.0    0.18918  -19.94398  0.92319 
   -3.69119  0.00185    9.5196     14.09007  2.04694   1.3948   6.98189  0.02058     0.02567  5495.67216   7493.21474  3.85863         2985.91716     18.11156  0.00072  58460.81881  1.25789  0.01293  11376556.50079   43.5667  18.45649  58500.62564    50.48014       43.59635   29.81047  66.61552   86.0    0.18397  -19.88135  0.99474 
   -3.65205   0.0077   7.04593     13.88801  1.33755  1.17239   8.01605  0.02764      0.0359  5733.23625   7708.86006  4.63972         2894.57645     17.42077  0.00015  58460.85795  1.57176   0.0617  10327292.15967  43.68529  18.45862  58502.10125    50.48578       43.60085   30.69563  65.53576   79.5    0.19769  -19.94228  0.97483 
   -3.67142  0.00419   9.53153     14.53012  2.00838  0.38496   5.78857  0.03761     0.03274  5449.34237   7694.33254   4.8568          2969.2936      16.4519    2e-05  58460.83858  1.02538  0.02425   1474836.62729  44.44462  18.47435  58502.10125     50.4903       43.58181   32.09306  71.36757   77.0    0.19189  -19.91886  0.98997 
   -3.42633  0.00179   6.13753     13.74778    1.127  1.48963   1.23915  0.14305      0.1957  5576.33991   7775.24564  4.28552         2870.08323     16.41888    1e-05  58461.08367  0.22985  0.00222  12594271.09554  43.64461  18.47702  58502.63149    50.49112       43.58689   30.69563  71.06825   79.5     0.1956  -19.92987  0.99909 
   -4.06654  0.00497    8.2595     14.02487  1.68091  1.16266   7.55049  0.02874     0.03078  5956.42263   7690.02347   4.5599           2866.022     17.78182  0.00034  58460.44346  1.59799   0.0375   9495687.76467  43.68296  18.53652   58503.3903    50.46855       43.56248   32.09306  72.51376   76.0    0.19413  -19.95568  0.98487 
   -3.84033  0.00741     8.889     14.40874  1.80223  0.47307   9.56011  0.02779     0.03269   6030.9429   7677.95292  4.31897          2972.2591      17.7404  0.00031  58460.66967  2.07425  0.07083    2013019.3059   44.3231  18.44543  58502.10125    50.49727       43.60767   27.86497  71.32369   73.0    0.20496  -19.98306   0.9709 
   -3.58812  0.00558   9.27866     14.41876  1.91165  0.46061   6.75471  0.02821     0.02926  5619.71409   7579.11188  4.82367         3098.97919     18.53011  0.00188  58460.92188  1.27251  0.03768   2221682.31444   44.2686  18.54265  58502.10125    50.47693       43.57867   30.59962  71.16426   80.0    0.20632   -19.9422  0.98412 
    -4.7583   0.0037    8.4962     14.30124    1.729  0.54978   4.89977  0.04912     0.05481   5521.2328   7732.08424  4.15002         2969.66159     16.17238    1e-05   58459.7517    0.891  0.01811   2894509.34458  44.18662  18.45334  58500.62564    50.48804       43.60086   29.81047  68.35398   77.0    0.19237  -19.92591  0.99256 
   -4.51019  0.00752     8.552     14.04137   1.6956  1.12889  11.28952  0.01884     0.02385  5956.71922   7949.79696  4.73307          2927.6316     17.25537   0.0001  58459.99981  2.38956  0.08485   9517607.90782  43.65551  18.50512  58502.10125    50.48509       43.59275   29.41864  71.32539   77.5    0.19625  -19.92907  0.96443 
   -4.86235   0.0193   9.03885     14.04244  1.80164  1.41766  11.37252  0.01899     0.01944  5810.63023   7406.95719  3.29883         2956.63485     16.47569    2e-05  58459.64765   2.2905  0.21949  11241761.28011  43.56145  18.46491  58502.10125    50.47192       43.57659   32.09306  68.86318   81.5    0.18513  -19.90349  0.91124 
   -4.18167  0.04047   7.67175       14.219  1.42042  0.48661   4.64558  0.05188     0.04782   5859.0069    7629.9557  3.77492         3117.12687     16.18768    1e-05  58460.32833  0.95129  0.18801   2831519.42409  44.19946  18.46317  58502.10125     50.4812       43.57446   32.09306  69.67082   77.5    0.19617  -19.92267  0.92094 
   -4.73474  0.02777   7.97068     14.19446  1.53871  0.58371   3.75418  0.05226     0.04182     4941.08   7654.35681  4.73579         3106.53066     18.84471  0.00389  58459.77526  0.54675  0.10427   3707190.19405  44.08397  18.51742   58503.3903    50.46608       43.54163   32.54084  73.84766   81.0    0.18361  -19.89197  0.95648 
     -3.636  0.02978    9.1596     14.06662  1.77201  1.43852   9.57423  0.02196     0.02376  5612.03977   7615.53341  4.44361         2823.20855     17.67526  0.00026    58460.874  1.79876  0.28517   10157542.8318  43.58677  18.48866  58502.10125     50.5006       43.61381   29.41864  66.93008   80.0    0.19296  -19.89939  0.88343 
   -5.28166  0.00686   7.22605     13.99478  1.42079   0.8858   2.26765  0.09214     0.08289  5183.44484   7958.88376  4.31747         3040.17743     19.25001  0.00988  58459.22834  0.36345  0.01555   7056437.91633  43.85499  18.47748  58502.63149    50.46905       43.56365   32.54084  70.08045   77.0    0.19066  -19.94425  0.99379 
   -4.54879  0.01043   8.15282     14.27049  1.58514  0.51816  12.15326  0.02125      0.0184  5582.11365   7694.12751  4.57427         2945.16899     18.23627  0.00096  58459.96121  2.25901   0.1268   2815239.55269  44.19678  18.49676  58499.13799    50.49149       43.59558   27.07581  72.87906   78.0    0.18425  -19.91458  0.94774 
   -4.71933  0.00268   8.19703     14.10066  1.66899  0.87907   6.48639  0.03527     0.03013  5373.54259   7602.15364  3.74703         3070.28163     19.06862  0.00651  58459.79067  1.11725  0.01739   6550178.92882  43.84773  18.50792  58500.62564    50.46973       43.57079   30.59962  70.35662   77.0    0.19041  -19.93427  0.99298 
   -4.58762  0.01856   8.23299      14.0845  1.66108  1.02112   5.12866  0.05642     0.06287  6178.29498   7727.06909  4.98814         2622.08188      18.4318   0.0015  58459.92238   1.1678   0.0952   7084846.09451  43.80779  18.46731  58503.46431    50.47246       43.56602   32.54084  70.14362   72.0    0.19102  -19.97205  0.96251 
   -4.13339  0.02602   7.63962      14.4258  1.51437  0.33261    3.0938  0.08412     0.09577   6220.2932     7911.377  4.42171         2807.69041     19.42378  0.01474  58460.37661  0.71407  0.08052   1155037.60788  44.62034  18.52294  58502.10125    50.48772       43.57909   30.59962  72.98736   73.0    0.19569  -19.99636  0.96831 
   -3.87697  0.00591   7.63726     14.08625  1.48953  0.72094   5.69889   0.0438     0.04754  6477.13686   7847.57005  4.38475         3066.68452      19.2834  0.01067  58460.63303  1.42621  0.03369    5422925.8964  43.94179  18.45307  58500.62564    50.47607       43.58795   29.81047  68.35398   74.5    0.20599  -19.99937  0.98602 
   -4.05069  0.01205   8.17626     13.92419  1.63244  1.50737   3.78156   0.0401     0.03163    4835.916   7691.60842  4.86973          3177.3544     16.17857    1e-05  58460.45931  0.52754  0.04556  14367220.05208   43.4992  18.44176  58502.10125    50.49649       43.60561   29.90648  68.25797   86.0    0.18061  -19.85587  0.98087 
    -4.2058  0.00262   8.97919     14.40512  1.88038  0.44823   6.13208  0.02583     0.03176  5468.58053   7841.43849  4.97743          2857.3667     16.07695    1e-05   58460.3042  1.09392  0.01609   2179181.43894  44.29832  18.46962  58502.10125    50.48224       43.58286   30.69563  71.03215   84.5    0.18679  -19.88903  0.99343 
   -4.52316  0.01265   7.46381     13.91261  1.43739  1.43502   6.03214  0.04219     0.04215  5770.07403   7708.09251   4.0294          2977.2712     17.85484   0.0004  58459.98684  1.19801  0.07633  11119689.79513  43.63441  18.47135  58500.62564    50.46715       43.56876   29.90648   70.0484   75.0    0.19743  -19.95406  0.96893 
   -3.61419  0.00625   7.63523     14.13214  1.49516  0.64817   6.27694  0.03058     0.03329  5686.38885   7581.18075  4.87822         2906.87897      16.5477    2e-05  58460.89581  1.21073  0.03925   4404262.79607  44.03402   18.4385  58500.62564    50.46849       43.57317   30.69563  70.93239   79.0    0.19517  -19.93309  0.98389 
   -5.11515  0.03389   9.39028     14.25266  1.87261  0.75566   6.48066  0.03871     0.03121  5517.53766     7862.523  4.34091         3037.55447     17.64382  0.00024  58459.39485  1.17689  0.21961   4789676.33106  43.91563  18.47259  58503.46431    50.46805       43.56739   32.54084   70.9198   76.0    0.19363  -19.93775  0.91039 
   -3.50174  0.04475   9.06847     14.05391  1.67093  1.41592   9.40784  0.02564     0.02487  5567.99628   7828.99182  4.97792          2888.9908     16.75719    3e-05  58461.00826  1.73986  0.42103   9954520.43552  43.57872  18.46331  58502.10125    50.50661       43.62352   29.81047  65.63177   77.0    0.18616  -19.91892  0.82789 
   -5.64383  0.00244   7.98052     14.23894  1.61016  0.56991    6.2199  0.04693     0.04323  5841.26155   7749.71745  3.95645         2844.91154     16.31342    1e-05  58458.86617  1.26597  0.01517   3168578.56946  44.17079  18.46282  58500.62564    50.50081       43.61896   29.41864  66.93008   75.5    0.18658  -19.93403  0.99388 
   -3.15303  0.03472   9.62366     14.21974  1.85756  0.87089  10.21024  0.02336     0.02448  6322.76488   7819.83814  4.61989         2810.19478     16.33228    1e-05  58461.35697  2.43488  0.35455   5807070.30648  43.80715   18.4507  58499.13799    50.48658       43.59792   28.62949  67.94574   74.0    0.21046  -19.96267  0.85578 
    -4.9058  0.01402   8.12913     14.04294   1.7412  1.03634   2.91787  0.06432     0.06961  5928.74296   7725.14018  4.14555         2608.68009     19.94814   0.0493   58459.6042  0.61181  0.04092   8767527.90333  43.74673  18.45983  58500.62564    50.47282        43.5701   30.69563  71.98883   79.0    0.17426  -19.93845  0.98477 
    -3.3337  0.02001   8.18128     14.33862  1.59292  0.48286  11.19275  0.02018     0.02719  5504.99898   8136.81313  4.46475         3011.64116     20.01409  0.05739   58461.1763  2.02338  0.22399   2081654.17087  44.32699  18.49099   58503.3903    50.48932       43.58851   30.69563   70.0484   74.5    0.19788  -20.00293  0.91227 
   -4.55091  0.04395   7.57862     14.45497  1.32369  0.27491    7.3405  0.03852     0.03467  5680.87688   7711.04907  4.95691          3023.8272     17.85985   0.0004  58459.95909  1.41313  0.32261    868624.07182  44.69262  18.51505  58505.06451    50.47622       43.57438   32.54084  70.14362   77.0     0.1894  -19.92338  0.86345 
    -3.5475   0.0753   8.81042     14.41244  1.63376  0.40806   4.83947  0.04886     0.04471  5879.44981   7621.39626  4.33599         3017.55484      16.6983    3e-05   58460.9625  0.99793  0.36441   1762428.94152  44.34593  18.47634  58502.10125     50.5031       43.61062   29.41864  67.76041   78.0    0.19836  -19.94315  0.84976 
   -4.63914  0.02912   8.84238     14.03295  1.72431  1.32407   5.89709  0.04027     0.04663  5961.25431   7711.75406  3.57384         3123.59379     17.59479  0.00022  58459.87086  1.25009  0.17173  10756447.08713  43.58065  18.44068  58500.62564    50.50232       43.61975   28.62949  66.91203   78.5    0.19763   -19.9357   0.9279 
   -4.26597  0.01381   8.49939     14.06478  1.64641  1.06465   5.46033  0.04631     0.05175   5565.5001   7702.35853  4.85475         3131.15505     17.05606    6e-05  58460.24403  1.00891   0.0754   8195420.24579  43.71304  18.54233   58503.3903    50.46893       43.56857   31.30391  71.36757   76.0    0.19813  -19.94516  0.96754 
   -4.30564  0.00638   7.86446     14.57796  1.56267  0.24118   7.04116  0.02766     0.03889  5901.83645   7589.00108  3.06187         2903.82127     17.90117  0.00044  58460.20436    1.463  0.04493    626753.57966  44.87428  18.52074     58502.55    50.47754       43.57072   30.69563  71.98883   79.0    0.19925  -19.92997  0.98183 
   -3.77618  0.00775   6.63457     13.80841  1.24161  1.31182   2.88939  0.06351     0.06602  5346.44545   7576.67753   3.3298          3072.7906     18.59715   0.0022  58460.73382  0.49268  0.02239  12263310.90553   43.6306  18.45466  58502.63149    50.48964       43.60368   29.90648  66.42024   80.5    0.18394  -19.89736  0.99077 
   -3.82852  0.02175   7.91603      14.3913  1.50092  0.37439   9.57285  0.02358     0.02013  5329.56544   7479.63945  4.83743         3034.72881     17.82203  0.00037  58460.68148    1.622  0.20822   1440734.14933  44.48961  18.44592  58500.62564    50.51377       43.64128   27.86497   65.7398   78.5    0.19993  -19.95909  0.91572 
   -3.85697  0.00424   8.39163     14.08272  1.72796  0.91351   2.52179  0.07224     0.07913  5625.86903   7861.45409  4.06978         2937.81099     18.60469  0.00224  58460.65303  0.47612  0.01069   7719633.68737  43.77109  18.42243  58502.10125    50.49133       43.61338   29.90648  62.90913   82.0     0.1887  -19.90011  0.99565 
   -4.22286   0.0143   8.06564     14.01727  1.62311  1.43504  11.41195  0.02323     0.02577    5785.071   7939.60593  4.10592         2481.84047     18.06449  0.00064  58460.28714  2.27827  0.16316   9055220.31511  43.70902  18.50586  58500.62564    50.47689       43.58436   30.59962  68.58903   72.5    0.18104   -19.9355  0.93805 
   -4.23657  0.00374   8.32789     14.49876  1.67286  0.30572   3.43453   0.0674     0.05272  5479.12572   7785.71895  4.82876         3148.07885     18.62488  0.00234  58460.27343  0.61506  0.01285   1083502.13571  44.61641  18.41345  58500.62564    50.48837       43.60977   28.62949  66.93008   75.5    0.19009  -19.94399  0.99462 
   -5.04943  0.00194   8.23731     14.32831   1.6342  0.45668    9.9789   0.0236     0.01759  5070.88494   7652.20952  4.37161         3229.67859     18.73504  0.00302  58459.46057  1.53066  0.01931     2270270.247   44.2945  18.46769  58500.62564    50.47888       43.58088   29.41864  71.32539   79.5    0.18581  -19.91763  0.99183 
   -4.00093  0.00448   8.82431     14.17705  1.80804  0.76958   6.58633  0.02886     0.02537  5272.21156   7858.17561   4.7175          3087.2386     16.51831    2e-05  58460.50907  1.09209  0.02952   5784735.36758  43.87241  18.47052     58502.55    50.47332       43.56354   32.54084   70.9198   81.0    0.18746   -19.9064   0.9877 
   -3.15052    0.039   8.65178     14.29367  1.73365  0.56552   3.30199  0.06672      0.0634  5634.78809   7950.75211  4.67333         3028.85614     19.44947  0.01564  58461.35948   0.6254  0.12878   3116324.33938  44.13995  18.43796  58500.62564    50.49863       43.62839   28.62949  64.18612   76.0    0.19639  -19.96594  0.94777 
   -3.90055  0.01109   9.01007     14.16222  1.90421  0.96293   7.07263   0.0224     0.02926  5725.93577    7964.8907  3.26768         2841.11453     19.12208  0.00736  58460.60945  1.38325  0.07845    6800689.7626  43.80655  18.44764  58502.10125    50.52492        43.6441   29.81047  63.00514   78.0    0.18667  -19.92929  0.96941 
   -3.48945  0.06609    7.9282     13.95749  1.50214  1.55764   5.06267  0.04301     0.05777  6503.10072   7618.72603  4.72039         2342.91807     17.02145    6e-05  58461.02055  1.27717   0.3346  10663559.14285   43.6193  18.49649  58499.13799    50.50489       43.64348   27.86497  63.08664   76.5    0.18515  -19.94574  0.87103 
   -4.89095  0.00979   8.54547     14.07485  1.77556  1.02878   5.85451  0.03791     0.03345  5966.62473   7781.48595  3.52815          2938.9243     18.70615  0.00282  58459.61905   1.2433  0.05731   8529504.55338  43.72379  18.49939  58500.62564    50.49027       43.58637   29.41864  72.20939   75.5    0.18436  -19.94546  0.97729 
   -3.50207   0.0267   9.01132     14.24582   1.7973  0.67711   3.81064  0.04758      0.0441  5112.98029   7748.93118  4.67735          3050.6179      16.2203    1e-05  58461.00793  0.59426  0.10175   4368894.52371  43.97352  18.47846  58502.63149    50.48996       43.60162   30.69563  66.66875   81.0    0.19134  -19.88739  0.95702 
   -5.77262  0.00132   8.46342      14.0527  1.76645  1.30718   2.13068  0.11523     0.12789  5609.25921   7838.93062  4.36346         2751.50471     18.22757  0.00094  58458.73738   0.3999  0.00282    9217315.8673  43.69625  18.48289  58502.10125    50.48431       43.58435   30.69563  70.26061   75.5    0.19046  -19.93419  0.99889 
    -5.7764  0.00746   7.49636     13.97936  1.50904   1.0236   2.55637  0.10457      0.0969  6094.43443   7525.51214  4.11669         2887.22351     16.67344    3e-05   58458.7336  0.56639  0.01908   8659504.40748  43.76035  18.43405  58502.63149    50.47095       43.57989   32.54084  66.41277   75.5    0.18651  -19.97917   0.9925 
   -4.29346  0.00433   9.80337     14.33011  2.09868  0.65354   6.16134  0.03136     0.03174  5454.69992   7912.72508  4.48697         2952.71126     16.71748    3e-05  58460.21654  1.09356  0.02671   4095432.21076  43.99574  18.44096  58499.13799    50.51143       43.64154   27.86497  62.15704   80.0    0.18286  -19.89092  0.98901 
   -4.89228  0.01294   8.20221     14.01283  1.66247  1.20744   2.80727    0.078     0.10061  5928.43693   7709.36404   4.1605         2937.42924     19.55471  0.01993  58459.61772  0.58856  0.03633   9789819.39462  43.67096  18.46558  58503.46431    50.47444       43.57093   31.75168   68.4154   79.0    0.20074   -19.9614  0.98533 
   -4.14011  0.02739   8.44491     14.02429  1.71433  1.36404   2.91831  0.06002      0.0699  5500.69484   7691.72772  4.51224         2835.97499     16.70582    3e-05  58460.36989  0.52674  0.07993  10151461.87424  43.64322  18.51601  58502.10125    50.46976       43.56555   30.69563  73.91119   80.0     0.1921  -19.92457  0.96799 
   -4.57968  0.01224   7.49861     13.89239    1.398  1.52316  11.94833  0.01911     0.01956  5691.60639    7871.0708  4.07337         3026.87438     16.74219    3e-05  58459.93032  2.30889  0.14625  11981487.41008  43.58588  18.46612  58502.10125    50.50579       43.63861   28.62949  64.18612   76.5    0.19377  -19.92946  0.93906 
   -4.60915  0.01175   8.76344     14.04894  1.72732  1.08981  14.05354  0.01413     0.01415  5790.68019   7582.48768  3.35798          3055.0121     17.29121  0.00011  58459.90085  2.81107  0.16516   9832532.52803   43.6282  18.46963     58502.55    50.48602       43.59363   29.90648  70.26061   80.5    0.19085  -19.88779  0.93128 
   -5.05477  0.00221   8.81965     14.11106  1.81227  0.96725    1.9331   0.0994     0.07187  4608.09349   7768.56422  4.94571         3154.27481     18.10747  0.00071  58459.45523  0.24486  0.00427   7849284.13629  43.74133  18.46933  58502.10125    50.46881       43.57263   32.09306  69.53497   82.5    0.17544  -19.87754  0.99821 
   -4.63961  0.00456   8.66811     14.21707  1.79284  0.63932   3.22437   0.0697     0.06103  5845.99542     7792.313  4.70458         3031.90762     16.03906    1e-05  58459.87039  0.65734  0.01471   4603305.97744  43.98347  18.54236  58502.10125    50.47384        43.5606   30.69563  73.60682   79.5    0.18852  -19.92234  0.99393 
   -4.60476  0.00217   8.31706     14.02104  1.67721  1.23175    4.9302  0.04362     0.03138  4932.61756   7573.93983  4.80894         3217.74785     19.56817  0.02055  58459.90524  0.71556  0.01071    9778454.9199  43.66322  18.45574  58502.63149      50.489       43.58844   32.09306  68.78634   78.5     0.1956  -19.95244  0.99557 
   -3.94973   0.0058   7.81985     14.04551  1.55537  0.97653   3.21813  0.06598     0.06398  5328.47556   7698.09587  4.15842         3202.54329     18.67629  0.00264  58460.56027  0.54505  0.01868   7162036.29603  43.81925   18.4503  58500.62564    50.49134        43.6079   30.59962  65.63177   75.5     0.2028  -20.00265  0.99243 
   -3.66034  0.01037   9.37824     14.32122  1.99891  0.57703   2.40201  0.07124     0.07261  5775.77709   7743.70098  4.61314         2995.81091     16.87922    4e-05  58460.84966  0.47799  0.02491   3718859.82455  44.05499  18.49066  58500.62564     50.4767        43.5807   28.62949  73.20264   81.5     0.1921  -19.90969   0.9898 
   -4.32794  0.00324   9.16976     14.42426  1.91231  0.49016   3.40807  0.05446     0.05102  4726.28695   7793.09664   4.8623         3093.47693     18.33801  0.00121  58460.18206  0.45413  0.01105    2116236.3454  44.30012  18.38842  58500.62564    50.49233       43.61415   30.69563  65.53576   80.0    0.19672  -19.92921  0.99547 
   -5.03285  0.00295    8.8684     14.10727   1.8397  1.02711   6.47293  0.02954     0.02236  4937.77836   7706.70551  4.78409         3004.96715      16.5666    2e-05  58459.47715  0.94144  0.01907   8198220.92908  43.72418  18.46062  58500.62564    50.50231       43.62969   28.62949  62.49905   80.5    0.17949  -19.88348  0.99217 
   -4.04702  0.00439    8.8257     14.19215  1.84264  0.76291   4.52988  0.04795     0.04726  5545.70029    7819.1075  4.99975         3049.06266      19.7067  0.02828  58460.46298  0.83105   0.0199   5501073.28304  43.90234  18.44937  58502.10125    50.49309       43.60525   30.59962  68.35398   80.0    0.18647  -19.95373  0.99192 
   -4.47904  0.00261    8.6244     14.34053  1.79456  0.49179   4.56909  0.05109     0.05464  6073.95964   7674.63946  4.30815         2837.52484     16.93058    5e-05  58460.03096  1.00554  0.01193   2583238.45663  44.23918  18.42588  58502.63149    50.49063       43.59542   31.30391  65.27132   79.0    0.19398   -19.9362  0.99517 
   -4.61584  0.08682   9.49733     14.26295  1.77208  0.66348    5.4652  0.04143     0.02568  5001.86238   7555.30443  4.66365         3007.70609     16.28627    1e-05  58459.89416  0.81564  0.47448   4421764.68039  43.91653  18.45536  58500.62564    50.47356       43.58156   29.81047   70.1444   82.5    0.17165  -19.86012  0.80748 
   -4.15105  0.02836   8.21341     13.99358  1.63131  1.15288   5.85846  0.03806      0.0534  7247.20112   8067.97826  3.54364         2690.34222     17.44958  0.00016  58460.35895  1.83549  0.16616  10525558.93036  43.63009  18.47745  58502.63149    50.49405       43.58652   32.09306  68.65097   72.5    0.20156   -19.9806  0.93378 
   -4.32702  0.00975   8.66099     14.01644  1.76967  1.31346   5.29504  0.03324     0.02718  4969.95958   7992.20274  4.55538         2970.64131     18.48927  0.00171  58460.18298  0.78019  0.05163  11427954.23509  43.58363  18.47621  58500.62564    50.48522       43.58286   29.41864  71.32539   82.0    0.17078  -19.84977  0.97876 
   -3.54366  0.00975   8.04242     13.98966  1.60833  1.17561   4.46175  0.04146     0.04211  5450.36897   7491.39537  4.45902         3043.79809     16.27284    1e-05  58460.96634  0.79065  0.04352  10130821.11056   43.6588  18.50417  58502.10125    50.48962       43.58937   29.41864   71.5376   81.0    0.19103  -19.93859  0.98224 
   -4.23527  0.06223   9.10214     14.06611  1.79685  1.22387   4.19337  0.04773     0.04403  5569.36851   7635.66622  3.53952         2992.71629     17.14027    8e-05  58460.27473  0.77589  0.26097  10194964.86374  43.59668  18.48729     58502.48    50.46784       43.56188   32.09306  71.49393   82.0    0.18404  -19.89559  0.89453 
   -4.87579  0.00546   8.05807      14.2687  1.59614  0.50872  11.80674  0.01943     0.01441  5369.26945   7821.73011  4.36461         3128.34105     19.11729  0.00728  58459.63421  2.03043  0.06441   2792243.50299   44.2135  18.50095  58500.62564    50.47269       43.57336   30.69563  70.93239   76.0    0.18482  -19.94143  0.97354 
   -4.06886  0.01664  10.12536     14.15143  2.13862  1.43988   3.73506  0.06542     0.07737  6214.11457   7658.75125   4.8702         2919.39888     16.30451    1e-05  58460.44114  0.86037  0.06213  10137066.43517  43.58225  18.49962  58502.10125    50.48989        43.6029   29.81047  66.76476   78.0    0.20123   -19.9502  0.97399 
   -6.44693  0.00129    9.3222     14.07496  1.94034  1.53717   6.47917  0.03762     0.02588  4843.32661   7639.72332  4.56659         3185.93619     16.77155    3e-05  58458.06307  0.90664  0.00838  11086937.43681  43.57288  18.45669  58500.62564    50.49693       43.60628   30.59962  66.76476   81.0    0.17258  -19.88027  0.99648 
   -4.43226  0.00875   8.01762     14.61645  1.58202  0.22545  13.56044  0.01593     0.01828  5830.71289   7843.49999  3.86421         2754.55113     17.63668  0.00024  58460.07774  2.75007  0.11867    552342.43646  44.91776  18.49457  58503.46431    50.47797       43.56966   32.54084   70.9198   77.5    0.19132  -19.91656  0.95246 
   -4.27008  0.01983   8.24697     14.21168  1.56868  0.60895   7.85227  0.03281     0.03012  5722.36821   7804.77816  4.85383         3021.02431     18.26818  0.00103  58460.23992  1.53382  0.15575   3737547.11768   44.0592  18.47169  58502.63149    50.48789       43.59226   32.09306  67.09559   75.0    0.19798   -19.9313  0.93427 
   -3.71962  0.04333   8.33107     14.08825  1.62127  0.82261   4.65256  0.03697     0.04473  5744.54406    7739.3868   3.9059         2988.85146     17.45416  0.00016  58460.79038  0.91586   0.2016   6959497.52486  43.79472  18.44538  58503.46431    50.50465       43.61177   32.09306  65.04988   83.5    0.18869  -19.90134  0.91781 
   -4.73234  0.01249   8.35741      14.1864  1.64971   0.6565   5.19552  0.03829     0.03476  5363.04636   7602.01676  4.57225         3028.82739     16.17057    1e-05  58459.77766  0.89141  0.06491   4534806.18715  43.98555  18.42933  58502.63149    50.50577       43.61573   32.09306  65.27132   81.0    0.18584  -19.88938  0.97264 
   -4.09435  0.02418   9.94477     14.67505  2.03658  0.29324    5.7791  0.04888     0.04719  6140.18048   7818.59043  3.97504         3027.73095     18.63153  0.00238  58460.41565  1.29972  0.13975    835214.57148  44.66076  18.48054  58502.63149    50.47654       43.58177   31.30391  68.86318   74.5    0.19868  -19.95234  0.94158 
   -3.98978  0.02747   8.66053     14.22164  1.67912  0.72218   6.39154  0.03431     0.03367  5137.87096   7952.12407  3.95692         3110.65634     16.60379    2e-05  58460.52022  1.00647  0.17559   4214170.64793  43.99413  18.42641  58502.10125    50.47718       43.57939   31.30391  69.53497   76.5    0.19929  -19.93091  0.92748 
   -3.23413  0.00175   9.63662     14.40527  2.02173  0.53948   3.64517  0.04695     0.04882  5101.66619   7674.58945  3.89634         3273.19491     19.36875  0.01299  58461.27587  0.56594  0.00639   2696793.34053  44.17587  18.45932  58502.10125    50.50141       43.60039   29.90648  68.25797   80.0     0.1999  -19.94015  0.99731 
   -4.30901  0.04233   7.35403     14.06576  1.40589  0.76877   4.44344  0.05632     0.07055   6127.6017   7920.02045  2.63633         3137.98776     19.90146  0.04428  58460.20099  0.99524  0.18809   5215632.47794  43.96644  18.46592  58502.63149    50.47618         43.575   32.09306  70.52822   74.0    0.19935  -20.01479  0.92681 
   -4.86528  0.00207   7.87596     14.10938  1.55966  0.73324   7.47611  0.03437     0.02686  5521.96299   7741.18165  4.06485         2931.87073     16.13732    1e-05  58459.64472  1.35985  0.01545   5428736.53349  43.93457   18.4272  58502.10125    50.48769       43.60281   30.69563  66.66875   77.0    0.17609  -19.88508  0.99358 
    -4.2293  0.00818   7.39134     13.99816  1.42928   0.8853   8.99909  0.02549     0.02336  5425.23142   7572.06989    4.888         3111.97592     19.75219   0.0314   58460.2807  1.58002  0.07364   7312453.32235  43.82245  18.44017  58502.10125    50.50763       43.61691   30.69563  65.53576   78.0    0.19654  -19.97214  0.97015 
   -2.80744  0.02355   7.94605     14.03224  1.59938  0.97215   1.78051  0.06373     0.10921  5711.77939   7739.03829  4.43538         2793.40523     16.25441    1e-05  58461.70256  0.34651  0.04194   8083363.20839   43.7649  18.44912  58500.62564    50.47483       43.58132   29.90648   70.0484   84.5    0.18803  -19.90307  0.98314 
   -4.67749   0.0014    7.4247     13.92574  1.44668  1.02094   4.05052  0.04907     0.05258  5868.68809   7769.58542  4.37083         2949.61179     16.64701    2e-05  58459.83251  0.83219  0.00567   10424507.6425   43.6698  18.47414  58500.62564    50.49028       43.59946   30.59962  68.35398   80.5    0.18954   -19.8879  0.99762 
   -3.76869  0.00845   9.20063     14.31842  1.96203  0.65788   2.97886  0.05759     0.08044  5915.36271   7778.86909  2.63578         3047.23826      18.9028  0.00444  58460.74131  0.62178  0.02517   3558912.73182   44.0826  18.49974  58503.46431    50.50291       43.60647   30.69563  66.66875   76.0    0.20231  -19.96752  0.99004 
   -3.77646  0.04204   8.05366     14.67496  1.60713  0.19632   4.56309  0.04534     0.05228  5678.97039   7938.61354  4.44517         2960.53637     20.02858  0.05933  58460.73354  0.87786  0.19181    432453.77906  45.02697  18.48413   58503.3903    50.50968       43.62069   32.09306  66.86054   78.5     0.1941  -19.98696  0.92614 
   -3.96933  0.00891   8.42628     14.28932  1.67331   0.5275   4.45925  0.04678     0.04605  5174.70261   8102.83064  4.90321         3082.15902     16.23698    1e-05  58460.54067  0.71229  0.03971   2910826.11065  44.17713  18.43105  58500.62564    50.48399       43.59683   31.30391  66.86054   78.0     0.1927  -19.90815  0.98322 
   -4.97864  0.00364   7.51115     14.35921    1.498  0.38578   8.37067   0.0249      0.0219  4981.72476    8051.5502  3.34387         3275.46353     19.95714  0.05033  58459.53136  1.23922   0.0305   1500784.45311  44.51663  18.49545     58502.48    50.50475       43.61741   29.41864  67.94574   75.0    0.19622  -19.97732    0.988 
   -3.84005  0.00546   8.43893     14.03562    1.676  1.24952   4.20932  0.04285     0.04791  5104.39681   7793.67182  4.30866          3145.2863       18.554  0.00199  58460.66995  0.65423  0.02298   9406284.46956  43.66713  18.50918  58499.13799    50.48547        43.5888   27.07581  73.76306   78.5    0.19903  -19.93352  0.99029 
   -4.77223  0.01585   8.48575     14.07612  1.61884  0.95908  13.46715  0.01519     0.01227  4836.54882   7723.60984  4.42193         3171.17596     18.88372  0.00425  58459.73777   1.8792   0.2134   7623501.80711  43.73852  18.46275  58503.46431     50.5047       43.60683   30.69563  68.25797   83.0    0.18784  -19.89653  0.91117 
   -4.89066  0.02019   9.61519     14.16434  1.91455  0.92801  11.76159   0.0212      0.0165  5821.82827   7772.72725  4.76998         3082.95969     17.87306  0.00041  58459.61934    2.378  0.23742   7711261.23939  43.69787  18.49986  58500.62564    50.49086       43.58905   29.41864  69.77001   77.5    0.18843  -19.92381  0.90123 
   -3.98717  0.01094   8.05152     14.25225  1.58667  0.54101   8.50917   0.0282     0.02869  6077.86181   7684.65271  4.32714         2947.77707      18.3471  0.00124  58460.52283  1.87506  0.09309   2989165.07506  44.18203  18.48267   58503.3903    50.51383       43.61039   30.69563  71.03215   76.0    0.19985  -19.97241  0.96211 
   -4.93143  0.00293   8.12791     13.98137  1.63084  1.28527   5.71129  0.03897     0.03237  5274.34227   7904.22786  2.88884          3149.5392     17.98507  0.00054  58459.57857  0.94776  0.01673  10900287.76993  43.62386  18.47609   58503.3903     50.4771       43.57173   32.54084  69.22305   78.0    0.18093  -19.87674  0.99309 
   -3.32563  0.00192   8.12027     13.98311  1.59217  1.21854   4.79358  0.04099     0.05053  5798.29138   7534.42788  4.62217         3047.32917     18.67969  0.00266  58461.18437  0.96136   0.0092  10537401.88809  43.62896  18.44115  58502.10125    50.49943       43.61997   29.90648  65.53576   79.5    0.20277  -19.93221  0.99606 
   -4.56886  0.00121   7.96043     14.01559  1.58916   1.1103   4.30038  0.04624     0.05257  5539.89306   7690.28445   3.6071          3089.4846     16.07604    1e-05  58459.94114  0.78729  0.00518    8703120.2198  43.72847  18.46682  58499.13799    50.49914       43.61132   29.41864  67.94574   78.0    0.19576  -19.95033  0.99786 
   -4.95477  0.00144   8.11928     14.23406  1.66595  0.54421  11.52971   0.0173     0.01563   5427.2885   7942.96134  4.80509         2934.57629     19.59619  0.02192  58459.55523  2.02587   0.0166   3470527.34864  44.13108  18.51076  58499.13799    50.49329       43.60512   27.07581  71.08864   82.0    0.17812  -19.89964  0.99331 
   -3.32087  0.02841   9.32427     14.32706   1.8766  0.59583   3.68866  0.05041      0.0521  5309.90729   7448.36567  4.84685         3120.80985     17.10773    7e-05  58461.18913   0.6204  0.10478   3359661.01526  44.07669  18.46888   58503.3903    50.47775       43.56768   32.54084  71.04615   82.0    0.20212  -19.93551  0.95571 
   -3.68423  0.00535   8.75771     14.10455  1.80205  1.05924  10.80702  0.01991     0.02095  5556.05052   7686.88072  3.96502         3145.12051     19.72189  0.02928  58460.82577  1.99006  0.05786   7929959.71762  43.74056  18.52912  58499.13799     50.4611       43.55592   29.41864  75.18818   78.5     0.1984  -19.98298  0.97667 
   -4.18165   0.0019   8.49801     14.46811  1.74409  0.34714   6.84188  0.03254     0.03162  5831.03072   7829.26068  4.61475         2941.48595      16.7608    3e-05  58460.32835  1.38769    0.013   1354579.19484  44.51998  18.45297  58502.63149    50.48888       43.59209   32.09306  67.09559   77.5    0.18967   -19.9368  0.99467 
   -4.73791  0.05423  10.32134     14.16649  2.09655  1.38552   3.93572  0.06676     0.06078  5720.17986   7566.12308   4.8317         3038.04946     16.74725    3e-05  58459.77209  0.76819  0.21343   9634015.92334  43.57907  18.44755  58502.10125    50.48737       43.59759   31.30391  67.09559   77.5    0.19208   -19.9376  0.91089 
   -3.15211  0.00574   8.84051     14.36638   1.8256  0.51823   3.98658  0.05032     0.07051  6232.91402   7772.89584  4.24642          2785.1623     16.23002    1e-05  58461.35789  0.92387  0.02289   2451441.76118  44.24788  18.46967  58499.13799    50.51598       43.65681   27.12144  63.73089   75.0    0.20645  -19.96475  0.99067 
   -3.85221  0.02757   8.64848     14.06096  1.74622  1.48517   7.37865   0.0317     0.04393  5920.11104   8043.98302  3.12366         2967.67701     19.93417  0.04774  58460.65779  1.54264  0.20339   9159430.94903   43.6752  18.46788     58502.48    50.51739       43.64918   28.62949  64.18612   74.0     0.1972  -20.00008  0.92162 
   -4.33149   0.0011   9.04013     14.46301  1.92349  0.43166    2.6112  0.05771     0.06134  5018.32246   7729.86479   3.1432         3017.01937     18.69966  0.00278  58460.17851  0.39227  0.00287   1730716.13639  44.40236  18.46663  58502.10125    50.48819       43.59924   30.59962  68.58903   82.0      0.183  -19.88723  0.99886 
   -4.66381  0.00315    8.9029      14.4323  1.86312  0.40826   3.18821   0.0612     0.07062  5787.56327   7737.14839  3.52245         2999.24371     17.13449    8e-05  58459.84619  0.63704  0.01004    1872935.3412   44.3675  18.50075  58500.62564    50.47226       43.58302   29.81047  68.58903   82.5    0.18647  -19.90605  0.99589 
   -5.08753  0.00674   8.11941     14.40791  1.61564  0.38308   16.6521  0.01399     0.01161  5449.90682   7746.51684  3.98423         2909.44147     17.08587    7e-05  58459.42247  2.95036  0.11226   1511443.97514  44.47875  18.47058     58502.55    50.50879       43.61305   30.69563  65.53576   77.5    0.18515  -19.92236  0.95522 
    -4.0285   0.0016   6.94787     13.99309  1.32945  0.74781   3.23969  0.06908     0.07601  6025.40502   7788.17918  4.21005         2894.10219     18.50259  0.00177   58460.4815  0.70162  0.00518   6151813.83256  43.91981  18.43512     58502.55    50.49717       43.59627   30.69563   70.0484   77.5    0.19019  -19.92927  0.99786 
   -4.47755  0.00582   8.01995     14.00957   1.5826  1.18888   2.40146  0.10192     0.07798  5179.34034   7859.52929  4.08454          3244.5827     16.97733    5e-05  58460.03245  0.38428  0.01397   9044451.95192  43.70349  18.50843  58502.10125    50.48431       43.58076   30.59962  72.02166   73.5    0.19181  -19.96117  0.99418 
   -3.96729  0.01887   9.65064     14.14713   1.9021  1.34228   16.9506  0.01044     0.01332  5081.18842     7621.352  3.80646         3054.39678     17.66291  0.00026  58460.54271  2.61062  0.31987   8354185.02211  43.65706  18.46223  58500.62564    50.50315       43.60492   29.41864  67.94574   81.0     0.2009  -19.93741  0.87228 
   -3.73454  0.00471   8.11322     13.98223  1.57634  1.39055  10.71808  0.02355     0.02308  5485.48353    7948.8904   3.9367         3155.80905     16.16654    1e-05  58460.77546  1.92386  0.05048   10456413.3476  43.62872    18.465  58499.13799    50.50284       43.63131   27.86497   65.7398   74.5    0.20029  -19.93739  0.97864 
   -4.20558  0.04086   7.53259     13.89769  1.40068  1.15049   6.00879  0.03391     0.02423  5226.91374   7552.37851  4.58398         3058.18991     18.88014  0.00422  58460.30442  0.97927   0.2455  11821298.49173  43.58863  18.47357  58502.10125    50.47962       43.58386   30.69563  68.49302   81.5    0.17487  -19.88552  0.89992 
   -3.74531  0.01251   7.90209     14.05258  1.54034   0.9571  15.08839  0.01317     0.01366   5593.5681   7849.93373  3.83761          2796.3278     18.16832  0.00082  58460.76469   2.8161   0.1888   7010455.35577  43.81523  18.51842  58500.62564    50.47377       43.57417   29.41864  72.34524   78.0    0.18694  -19.92952  0.92602 
   -3.53079  0.01359   8.03321     14.36749  1.61605  0.38888   4.08808   0.0554     0.05986  6464.83727   7717.49408   4.1198         2781.06117     17.26998   0.0001  58460.97921   1.0192  0.05554    1782632.2146  44.41646  18.50844  58502.10125    50.47121       43.56318   32.09306  71.36757   77.0    0.19042  -19.94776  0.97755 
   -3.95991  0.01403   8.60503      14.0186   1.7148  1.32594   4.56262  0.04753     0.04193  5512.88276   7493.66629  4.68588         3086.26316     16.95002    5e-05  58460.55009  0.82718  0.06401  10822547.97623  43.59922  18.48845  58502.10125    50.47058        43.5569   32.09306  74.29544   78.5     0.1944  -19.93017  0.97308 
   -5.14069  0.00509   8.90672     14.03636  1.82575  1.31289   5.56865  0.03736     0.03544  5450.26903   7792.07844  4.66168         2917.06847     17.08773    7e-05  58459.36931  0.98676  0.02834  11375764.88278  43.57487  18.45644  58502.10125    50.47268       43.57962   32.09306  68.65097   81.5    0.17563  -19.86213   0.9881 
   -4.47114  0.04409   8.56894     14.41707  1.61713  0.38022   5.77921  0.03825     0.04259  5947.63653    7657.3252  4.62436         2994.85981     18.27077  0.00104  58460.03886  1.21951  0.25479   1615393.55687  44.40346  18.48767  58500.62564    50.47279       43.57357   30.69563  71.92565   79.5    0.20181  -19.93759  0.89353 
   -4.14742  0.00526   8.38311       14.131  1.70743  0.83079    4.1024  0.06282     0.07095  6344.76703   7756.21246  4.89551         2780.84495     17.80648  0.00036  58460.36258  0.98514  0.02157   6094908.12129  43.86941  18.50211  58499.13799    50.49454       43.60525   27.86497  69.49941   75.0    0.19511  -19.96175  0.99119 
   -3.73077  0.03655   9.37221     14.49643  1.91262  0.40416   4.19234  0.05285     0.05982  6314.61271   7761.77986  4.44568         2935.69269     16.23026    1e-05  58460.77923  0.99719  0.15322   1585857.82174  44.40653  18.48284  58502.63149    50.46558       43.55551   32.54084  71.04615   75.5    0.20495  -19.99223  0.93776 
   -3.40925  0.00634   8.08933     14.18455  1.59266  0.68633  10.99959  0.02124      0.0257  6115.91732   7922.35098  4.31152         2929.83728      19.0919  0.00686  58461.10075  2.45429  0.06968   4136849.87621  44.03847  18.47427     58505.48    50.52177       43.63898   32.09306   61.5117   72.5    0.21305  -19.98848  0.97142 
   -3.28361  0.00282   8.82331       14.583  1.75878  0.27797   1.82536      0.1     0.11497  5350.44348   7942.94962  4.91997         3168.10858      17.1564    8e-05  58461.22639  0.31171  0.00515    867549.84223   44.6845  18.46343  58500.62564    50.48729       43.60293   28.62949  67.94574   80.0    0.20503  -19.91983  0.99775 
   -4.88878  0.00309   8.19045     14.21573  1.65666  0.59283   3.70495  0.05902     0.04521   5530.4853   7766.48878  4.72745         3205.19821     19.35292  0.01252  58459.62122  0.67598  0.01145   3821295.98164  44.07925  18.46517  58502.10125    50.47808       43.58037   32.09306  68.65097   75.5    0.19241  -19.97288  0.99528 
   -4.36397  0.00703    9.2625     14.17331  1.91759  0.92602   9.80168  0.02468     0.01675  5275.68651   7548.31326  4.21786         3147.86285       16.312    1e-05  58460.14603  1.62737  0.06893   6877211.86159  43.78073  18.48116  58502.63149    50.48491       43.58999   31.30391  67.09559   76.5    0.18116  -19.92856  0.97167 
   -3.61771  0.03109   7.79022     14.16244  1.51839  0.66118    3.7984  0.05828     0.07865    6041.145   7693.15221  4.45168          2713.0867      19.1063   0.0071  58460.89229  0.82693  0.11808   4049601.91278  44.05972  18.48236  58505.06451    50.48982       43.58016   32.54084  69.18694   77.5    0.19818  -19.94839  0.95266 
   -4.61274  0.00221   7.88922     14.12921  1.61563  0.73519   3.36494  0.06224     0.06589   5952.2116   7777.30582  4.17731          2780.9918     19.01412  0.00574  58459.89726  0.71115  0.00743   5150043.97021  43.97131  18.44612  58502.10125    50.48323       43.60603   29.81047  66.51625   76.0    0.18532  -19.94806  0.99706 
   -3.77832  0.00604    7.1258     13.99141  1.35591  0.81714   3.20713  0.05505        0.06  5165.14473   7727.60235  4.75401           3105.919     17.35435  0.00013  58460.73168   0.5104  0.01938   6651175.57503  43.87251  18.51661  58502.10125    50.52476       43.64092   27.86497  69.49941   80.5    0.19582  -19.93452  0.99192 
   -5.05371  0.00107    7.5028     14.46222  1.47879   0.2652   5.70529   0.0373     0.03116  5547.28861   7801.98954  4.51251         3136.21214     16.49812    2e-05  58459.45629  1.04729  0.00612    919885.21408  44.72457  18.44503  58502.10125    50.51973        43.6318   29.90648  62.90913   79.0    0.18716  -19.94133  0.99748 
   -4.80625  0.00222   7.28806     14.39902  1.42908  0.30582   2.29123  0.10372     0.10448   5858.3049   7817.03269  3.64386         2889.00651     18.47446  0.00166  58459.70375  0.46907   0.0051   1122167.71128  44.64862   18.4863   58503.3903    50.46675       43.55553   32.54084   70.9198   76.5     0.1831  -19.92175  0.99793 
   -4.43425  0.01435    8.4452     14.19824   1.6403  0.66987  14.48126  0.01671     0.01188  5229.54971   7733.01037  3.19243         3117.15175      18.1494  0.00078  58460.07575  2.36245   0.2078   4359844.17359  43.99108  18.46131  58502.10125    50.47465       43.58339   29.90648   70.0484   79.5    0.17272  -19.88878  0.91561 
   -4.75475  0.01017   7.99213     14.06355  1.59726  0.90044   6.48656  0.03367     0.04534  6250.64662   7889.86698  2.43255         2948.23923     16.16771    1e-05  58459.75525  1.51179  0.06596   7069800.57564  43.81749   18.4742  58502.10125    50.48049       43.57106   30.69563  71.06825   75.5    0.19502  -19.93731  0.97344 
    -3.8216  0.00587   9.26717     14.11082  1.97241  1.28092    4.8652  0.04395     0.05782  6403.44624   7881.44008  4.46175         2725.92965     16.67311    3e-05   58460.6884  1.19002  0.02857   9441852.39431  43.65489   18.4579  58502.10125    50.47285       43.56234   32.54084   68.4154   74.5    0.19796  -19.96941  0.98857 
   -3.38913  0.01667   9.10295     14.05686  1.78631  1.28462  12.10945  0.01643     0.01246  4956.21515   7735.23282  3.96246         3078.70676     16.73043    3e-05  58461.12087   1.7744  0.20184  10578230.09733  43.57802  18.47183  58500.62564     50.5056       43.62547   29.41864  64.18612   82.5    0.17781  -19.85067  0.91576 
   -4.20883  0.00206   7.98686      14.4607  1.57894  0.30393   9.47859  0.02179     0.02201  5487.94456   7731.17762  3.47898         3076.97486     17.52495  0.00019  58460.30117  1.70291  0.01956   1120802.51071  44.61293   18.4987  58502.10125    50.48698       43.60171   29.81047  66.76476   81.0    0.18613  -19.88267  0.99181 
    -3.6651  0.07563   9.90434     14.69855  1.94151  0.28434   4.36288  0.05697     0.05939  5795.45567   7828.74873  3.28412         3036.18734     17.58852  0.00022   58460.8449  0.87413  0.32997    708767.05494  44.71483  18.43372  58502.10125    50.48571       43.60125   31.30391  65.27132   75.0    0.20194  -19.94911  0.86608 
   -3.92218  0.00111   7.74729     13.95002  1.58163  1.38386   3.41599  0.05966     0.09634  7008.21017   7906.30399  2.86609          2556.8746     18.29765   0.0011  58460.58782  1.00082   0.0038  11096409.67418  43.64447  18.50222  58500.62564     50.4903       43.59301   28.62949   71.5376   73.5     0.1946  -19.97673  0.99851 
   -3.97311   0.0175   8.25294     14.18689  1.58672  0.65097   9.04387  0.02834     0.02718  5729.35829   7632.88147  4.74821         3024.54298     17.12004    7e-05  58460.53689   1.7709  0.15829   4243720.24049  44.00838  18.46021     58502.48    50.46507       43.56268   32.54084   70.9198   79.0     0.1881    -19.939  0.93415 
   -3.39414  0.07738   9.02937     14.73269  1.83334  0.22778   2.18825  0.09097     0.15632  6659.65073   7877.77391  1.73991         2798.01619     19.15775  0.00799  58461.11586  0.57893  0.16933    475336.97692  44.94377  18.46278  58502.10125    50.51631       43.65904   27.07581  60.50053   73.5    0.19851  -19.95831  0.93292 
