 texplosion  fnickel    Pspin  log(Bfield)      Mns  thetaPB  mejecta    kappa  kappagamma     vejecta  temperature    alpha  cutoff_wavelength  log(nhhost)      A_V         MJD0  kenergy  mnickel             TSD   log(L0)  Peak_mag     Peak_MJD  log(E_rad)  log(Peak_lum)  Rise_Time    E_fold  tau_1  delta_m15     r_peak     frac 
  -12.35243  0.00117  7.17551     14.58538  2.14514  0.32459  3.15911  0.17895     0.01109  4749.73932   9996.05427  1.30899         2424.76551     21.08518  0.67593  59391.07202  0.42514  0.00368    692173.17472  45.04838  18.59726  59453.39081     50.5889       43.78273   43.73258  47.32453   38.5    0.17709  -20.16911  0.99923 
  -11.98281  0.00102  6.56086     14.00186  2.10478   1.1595  1.62773  0.26436     0.01425  4752.20625   9808.76286  0.23784         2483.16445     21.02225  0.58476  59391.44163  0.21928  0.00166   8341196.06906   44.0369   18.5147   59452.5451    50.59459       43.85966   35.82741  40.81939   38.5    0.18168  -20.14113  0.99969 
   -9.56234  0.00484  6.73596     14.61385  1.95384  0.39411  3.70427  0.23051     0.01044  5186.63616   9994.12699  0.20946         2243.18265     20.96538  0.51299  59393.86211  0.59443  0.01791    487304.15594  45.21514  18.54323   59452.5451    50.59547       43.82549    41.9277  43.68682   31.5    0.22401  -20.11816  0.99634 
  -12.70322  0.02449  5.69282     14.14785  1.65985  0.93634  2.65775  0.29555     0.01861  5254.93292   9579.00097  0.02232         2182.63069     21.09808  0.69632  59390.72123   0.4378  0.06509   2528387.11014  44.57542  18.51589   59452.5451    50.53125       43.74355   39.70294  47.37843   35.0    0.19086  -20.23689  0.98795 
  -10.23517  0.00116  7.34444     14.41643  1.96755   0.6477  2.54126  0.30997     0.01047  4706.98793   9645.64124  1.08463         2043.30485     20.81259  0.36084  59393.18927  0.33586  0.00294   1448107.79888  44.67005   18.5219  59453.39081     50.4047        43.6091     44.721  44.61969   34.0     0.2026  -19.92595  0.99929 
   -9.79447  0.01417   6.3187     14.34558  1.60187  0.49803   4.5467  0.14339     0.01054  5313.50421   9673.38068  0.51407         2636.97373     20.97656  0.52637  59393.62998  0.76575  0.06445   1209334.55602  44.78967  18.48664  59453.46794    50.61871       43.83872   40.81939  46.26198   35.0    0.20413  -20.12362   0.9844 
   -9.47035  0.00713   7.6499     14.17157  1.73097  1.42343  2.32366  0.27219     0.01898  4651.36967   9437.58797  0.58746         5077.15255     20.91296  0.45466  59393.95409  0.29989  0.01658   4268449.47257  44.10955  18.51451   59452.5451     50.5735       43.73378   49.00446  51.68337   38.5    0.18093  -19.98178  0.99474 
  -11.84877  0.00376  5.72039     14.18113  1.76447  0.52526   2.5601  0.30005     0.01373   6008.9918    9292.8066  0.35657         2005.48242     21.09428  0.69025  59391.57567  0.55143  0.00962   2328201.74781  44.63359  18.55397  59453.39081    50.37399       43.55922   44.36727  48.15669   35.5    0.21602  -20.30865  0.99827 
  -11.12241  0.02099  7.20258     14.40814  2.14209   0.9386   3.9131  0.27045     0.01348  5373.97386   9911.11845   0.8782         2034.72081     20.98929  0.54202  59392.30203  0.67412  0.08216   1575271.31784  44.68735  18.58438   59455.4756    50.61958       43.72563   39.70294  55.54231   35.0    0.20481  -20.11062  0.98361 
  -12.28684  0.00656  6.20234     14.29668  1.79843  0.83848  2.41827  0.31502     0.01356  4539.84495   9869.62403  0.03739         4087.51353     20.94674  0.49144  59391.13761  0.29731  0.01587   1638571.74384  44.72416   18.5332  59449.56528    50.28256       43.48512   43.99129  46.26198   34.0     0.1934  -20.03076   0.9969 
   -9.81188  0.06235  5.71207     14.06648  1.57121  1.15039  4.04418  0.23928     0.01187  5760.21866   9790.22624   0.3722         2321.64346     21.05655  0.63281  59393.61256  0.80045  0.25215   3504926.09534  44.40681  18.51855  59453.46794    50.55663       43.78017   43.54068  43.54068   34.0    0.21998  -20.24104   0.9508 
  -11.72982  0.00105  5.67402      14.1272  1.72096  0.80169  3.14694  0.25691     0.01338  5575.17572   9736.92477  0.03189           3142.394     21.10931  0.71456  59391.69463  0.58349  0.00331   2863970.54934  44.53986  18.52103  59453.46794    50.60513       43.80626   43.39455  46.40812   34.0    0.21763  -20.31748  0.99941 
    -9.5259  0.06646  6.08994     14.23523  1.52225  0.99897  5.09507  0.25704     0.01263   6170.8932   8778.69132  0.28758         2420.04312     20.90283  0.44418  59393.89854  1.15737  0.33861   1774434.71923  44.63305  18.50823   59452.5451     50.5108       43.70881   40.21128  49.12941   36.0    0.18011  -20.06185  0.92442 
  -10.86928   0.0384  6.71168     14.35857  1.87759  0.77384  3.28283  0.28493     0.02239  5655.51907   9497.96985  0.39456         2423.27427     21.01052  0.56918  59392.55516  0.62636  0.12606   1506422.35001  44.71084  18.53387  59453.39081    50.62842       43.85995   39.66275  44.69732   36.0    0.18859  -20.18971  0.97355 
  -12.69876  0.00478  4.88469     14.12113   1.5844  1.35427   3.9431  0.25626     0.01011   4982.9566   9893.98809  0.09913         2144.13619     21.05144  0.62541  59390.72568  0.58403  0.01885    2009530.7878  44.78794  18.57439  59447.58912    50.35603       43.49235    51.1543  53.50928   33.0    0.19866  -20.18533  0.99726 
  -11.92302   0.0013   5.2107     14.64613  1.55128  0.22202  3.40703  0.32519     0.01073   5435.9287   9566.63026  0.34461         3374.58488     21.07441  0.65938  59391.50142  0.60055  0.00443    199540.06873  45.72571  18.62602  59453.39081    50.51863       43.73909    41.9277  43.72604   35.0    0.18988  -20.25171  0.99923 
  -11.26107  0.00124   5.1133     14.37114  1.88921  0.99557  3.87034  0.29979     0.01348  5312.27996   9904.19625  0.09188         3736.45185     21.09818  0.69648  59392.16337  0.65154  0.00479    830253.01844  45.20851  18.56453  59453.46794    50.56217       43.74021   43.73258  50.04583   32.5    0.20184  -20.23231  0.99941 
   -9.27385  0.00195  6.85838     14.57015  1.64926  0.46432  3.89307  0.26812     0.21168  5333.09175   9153.69669  0.12362         5200.05136     20.76408  0.32271   59394.1506  0.66051   0.0076    521490.87801  45.09645  18.55771  59455.52492    50.62358       43.65021   44.79513  65.31103   45.5    0.15004  -19.91868  0.99794 
   -11.9411  0.00347  7.79481      14.1222  2.13056  1.21482  2.35072  0.28939      0.0169  5647.15372   8959.55298  0.09693         3515.77425     20.94144  0.48548  59391.48334  0.44718  0.00815   6847397.27754   43.9782  18.51932  59453.46794    50.52868       43.71882   40.81939  48.98327   37.5    0.19731  -20.09515  0.99796 
  -10.25238  0.33362  6.56604     14.35579  1.61295  0.67827  3.71408  0.23239     0.01244  5742.11215   9530.74503  0.23661         2265.81651     21.03552  0.60291  59393.17206   0.7305  1.23911   1254461.31283   44.7434  18.55455  59453.46794     50.6615       43.81069   36.60926  50.01013   34.5    0.20651  -20.19223  0.75717 
  -11.32135  0.00394  5.91675     14.34986  1.79312  0.61029  5.31425  0.15204     0.01514  5768.53887    9845.7976  0.06964         3131.59913     21.14635  0.77818  59392.10309  1.05487  0.02093   1163760.95491  44.91243  18.44866  59446.36164    50.46203       43.65433   46.26198  46.26198   35.0    0.19823  -20.35395  0.99624 
   -8.71517  0.01424  5.76635     14.51581  1.89503  0.41718  3.06088  0.24971      0.0115  5583.60448   9964.35508  0.70861         2563.79888     21.15475  0.79338  59394.70927  0.56925  0.04359     544023.0056  45.28904  18.51652  59453.46794    50.54595       43.73293   42.01615  50.04583   32.0    0.21953  -20.38518  0.99319 
   -8.72534   0.0883   5.4132     14.30614  1.79663  0.83703  3.88826  0.27015     0.01284  6132.05502   9404.99098  0.70094         2011.99259     21.15643  0.79644  59394.69911  0.87216  0.34333   1193726.15393  44.97949  18.56573   59452.5451    50.48136       43.70048   37.39206  44.73654   32.5     0.2021  -20.40622  0.95146 
  -11.20501  0.05883   5.6413     13.92607  1.42058  1.25705  3.08855  0.22438     0.01391  5320.65568   9730.70163  0.25012         2390.57651     21.01306  0.57252  59392.21944  0.52157  0.18171   5900542.52228  44.14766  18.54386  59453.46794    50.47919       43.66445   46.43742  47.34098   34.5     0.2129  -20.14307  0.95883 
  -12.47457  0.15622  6.71848     14.11157  1.43993  0.92238  3.78275   0.1727     0.01182  4968.25735   8990.61867  0.64148         2601.42182     20.91417  0.45593  59390.94987  0.55698  0.59093   3610488.51603  44.21508  18.57028   59452.5451    50.56684       43.79077   40.81939   43.5799   40.0    0.16904  -19.96808  0.83822 
  -11.76532  0.00218  6.90763     14.17691  1.83662  0.74445  1.66369  0.30649     0.01631  4533.18951   9897.46112  0.19354         5349.89594     20.90698  0.44844  59391.65913  0.20394  0.00363   3603029.45362  44.29754  18.53157   59452.5451    50.53608       43.77711    38.5487  43.54068   37.5    0.20066  -20.03247  0.99911 
  -10.98699  0.00239   6.1484     14.29741  1.82671  0.99522  3.67456  0.19409     0.01075  4602.89934   9958.85853  0.02429         3668.66609     20.99616  0.55066  59392.43745   0.4644  0.00877   1629988.35759  44.74081   18.4861   59455.4756    50.58557       43.77575   46.64706  48.15669   33.0    0.18509  -20.04255  0.99836 
  -13.10454  0.40769  8.95536     14.09494  1.61525  1.44257  4.36738  0.19118     0.01296   5699.4921   7069.24344  0.11792         3657.66614     20.93112  0.47408   59390.3199  0.84629  1.78053    7768640.8437  43.68257  18.51948   59452.5451    50.49159        43.6708   47.51643  48.98327   51.5    0.16153  -20.02303   0.5302 
  -12.42549  0.00712   6.4051     14.27393  1.69332  0.60994  2.93188  0.24547     0.01238  4735.26134   9789.23391  0.30043         3291.95084     20.93896  0.48271  59390.99895  0.39216  0.02087   1827060.02574  44.62278  18.50172   59452.5451    50.42239       43.62071   40.20744  47.32453   36.5    0.18706  -20.05613  0.99515 
  -13.65755  0.00873  4.45283     13.81108  1.24643  1.27451  2.49347    0.294     0.01343  4909.42386   9857.74119  0.02644         4887.11641     21.09347  0.68896   59389.7669   0.3585  0.02176    5477690.6344  44.32864  18.51266  59449.56528    50.50074       43.70079   45.18297  47.34098   35.0    0.18802  -20.22102  0.99614 
  -12.59156  0.00334  6.65726     14.11944  1.57638  0.83809   3.4457   0.2643     0.01159  5076.06852   9956.18222  0.12587         4728.44274      20.7383  0.30411  59390.83289  0.52961  0.01152   3742767.77805  44.24672  18.51714   59452.5451     50.5072       43.71074   42.44105  47.36161   42.5    0.21722  -19.90141  0.99676 
  -12.41224  0.02262  5.23682     14.02272  1.50116  1.25934  3.88553  0.23814      0.0102  5351.65011   9862.11326  0.15596         3769.33398     21.05048  0.62404   59391.0122  0.66382  0.08788   3443042.18214   44.4702  18.52196   59452.5451     50.5468       43.73186   43.09919  48.98327   33.5    0.21223   -20.2343  0.98408 
   -9.32865   0.0016  4.51868     14.37692  1.57177  0.89554  5.22346  0.19163     0.01163  5268.90596   9274.76343  0.04873         2819.49228     20.99749  0.55236  59394.09579  0.86502  0.00838    525280.37108  45.43482  18.52674  59453.46794     50.5548       43.77642   40.35742  46.26198   33.0    0.18314  -20.08646  0.99896 
   -9.94086  0.00157  5.41436     14.33237  1.72386  0.65855  4.04087  0.33461     0.01067   5893.8966   9510.42889  0.07833         3325.78249     21.06529  0.64568  59393.48359  0.83735  0.00635   1015460.16673  45.03159  18.48709   59452.5451    50.61392       43.84143   42.44105  41.95825   33.0    0.21389  -20.26321  0.99899 
   -9.19684  0.00424  4.47742     14.51456  1.76045  0.55387  5.14034  0.17921     0.04998  5537.14596   9933.98989  0.01442         4675.15169      21.1984  0.87726  59394.22761  0.94014  0.02179     306467.6282  45.72603  18.48781  59453.46794    50.62009         43.833   39.24096  47.37843   36.0    0.16547  -20.38648  0.99774 
  -13.93094  0.00158  5.81516     14.03814   1.6368  0.82946  2.01485  0.33937     0.01059  4739.62371   9538.04244   0.0293         4053.07643     20.94989  0.49501   59389.4935     0.27  0.00318   4311790.94813  44.31906  18.60141   59452.5451    50.45893       43.70386   39.66275  41.97603   35.5    0.19806  -20.02407  0.99935 
  -10.39289  0.09328  5.66707     14.01209  1.65508  0.79106  2.37139  0.25124     0.01352  5626.36754   9404.46505  0.49676         2651.27438     21.12197  0.73569  59393.03155   0.4478  0.22121    4668400.1245  44.31178  18.47615  59446.36164      50.506       43.67895   49.00446  48.96208   36.5     0.1971  -20.28575  0.95882 
   -9.67201   0.0919  5.76642     14.62918   1.8953  0.42994  3.72357  0.21842     0.01132  5244.28736   9943.54627  0.06535         4338.03132     21.09577  0.69262  59393.75243  0.61088  0.34221    322802.73345  45.51577  18.50781  59453.39081    50.56395       43.79091   42.44105  44.64032   32.0    0.20928  -20.26152  0.94954 
  -12.63237  0.03091  7.30886     14.17393  1.84529  0.49738  5.57335  0.33847     0.01601  9886.65745   8542.73287  0.70434         3098.99403     20.26468  0.10219  59390.79207  3.24969  0.17227   4108934.77439  44.19348  18.54305  59449.56528    50.34084       43.55772   42.91228  44.61969   52.0    0.13454  -19.67987  0.95177 
   -9.78551  0.00658  5.23449     13.86644  1.13749  1.46403  2.44557  0.32106     0.01409  5471.02246   5496.06777  0.02783         5054.31825     20.81011  0.35879  59393.63893  0.43666  0.01609   5353316.76439  44.15842  18.52267   59452.5451    50.65655       43.89885   40.95739  41.93585   40.0    0.22606  -19.95364   0.9955 
   -9.53325  0.00113  5.18675     14.85601  2.15807  0.33509  3.62339   0.2372     0.01154  5085.73116   9927.40292  0.18252         2453.29031     21.12108  0.73418   59393.8912  0.55905  0.00409    104626.81512  46.15348  18.47592  59453.46794    50.54133       43.76444   43.07871  43.54068   31.5    0.18368  -20.29062  0.99958 
    -10.878  0.00118  4.37156     14.25939  1.14523  0.38143  2.39945  0.32204      0.0117  4865.57509   9878.16163  0.72019         2170.80096     20.98705  0.53923  59392.54644  0.33885  0.00283    615450.64838  45.25727  18.53553   59452.5451    50.56011       43.79394   40.81939  43.54068   33.0    0.21145   -20.1024  0.99946 
  -11.95157  0.00489  6.04894     13.95924  1.72104  1.38713  3.47937  0.23968     0.01472  5712.78201    9989.8665  1.72627         2065.28762     21.08744  0.67947  59391.47287  0.67736  0.01703   7054698.47908   44.0928   18.5515   59452.5451    50.47176       43.64214   41.26999  51.70456   38.5    0.21403  -20.26615  0.99651 
  -10.90681  0.00306  7.34658     14.61916  2.05512  0.29175  3.66957  0.22615     0.01125   5995.3336   9346.92747  0.04629         4730.63875     20.97817  0.52832  59392.51763  0.78681  0.01124    594993.92265    45.075  18.55108   59455.4756    50.42877       43.61657   44.36727  48.15669   35.0    0.21473  -20.16168  0.99738 
   -9.70218  0.00993  5.94789     14.44678  1.60603   0.4939   3.5715  0.26207     0.01387  5288.86609   9906.29197  0.00644         3314.63544     20.95486  0.50072  59393.72226  0.59594  0.03546    674112.65397  45.09714   18.4943   59452.5451    50.47894       43.72853   40.17036  41.91903   33.5    0.22822  -20.07959  0.99249 
  -13.17746   0.0035  5.62948     13.61283  1.86611  1.40079  1.43817  0.33671     0.02483   5332.6461   9304.78961  0.60434         4046.86903     20.94984  0.49495  59390.24699  0.24396  0.00503  32660876.48511  43.52482   18.4575   59452.5451    50.52285       43.73181   44.79513  46.26198   50.5    0.15602  -20.06024  0.99904 
   -11.5723  0.00159  5.70694     14.53491  1.82278  0.40104  2.21375  0.32752     0.01618  5056.10154   9740.65705  0.06125         2030.12771     21.08145  0.67015  59391.85214  0.33759  0.00353    469394.02487  45.34524  18.50374   59452.5451    50.61182       43.85964   37.36682   41.0887   33.5    0.18499  -20.24622  0.99943 
  -11.78012  0.00287  8.44893     14.25839  1.94196   0.7272  5.08027  0.17441     0.01047  5833.89134   9093.37598  0.26404         3634.64116     20.68575  0.26945  59391.64432  1.03141  0.01457   3916330.14962   44.1106  18.54917  59453.46794    50.58592       43.75033   39.35255  54.42586   46.5      0.165  -19.84508  0.99506 
   -8.11613  0.01323  7.49269     14.09247  1.79081  1.54012  1.57927   0.3128     0.01267   4832.9764   8853.50683  0.10478         5267.80341     20.68514  0.26907  59395.30832  0.22005  0.02089   6098085.38005  43.98743  18.46455  59449.56528    50.51944        43.6993   47.51643  48.98327   35.0    0.23116  -19.86176  0.99387 
  -14.09655  0.01497  5.94725     14.28653  1.50164  0.56069  4.39801  0.20433     0.01081  4950.25103    9786.5349  0.83407         2094.07057     20.92979  0.47263   59389.3279  0.64289  0.06583   1318100.70086  44.77683  18.53876   59455.4756    50.62071       43.81632   44.79513  46.26198   37.0    0.19064  -20.02706  0.98452 
  -11.37308  0.00393  5.91959      13.9429   1.7603  1.23481  3.30145  0.26279     0.01466  6262.10665   9845.27691  0.92885         2252.16619     21.11449  0.72312  59392.05136  0.77228  0.01297   7450646.63398  44.09765  18.62432  59453.39081    50.26428       43.43178   47.53762  48.96208   37.5    0.21907  -20.34031  0.99751 
  -12.74428  0.00218  6.19174      14.0533  1.75444  1.06516  2.94333  0.25971     0.01297  5275.27877   9860.48693  0.10342         2632.21509     21.00273  0.55906  59390.68017   0.4886  0.00642   4886250.04671  44.24038  18.51821   59452.5451    50.59538       43.84026   40.81939  40.81939   34.5    0.21943  -20.17541  0.99867 
  -13.86355  0.00331  5.41047     13.94876    1.516  1.03043  4.11541   0.2742     0.01215  5855.74616   9803.60171  0.06319         2512.86092     21.04511  0.61636  59389.56089  0.84179   0.0136   5217598.81041   44.2656  18.53398   59452.5451    50.42825       43.65721   41.97907  41.95825   42.0    0.20645  -20.21516  0.99731 
  -10.52125  0.00231   5.6815     14.15967  1.64858   0.7885  2.53602  0.28529     0.01378  5119.56954   9988.22322  0.09662         3420.76856     21.04747  0.61973   59392.9032   0.3965  0.00587   2368660.96554  44.60253  18.50188  59453.39081    50.57296       43.80012   40.81939   43.5799   33.0    0.21942   -20.2087  0.99889 
  -11.73437  0.00772  6.58712     14.61797  1.89719  0.38043  3.16256  0.30995     0.01716  5542.69517   9415.63793  0.00296         5906.07024     21.02155  0.58382  59391.69007  0.57957  0.02441    444003.84831  45.26218  18.47038   59452.5451    50.67802       43.92289    38.0981  43.54068   34.5    0.19868  -20.17071  0.99503 
  -12.19678  0.07624  5.35745      13.9607  1.38664  1.11957  2.98839  0.22927     0.01907  5355.38932   9279.98496  0.18647         3171.95001     21.06984  0.65248  59391.22767  0.51127  0.22783   4428923.33821  44.30659  18.55083   59455.4756    50.54425       43.75242   42.47813  47.32453   39.0    0.17308  -20.23057  0.95242 
  -12.48289  0.01692  5.88491     13.78967  1.86351  1.34886  3.85126  0.16172     0.01001  5812.00803   9414.19117  1.51239         2229.89808      21.0662  0.64704  59390.94155  0.77604  0.06516  15786782.30622   43.8014  18.51256  59453.46794     50.6075       43.81107   43.54068  46.26198   41.0     0.1831  -20.24306  0.98802 
  -10.14208  0.00265  8.21466     14.27352  1.84817  0.95637  1.95893  0.32025     0.01139  4291.28453   6681.78118  0.52557         4796.57575     20.67135  0.26066  59393.28237  0.21519  0.00519   3286190.24856  44.18971  18.50851   59452.5451    50.53944       43.75647   40.17036  44.64032   43.0    0.20131   -19.8025  0.99826 
  -12.55108  0.00346  5.21059     13.78055  1.43194   1.3459  3.28625  0.13469     0.01016   4773.3467   9930.27444  0.17621         3962.42462     21.05106  0.62486  59390.87336  0.44666  0.01136   9917880.53925  43.99458  18.56141   59452.5451    50.53112        43.7672    35.5581  43.80999   39.5    0.17918  -20.17224  0.99768 
   -9.23245  0.00214  5.76058     14.62177   1.6347    0.287  3.26309  0.24289      0.0114  5207.81192   9355.54484  0.54392         2883.26678     21.06231  0.64127  59394.19199  0.52792  0.00699    287501.39958  45.50271  18.53477  59453.46794    50.53647       43.75385   42.44105  44.64032   35.0    0.18957  -20.19195  0.99863 
   -8.48711  0.00785  7.60882     14.73603  1.90047  0.40868  5.59154  0.24235     0.05786  6102.94726   9158.99913  1.16954         2372.44513     20.76536  0.32366  59394.93733  1.24233  0.04389    344547.02896  45.24782  18.49623   59455.4756    50.53008       43.72052   47.51643  46.26198   51.5    0.13754  -19.90327  0.98829 
  -12.51325  0.00123  6.54602     14.21475  1.85481  0.72056  2.79646  0.23842     0.01047    4986.319   9678.26455    0.109         2553.60791     20.97811  0.52824  59390.91119  0.41476  0.00344   2745164.39608  44.46662  18.54313  59453.39081    50.49835       43.73364   40.17036  41.95825   34.5    0.21272  -20.09602  0.99926 
  -12.64753  0.00765  6.84493     14.70372  1.95509  0.32917   4.4788  0.19103     0.01233  5196.96632   9931.26716  0.04928         5800.69045     21.00124  0.55715  59390.77691  0.72159  0.03427    332874.55898  45.36699  18.51407   59452.5451    50.61558       43.82554   40.81939  46.26198   34.5    0.21238   -20.1427  0.99281 
  -11.37084  0.00177  5.74808     14.08368  1.58814  1.18633  2.59475  0.27376     0.01437  4928.03683   9805.20011    3e-05         5139.78285     20.99128  0.54451   59392.0536   0.3759  0.00459   3314227.53863  44.43031  18.54849   59452.5451    50.54502       43.79981   38.40256  40.96553   33.0    0.20406  -20.10585  0.99906 
  -12.25948   0.0091  6.60083     14.02441  1.65929  1.31086   2.7684  0.25352     0.01419  5063.37913   9470.28947  1.15253         2203.82537     20.88932  0.43058  59391.16496  0.42339   0.0252   5999483.94988  44.07146  18.50963   59452.5451    50.51194       43.68682   45.21867  50.02658   36.5    0.18882  -20.03238  0.99357 
  -10.69098  0.00138  5.56359     14.28143  1.88262  1.31218  3.27128  0.31262     0.01486  4917.81734   9974.76314  0.15752         3988.05051     21.08147  0.67019  59392.73346  0.47194  0.00452    1480572.7581  44.88247  18.47388  59453.46794    50.47961        43.6947   44.36727   45.4354   34.0    0.17918   -20.1705  0.99934 
  -12.36578  0.00557  4.51401     14.08759  1.40896  0.30444  1.99797  0.27525     0.01262  5230.78967   9855.24678  1.56078         2353.81062     21.04745  0.61969  59391.05867   0.3261  0.01112    1780976.2592  44.85796  18.53063  59453.46794      50.551       43.75412   40.67325  46.40812   39.5    0.19637   -20.1956  0.99814 
    -9.9064  0.00225  6.33607     14.21378  1.76011  1.03935  4.26376   0.2397      0.0144  5815.87408   9914.46353  1.01165         2002.63574     20.99718  0.55196  59393.51805   0.8603  0.00959    2451549.3115  44.52131  18.52757  59453.46794    50.58541       43.77766   43.09919  48.98327   36.5    0.21962  -20.17659  0.99797 
   -9.61399  0.38242   6.2454      14.0406  1.57519   1.0871  2.87012  0.27725     0.01762   6095.9912   9634.23492  0.41779         2735.46086     21.09491  0.69126  59393.81045  0.63623  1.09759   4732265.12164  44.19999    18.598   59452.5451    50.61847       43.84791    37.8288  43.80999   35.5    0.21423  -20.32468   0.7862 
  -10.85903  0.00107  5.74865      14.1239  1.71614  1.43744   2.8826  0.24308     0.01014  4761.83401   9962.06159  0.03921         4363.57984     21.02048  0.58238  59392.56541  0.38991  0.00309   2976513.73354  44.51056  18.56514  59453.39081     50.5446       43.76584   39.66275  44.73654   32.5    0.21212  -20.11669  0.99944 
  -10.09717  0.00163  6.90538     14.47908  1.73817  0.41544  4.92484  0.12922     0.01178  5357.46371   9913.34845  0.35785         2790.21103     20.94533  0.48985  59393.32728  0.84321  0.00803    847472.12682  44.90244  18.54744   59452.5451    50.54056        43.7686   42.07384  43.54068   35.5    0.20486  -20.09354  0.99792 
   -9.88792  0.00143  5.83391      14.0445  1.62426   1.2823  3.57139  0.18565     0.01764  5358.37318   9906.36412  0.39048         2028.45736     21.06999   0.6527  59393.53652  0.61169  0.00511   4182103.73053  44.32619  18.50091  59453.46794    50.55093       43.75793   42.01615  47.32453   35.5    0.19133  -20.23699  0.99896 
   -9.30577  0.00585  5.38019     14.48427  1.85234  0.67372  5.06201  0.22406     0.01081  5311.10819   9786.39163  0.12613         4785.37136     21.07343   0.6579  59394.11867  0.85177  0.02959     535297.9452  45.34638  18.48258  59453.46794    50.59353       43.84172   39.71976  41.91903   33.5    0.18582  -20.21802  0.99589 
  -12.31723  0.00469  6.47437     14.17454  1.85922  0.74894  3.23361  0.26205     0.01279  5699.40101   9061.57098  0.54751          2096.5186     21.03914  0.60795  59391.10722  0.62658  0.01516   3239338.82769  44.40532  18.48833  59453.39081    50.62435       43.86916    38.5487  43.54068   37.0    0.18904  -20.21166  0.99683 
  -11.58354  0.00237  5.47315     14.52424  1.68306  0.38657  4.21329  0.33557     0.01046  5681.31192   9917.07334  1.94273         2011.50065     21.02035  0.58221  59391.84091  0.81123  0.01001    418699.20588  45.39657  18.49095   59452.5451    50.52925        43.7264   44.36727  48.15669   37.0    0.21114  -20.19985  0.99832 
   -9.56724  0.00963  5.02847     14.24688  1.70313  0.78108   3.6213  0.30688     0.01083  5821.48155   9996.31438  0.19488          2814.4744     21.14589  0.77734   59393.8572  0.73208  0.03488   1282869.28204  44.98904   18.5037  59453.39081    50.53837        43.7379   45.62172   45.4354   31.5    0.22416  -20.37611  0.99516 
  -10.94066  0.03547  4.44269       14.211  1.47505  0.69566  4.02956  0.22302     0.01062  5451.62058   9981.64892  0.15502         2172.76285     21.13913  0.76534  59392.48378  0.71439  0.14293   1023070.11915  45.13245  18.51597  59453.46794    50.64911       43.84722   40.67325  46.40812   32.0    0.20477  -20.37795  0.98112 
  -10.02639  0.00118  5.89632     14.29867  1.87748  1.33158  9.18985  0.08745     0.47164  4941.36393   9972.82634  0.10218         2241.15115     21.01059  0.56926  59393.39805  1.33853  0.01082   1531864.59241  44.81604  18.48872  59449.56528     50.6414       43.90727   38.40256  40.96553   37.5    0.17404  -20.11324  0.99822 
  -10.53341  0.01078   6.4354      14.0014  1.58971  1.34057  4.34229  0.23747     0.01506  6644.85087   9491.69809  0.11885         3834.62851     20.92564  0.46813  59392.89103  1.14371  0.04679   6074188.66393  44.06952  18.47753   59452.5451    50.63211       43.87715   38.48382  43.60556   42.5    0.20281  -20.13763  0.98797 
  -10.31783  0.00386  5.81343     14.33864  1.92514  1.11886  4.18462  0.31141     0.01499  5423.46345   9943.13623  0.19178         2023.87104     20.99883  0.55406  59393.10661  0.73424  0.01616   1270157.29098  44.92059  18.53479  59453.46794    50.53823       43.74334   42.47813  47.32453   36.5     0.2063  -20.14669  0.99752 
    -8.7285  0.00106  5.82694     14.36661  1.46093  0.64255  2.17149   0.3353     0.03139  4939.67993   9821.83937  0.67856         2959.46498     20.90511  0.44651  59394.69595  0.31607  0.00229     851343.5335  44.97249  18.60101   59452.5451    50.46771       43.65325   42.07384  48.98327   35.5    0.18041   -19.9879  0.99946 
  -12.02924  0.00198   5.4575     13.76876  1.53988  1.16371  2.44897   0.2978     0.01123  5380.85697   9322.10368  0.93464         2112.47569     20.94215  0.48627   59391.3952  0.42297  0.00486  12352800.74235  43.89058  18.52159   59452.5451    50.50458       43.71379   42.44105  44.64032   38.5     0.1983  -20.05931  0.99899 
  -10.63897  0.00575  5.99734     14.01171  1.73528   0.8366  1.79674  0.25751     0.01406  4833.50102   9833.63699  0.64432         2769.09132      21.0447  0.61579  59392.78548   0.2504  0.01033     5491473.206  44.21261   18.6043  59453.46794    50.55954       43.79231    38.0981  43.54068   38.0    0.18834  -20.13845   0.9979 
   -9.07591  0.00269  5.41956     14.11885  1.56149  1.53978  3.94527  0.23148     0.01107  5409.81077   9463.77981  0.19555         3060.46068     21.03214  0.59822  59394.34854  0.68876  0.01062   2463646.90637  44.60288  18.57849   59455.4756    50.46702       43.60085   47.49847  55.46917   33.0    0.20958  -20.16576  0.99805 
  -13.36058  0.00792  4.90513      13.9391   1.4397  0.79521  3.49319   0.2784     0.01106  5689.33155   9662.61574  0.49525         2068.49034     21.08708   0.6789  59390.06386  0.67449  0.02765   4257898.39134  44.41662  18.53396   59455.4756    50.51644       43.71015   44.79513  46.26198   36.0    0.20518  -20.29464  0.99512 
   -12.0449  0.00854  6.93238     14.25082  1.86569  0.60665  3.16106  0.26484     0.01435   5676.8808   9602.25069  0.10291         2329.71084     20.95863  0.50508  59391.37954  0.60769  0.02698    2622887.6378  44.43914   18.5564  59453.39081    50.61607       43.83135   43.54068   43.5799   39.5     0.2139  -20.10481  0.99352 
    -9.2836  0.00281  8.51412     14.24526  1.97573  1.09937  2.73483  0.22264     0.02187  5486.73373   9503.80011  0.17088          5776.6567     20.82307  0.36965  59394.14084  0.49112   0.0077    4298278.8455    44.071  18.52473  59449.25919     50.4114       43.58391   47.53762  48.96208   36.5    0.20928  -19.99624  0.99749 
  -10.52599  0.05122   6.1344     14.28193  1.72647  0.81213  4.83357   0.2619     0.01015  5879.23047   9743.75879  0.58271         3140.77693     21.03012  0.59545  59392.89845  0.99664  0.24755   1646845.96131  44.71381  18.48714   59452.5451    50.56886       43.79117   42.07384   43.5799   37.5    0.19707  -20.19531   0.9519 
  -10.83256  0.07809  6.47369     14.08898  1.58524  1.25573  4.40064  0.16968     0.01099  5303.59793    9871.2977  0.49992         3281.96325     20.98144  0.53232  59392.59189  0.73839  0.34364    4095022.7185  44.23438  18.56705   59452.5451    50.54581       43.79043   33.00763  43.63917   35.0    0.20243  -20.12232  0.91775 
  -13.20664  0.00244   6.6604     14.08789  1.79332  0.84114  2.02346  0.24661     0.01839   4814.3996   9752.68804  0.11589           5917.199     20.96589  0.51359  59390.21781  0.27977  0.00493   4928215.89035  44.18281  18.48669   59455.4756    50.54975       43.76718   42.09657   45.4354   39.0     0.1894   -20.1005  0.99883 
  -10.16828    0.005  5.82673       14.275   1.7516  0.94442  4.60817  0.20352      0.0102  5230.44813   9785.26376  0.63501         2133.72131     21.02446  0.58774  59393.25616  0.75203  0.02303   1556354.52224  44.78932  18.56731  59453.46794    50.74855       43.95626   33.00763  46.36047   33.0    0.20068  -20.16124  0.99589 
  -10.51382  0.06491  5.51373     14.22824  1.62713  0.66863  4.23048  0.20087     0.01038  5692.28828   9624.94257  0.38699         3335.22976     21.13918  0.76543  59392.91062  0.81769  0.27461   1605665.56689  44.79172  18.51517   59452.5451    50.54539       43.75985   40.35742  46.26198   34.5     0.2048  -20.36665  0.95252 
  -11.50401  0.01806  5.70312     14.53169  1.68336  0.47825  4.48178  0.24676      0.0129  5194.69725   9909.79697  0.90952         2290.00927     20.97146  0.52021  59391.92043  0.72144  0.08095    439386.07245  45.33995  18.57445   59452.5451    50.50659       43.73246   43.39455  43.68682   35.5    0.18172  -20.10951  0.98551 
  -12.93851  0.00804  7.99803     14.29073  2.02026  0.86974  8.92173  0.08652     0.15494  5436.07804   9107.65301  0.36358         2779.61793     20.95873   0.5052  59390.48593  1.57271  0.07171   3145820.81725  44.27055  18.50733   59452.5451     50.4786       43.68333   43.73258  47.32453   53.0    0.14049  -20.06748  0.98032 
  -12.82017  0.00104  5.57262     13.79234  1.48773  1.55652  1.77107  0.26193     0.01645  4387.78886   9903.41784  0.32136         4896.37312      21.0201  0.58188  59390.60428   0.2034  0.00184  11162713.30736  43.90148  18.55655  59453.39081    50.60118       43.82202    37.8288  46.53128   42.0    0.16461  -20.11297  0.99959 
  -10.61888  0.03613  8.38604     14.53969   1.8439  0.49198  5.00826  0.17333     0.01239  5711.02408   8835.55899  0.52316         2109.51337     20.75193   0.3138  59392.80557  0.97441  0.18095   1002972.09179  44.68618  18.53753   59452.5451    50.60351       43.82893   40.95739  44.65714   37.0     0.1863  -19.89625  0.94049 
   -9.41684  0.00308  6.24185     14.19664  1.86607  1.08131  2.84615  0.21728     0.01233  5214.84853   9481.84742  0.01293         5043.06636     21.05428  0.62951   59394.0076  0.46171  0.00876   2729533.91074  44.51306  18.50106   59455.4756    50.52671       43.75217   41.26999  43.54068   33.5    0.20633  -20.20621  0.99835 
  -11.92061  0.00506  6.33931     14.28989    1.893  0.58845  2.45831  0.23476     0.01211  4875.72286   9950.38564  0.14882         3547.64231     21.06043  0.63849  59391.50383  0.34861  0.01245   1858948.83221  44.67264  18.55214  59453.46211    50.60823       43.81812    41.9277  46.40812   35.0    0.20171  -20.18638  0.99759 
   -10.8907   0.0073    7.166     14.20574  1.92901   1.4711  4.22751  0.16779     0.01444  5422.67816   9580.07802  0.18295         3803.65526     21.00009  0.55567  59392.53375  0.74155  0.03086   3566384.41926   44.2914  18.54854  59453.46794    50.44128       43.67104   43.07871  43.54068   35.0     0.2011  -20.14535  0.99274 
  -10.24866  0.00219  7.35226     14.52347    1.992  0.62039  5.12913  0.26267     0.01024  6032.79055    8769.5511  0.09685         3241.71717     20.87178  0.41353  59393.17578  1.11354  0.01126    897458.94932  44.88228  18.50908  59453.39081    50.52389       43.73653   40.17036  44.64032   35.0     0.1937  -20.02081  0.99736 
  -10.60787  0.00791  6.83301     14.22997  2.11689  1.08343  4.96622   0.1505     0.01051  5674.78115   9769.95962  0.02062         3531.23456     21.10548  0.70829  59392.81657  0.95401   0.0393   3182701.91112  44.42252  18.58165   59452.5451    50.40454       43.60442   41.26999  46.26198   34.0    0.21701  -20.31594  0.99265 
   -14.5357  0.01177  5.58063     14.05632  1.79492  0.63222  3.28589  0.30103     0.01026  5498.80708   9911.30508  0.11598         3905.64909     21.06926  0.65161  59388.88875  0.59267  0.03867    4004882.5495  44.42693  18.48232   59452.5451    50.57689       43.79586   42.47813  44.60324   42.0    0.20048  -20.23723  0.99347 
  -11.72017  0.01199  5.23014     14.42605  1.30129  0.37711  6.60313  0.11336     0.13294  4831.71838   9841.53412  0.35621         2646.27696     20.97207  0.52095  59391.70427  0.91956  0.07918    464643.46556  45.27907  18.53914  59453.46794    50.51229       43.71079   42.47813  47.32453   41.5    0.16605  -20.04274  0.98239 
  -12.27961   0.0041  6.50584     14.26387  1.95593  1.28492  2.68845  0.31254     0.01076  4378.57914   9563.68021  0.26614         4016.73459     21.00002  0.55558  59391.14483  0.30746  0.01103   2280575.78766  44.57555  18.56096  59453.46794    50.54113       43.76424   40.95739  44.65714   36.0    0.17424  -20.02369  0.99791 
   -9.38686   0.0066  7.98448     14.16476  1.61199  1.11628  4.01738  0.20326     0.01027  5284.94588   3105.41673  2.19347         3420.10168     20.65191  0.24925  59394.03758  0.66935  0.02653   4468299.17394  44.02157  18.49553   59455.4756    50.55278       43.76348   42.09657   45.4354   42.0    0.20469  -19.84915  0.98977 
  -10.57943  0.01043  5.95844       14.139  1.79627  1.12646  3.52357  0.28854     0.01121  5637.88972   9541.91884  0.06561         4270.88273     21.08167  0.67051  59392.84501   0.6681  0.03676   3122199.10192  44.47849  18.49157  59453.46794    50.61584       43.83066   42.47813  44.60324   33.5    0.21743  -20.25106  0.99334 
  -13.99962   0.0018  5.39892     14.08253  1.57413  1.02811  4.03864  0.20183     0.01116  4977.40212   9663.69865  0.03064         2589.46869     21.04966  0.62286  59389.42483  0.59685  0.00727   2913399.42935  44.53687  18.50987  59453.46794    50.43438       43.62823   42.09657  48.15669   35.5     0.1751  -20.19565  0.99867 
  -10.04839  0.00316  5.32247     14.09745  1.25445  0.83118  4.49594  0.17662     0.02009  5734.92572    9691.3629  0.27997         3172.21974     20.97015  0.51866  59393.37606  0.88207  0.01423   2106709.66031  44.59147  18.48958  59453.46794    50.54903       43.73745   42.44105  47.36161   36.0    0.19521  -20.12242  0.99648 
  -10.53406  0.00332  4.95916     14.05833   1.3999  0.87813   2.6584  0.24673     0.01776  5188.72351    9773.5915   0.0157         2327.44977     21.09263  0.68763  59392.89039  0.42694  0.00883   2443784.36162  44.63606  18.53175  59453.39081    50.59941       43.82036    40.9172  44.69732   34.5    0.18655  -20.24364  0.99838 
  -11.91087  0.02465  7.28642     13.89838  1.63757  1.45402  6.21666  0.21268     0.01751  8579.32755    9679.2828  1.20734         3649.53414      20.6978  0.27703  59391.51357  2.72955  0.15322  12890861.49763  43.64774  18.50577  59453.39081    50.55672       43.76919   44.79513  46.26198   51.5    0.13444  -19.82981  0.95115 
  -10.27432  0.17465  4.62626     14.16152  1.48908  1.15055  3.39509  0.33376     0.01565  5616.42523   9896.53306  0.25209         3049.55677     21.10448  0.70666  59393.15013  0.63885  0.59297   1406513.48606  44.96316  18.53493  59455.64453     50.4823       43.57758   42.09657  57.32269   33.0    0.19979  -20.31205  0.92179 
  -10.80846  0.00301  7.29186     14.42254  1.86165  0.64957  2.00146  0.26544     0.01207  4087.50761   9763.03816  0.15458         5428.46037     20.81423  0.36221  59392.61598  0.19948  0.00602   1313129.40033  44.69476  18.58861   59455.4756    50.48883       43.65919   43.54068  51.70456   34.5     0.1869  -19.86587  0.99844 
  -13.76358  0.00104  5.01211     13.74921  1.37858  1.30619  3.83182  0.28135     0.01029  5935.07067    9909.7405  0.73001         2657.94528     20.96974  0.51816  59389.66086  0.80516  0.00399  10206266.10023  43.99937  18.54174   59452.5451    50.58961       43.81965   41.97907  41.95825   45.0    0.18306  -20.14903   0.9992 
   -10.5803    0.005  6.38496     14.23657  1.84789   0.7648  2.28281  0.31012     0.01545  5148.78362   9984.36638  0.71699         2147.54627     21.02528  0.58885  59392.84415    0.361  0.01142   2353219.47805  44.55354  18.57658  59447.58912    50.27433       43.40954    51.1543  53.50928   33.5    0.21907  -20.17929  0.99769 
   -9.32882  0.00343  7.46684     14.22881  2.03481  0.99866  3.61404  0.16894     0.01408  5533.40454   9977.67977   0.3472         3176.93369     21.02469  0.58805  59394.09563  0.66009  0.01241   3672806.29123   44.2661  18.54623   59452.5451    50.61005       43.80758    41.9277  46.40812   34.0    0.22316  -20.18218  0.99702 
    -9.0561  0.00654  5.65914      14.3619  1.92493  1.42947  4.90883  0.22372     0.01125  5534.34181   8763.40699  0.05783          2556.1898      21.0253  0.58888  59394.36834  0.89689  0.03211   1081278.37543  45.01382  18.54286   59452.5451    50.55056       43.78867   40.17036  41.95825   34.5    0.18395  -20.12946  0.99536 
  -11.19128  0.00229  6.52354     14.09832  1.81656  1.56519  2.79488    0.249     0.01201   4769.0104   9924.65961  0.44098         2700.64111     20.97109  0.51978  59392.23316  0.37918  0.00639   4564516.78637  44.23973  18.55079  59449.56528    50.43532       43.54475   43.99129  59.86844   34.5     0.1937  -20.08635  0.99862 
  -11.94075  0.00312  5.51886     14.17253   1.5339   0.5267  4.08046  0.24156     0.01011  5782.94086   9389.35751  0.35444         2494.15391     21.03495  0.60211   59391.4837  0.81402  0.01271   1959937.66969   44.6787  18.53524   59452.5451    50.53129       43.75486   42.07384   43.5799   36.5    0.20161  -20.21681  0.99741 
   -9.90732    0.001  6.12164      14.2344   1.7584  1.09043  2.99427  0.30229     0.01105  4960.08284   9266.49387  0.18714         3055.07245     20.94406  0.48841  59393.51712  0.43944    0.003   2079051.42774  44.62236  18.52015  59453.46794    50.54479       43.74205   42.07384  46.26198   34.5    0.19232  -20.05012  0.99941 
  -11.08228  0.01781  5.89582     14.05662  1.71488  1.43292  4.35736  0.17944     0.01328  5699.39359   9693.35648  1.01313         2128.28457     21.12749   0.7451  59392.34216  0.84432  0.07759     4264735.503   44.3321  18.53879  59453.39081    50.55459       43.78468   40.67325  43.68682   35.0    0.19509   -20.3236   0.9853 
   -9.17671  0.00339  5.80079     14.03883  1.56778  1.53984  1.78977  0.31739     0.01562  4599.64179   9977.65734  0.07094         5771.40403     20.96508  0.51263  59394.24774  0.22588  0.00606   4096498.90937  44.32474  18.51268   59452.5451    50.48238       43.67953   44.79513  46.26198   33.0    0.20803  -20.06154  0.99871 
  -11.10986  0.02624  5.51119     14.43952   1.5622  0.48207  5.96341   0.2352      0.0103  5774.53545   9757.86268  0.12974         4490.65308     20.99944  0.55484  59392.31459  1.18619  0.15647    582097.38578  45.21509  18.59222   59455.4756    50.58509       43.79488   39.70294  47.37843   40.5    0.19429  -20.16211  0.97105 
  -11.02625  0.00109   6.9264      14.1683   1.9016  1.09209  3.20094  0.27475     0.01089  5298.38715    9773.9363  0.09248          4687.7644     20.90624  0.44768   59392.3982  0.53603  0.00349   3902655.03664  44.27559  18.52429   59452.5451    50.57213       43.75696   44.79513  48.98327   33.5    0.22049   -20.0884   0.9992 
  -11.82226  0.05796  5.84389     14.24704  1.72732  1.09152   4.4677    0.219     0.01041  5021.72763    9955.0055  0.13511          2859.6758     20.98919  0.54189  59391.60219  0.67207  0.25894    1755974.4935   44.7283  18.48777   59452.5451    50.52152       43.72335   42.09657   45.4354   33.5    0.19917  -20.11532  0.95458 
  -13.37653  0.00136  6.65815     14.14962  1.96252   1.4746   2.4143  0.32805      0.0208  5103.28377    9683.6955  0.09318         2933.94678     21.04393  0.61469  59390.04791  0.37508  0.00327   4055986.99119  44.30686  18.46741  59453.46211    50.58602       43.78944   41.26999  46.26198   35.5    0.18695  -20.18623  0.99934 
  -11.74579  0.00116  6.10298     14.26096  1.76309   0.7379  1.69238  0.30829     0.02287  4555.00609   6384.66928  0.10962          4499.2138     21.07048  0.65345  59391.67866  0.20946  0.00196   1833370.27783  44.68078  18.55795   59452.5451     50.5727       43.82775   39.66275  39.25474   48.0    0.16746  -20.14168  0.99961 
  -11.07967    0.001  6.58495     14.59026   2.0593  0.56343  3.11617  0.28805     0.01515   4997.0225   9586.30335  0.33867         2146.15592     21.00313  0.55957  59392.34478  0.46416  0.00312    547177.92449  45.20733   18.5074  59453.39081    50.51396        43.7136   41.97907  47.36161   34.0    0.19004  -20.09516  0.99944 
  -11.91157   0.0013  5.97539      14.1138  1.64595  0.99889  2.23364  0.30688     0.01389  4746.96054   9980.01726  0.28569          3316.7336     20.99609  0.55057  59391.51287  0.30024  0.00291   3231239.26168  44.42316  18.51285   59455.4756    50.61294       43.81582    38.5487  48.98327   34.5    0.20803  -20.10045  0.99939 
  -10.29572  0.00115  6.77581     14.12961  1.87051  1.50208  2.77978  0.27193     0.02041  5587.47349   9388.24604  0.46098         2240.60044     21.02693   0.5911  59393.12873  0.51769  0.00321   4390167.62619   44.2364   18.5362   59455.4756    50.57652       43.79065   38.40256  46.40812   35.5    0.19841  -20.19542  0.99929 
  -11.13134  0.00247   5.7023     13.90632  1.70006  1.40311  3.46918   0.1991     0.01137  5519.22949   9983.26833  1.22787         2009.32072     21.10945  0.71479   59392.2931  0.63039  0.00857   7902027.34555  44.08947  18.57597  59449.56528    50.32647       43.55657   43.07871  43.54068   35.5    0.21506  -20.29719   0.9984 
   -7.57579  0.00492   5.1627     14.31357  1.71473  0.78042  4.56121  0.24956     0.01028  6050.26936   9942.87003  0.36198         2272.20678     21.11912  0.73088  59395.84866  0.99599  0.02246   1001432.09308  45.07667  18.51811   59452.5451    50.62653       43.87571   35.82741  43.54068   30.0    0.23145   -20.3406  0.99676 
  -11.10855  0.08105  6.83244      14.3164  2.09079  1.10917  3.74645  0.28246     0.01109  5326.90486   9372.24528  0.03942         2689.03012     21.04035  0.60964  59392.31589  0.63416  0.30363   2110955.81501  44.59552  18.51136  59453.39081    50.56933       43.73271   45.62172  50.87798   34.5    0.19461  -20.16209  0.94556 
  -10.72744  0.03212  5.70982     14.37833  1.66213  0.54412  4.19113  0.21812     0.01114  5633.47761   9713.25163  0.07747         2188.28637     21.06781  0.64944  59392.69701  0.79344  0.13463    881172.98408   45.0312  18.52107  59453.46794    50.53562       43.73803   42.44105  47.36161   32.5     0.2221  -20.24665   0.9754 
   -8.62148  0.00262  8.26491     14.22406  1.84982  1.20467  3.03414  0.25295     0.01301  5265.94169   5287.56688  4.58106         2508.18406     20.74091  0.30594  59394.80297   0.5019  0.00794   4181187.41668   44.0802  18.52727  59449.56528    50.39656       43.64221   40.17036  41.91903   42.5    0.19074  -19.88866  0.99731 
  -12.26981  0.00176  5.55778     14.31886  1.84091   0.5433  2.60198   0.2717     0.01058   4907.3494   9873.28151  0.28807         2599.38046      21.1207  0.73354  59391.15464  0.37379  0.00457   1215990.00933  44.95915  18.52279   59452.5451    50.68318       43.95158   33.00763  40.91788   35.0    0.18282  -20.29211   0.9993 
  -10.21223  0.00336  5.71361     14.04043  1.60956  1.32566  2.98875  0.30654     0.01359  5538.81882   9822.47758  0.09925         2511.99882      21.0093  0.56758  59393.21222  0.54695  0.01004   4050219.80044  44.35425  18.53452   59452.5451    50.53851       43.78372   40.75452  40.88427   32.5    0.22508  -20.19751  0.99801 
  -11.75958  0.00286  5.61254     14.09639  1.61907  0.98244  3.42442  0.24191     0.01004  5290.47893   9359.35843  0.09567         2793.97483     21.05704  0.63352  59391.66486  0.57175   0.0098   3038265.52496  44.49717  18.51259   59452.5451     50.5758       43.75574   46.47312  50.02658   34.5    0.20311   -20.1948  0.99814 
   -9.34993  0.05003  8.01902     14.47966  1.93006  0.60611  2.68766  0.29157     0.03461  5625.34081   9634.88615  0.19452         2358.27584     20.89205  0.43329  59394.07452  0.50734  0.13446   1265626.84606  44.64387  18.48272   59452.5451    50.48503       43.69475   44.36727   45.4354   41.0    0.19246  -20.00186  0.96155 
   -11.2922  0.01127  7.33133     14.27663   1.9571  1.44914  4.54567  0.25414     0.01115  5358.96672    9285.1775  0.08862         2371.14534     20.84982  0.39314  59392.13224  0.77873  0.05122   2732339.21828  44.39356  18.53074   59455.4756    50.50481       43.71501   41.26999  46.26198   36.0    0.19567  -19.96815   0.9878 
   -9.40615  0.00217  6.68906     14.36243  1.82412   0.6716  2.73719  0.28855     0.01158  5236.41117   9686.48367   0.0205         3911.35658     20.89456   0.4358  59394.01829  0.44771  0.00595   1428022.75345  44.72443   18.5551  59453.46794    50.50411        43.6013   48.56297  62.56854   31.5    0.24217  -20.05158  0.99867 
  -11.97959  0.02807  6.04884     14.02391  1.70095  1.29167  3.21326   0.3027     0.01189  5637.08684   9835.88499  0.02228         5739.62806     20.98335  0.53466  59391.44485  0.60909   0.0902   5176379.21412  44.22217  18.51168   59452.5451    50.63293       43.88094    38.0981  40.81939   35.0    0.23248  -20.18681  0.98169 
  -10.27187  0.00208  6.49667     14.53762  2.05375  0.56212  2.35764  0.30579     0.02217  5402.45924    9823.1626  0.04171          2986.6912     21.07278  0.65691  59393.15258  0.41048  0.00491    676853.77418  45.12552  18.56006  59447.58912    50.35057       43.50811   47.98112  49.98542   32.5    0.21017  -20.24559  0.99914 
  -12.94737  0.01681   7.1419     14.91504  1.88203  0.16837  6.40109  0.09064     0.01325  4953.99277   9757.67439  0.00346          3566.5368     20.97206  0.52094  59390.47708  0.93711   0.1076    131820.31076  45.71586  18.52261  59449.25919    50.38428       43.66451   38.40256  38.24424   41.0    0.16543  -20.07833  0.97417 
  -12.85857  0.14237  6.39347     13.97213   1.7414  1.42047  4.75904  0.25466     0.01051     6614.86   9177.66988  0.10095         3539.57775      21.0433  0.61381  59390.56587  1.24219  0.67753   7514948.31793  44.02235  18.55547  59453.46794    50.49745       43.67285   46.26198  48.98327   41.0    0.18915  -20.26309  0.86684 
  -11.85055  0.00315  6.04958     14.53575  1.81925  0.28862  2.50418  0.28472     0.01762  5339.22141   9619.85318  0.29507         2511.51951     21.12132   0.7346  59391.57389  0.42584  0.00788    524405.47841  45.24562  18.48623  59449.56528    50.57813       43.77513   45.18297  47.34098   37.0    0.18615   -20.2888  0.99851 
  -12.62512  0.00318  7.59338     14.15536  1.49715  1.08688  2.87137  0.27671     0.01016  3973.81246   5518.43579  0.90392         4306.16941     20.38866  0.13595  59390.79932  0.27048  0.00914   3919424.90434  44.09002  18.48898  59453.46794    50.55374       43.75681   43.73258  47.32453   47.5    0.16193  -19.64326  0.99643 
  -11.61138  0.00114  5.69951     14.03405  1.80053  1.25171  2.35821  0.32216     0.01058  5036.06489   9680.09033  0.14185         2628.37349      21.0639  0.64361  59391.81307  0.35677  0.00268   4642886.08605  44.34578  18.50343  59449.56528    50.54883       43.71918   49.00446  48.96208   34.5     0.1901  -20.21651  0.99955 
  -10.18717  0.00842  6.87062     14.27589  1.64948  0.75852  3.63406  0.19815     0.01015   5071.0287   9287.71674  0.01811         3023.73433     20.79391  0.34565  59393.23728  0.55746  0.03058   2029443.58067  44.50482  18.50628  59453.46794     50.5856       43.81646   42.44105  41.95825   33.5    0.20741  -19.93109  0.99161 
  -11.53812  0.00909  8.04078     14.26446  2.08379  1.26496  5.43994  0.15751     0.01401   5575.7979   9256.47601  0.02904         4133.69281     20.98491  0.53659  59391.88633  1.00887  0.04944   3701199.01658  44.20876  18.52002  59453.39081    50.59632       43.79123    41.9277  49.12941   38.5    0.17828  -20.06504  0.98696 
   -9.83294  0.00132  6.08406     14.40827  1.56071   0.5931  5.27257   0.2298     0.01052  5549.08201   9423.21715  0.20178         3192.58433      20.8693  0.41118   59393.5915  0.96848  0.00696    818444.77615  44.98079  18.54774  59453.46794    50.42188       43.61595   42.09657  48.15669   36.5    0.19172  -19.98518  0.99839 
