 log(Bfield)      Mns     Pspin  cutoff_power  cutoff_wavelength  fnickel    kappa  kappagamma  mejecta  log(nhhost)  temperature  texplosion  thetaPB     vejecta      A_V        MJD_0   log(KE)      M_Ni  Peak_mag     Peak_MJD 
    14.16064  1.29196   6.79243       0.14922         2252.58457  0.02886  0.01067     0.14203  6.15568     16.84492   4051.73734   -11.69037  0.74096  6501.35121    4e-05  57343.52963  52.17748   1.72235  21.97938  57377.68195 
    14.12812  1.55841   7.44313       4.72127          2107.8021  0.01408  0.01661     0.01981   3.9268     18.44234   5005.82362   -10.62098  0.73446  6012.49935  0.00154  57344.59902   52.0595   0.74878  21.96036  57380.32065 
    14.03976  1.55324   7.82422       4.61131         2014.29256  0.06528    0.014     0.13627  4.27528     19.53904   8010.57646    -8.21855  1.22189  6434.06776  0.01922  57347.00145  52.12829   3.55191   21.9352  57380.32065 
    14.29808  1.65276    8.0382       3.72812         2414.26867  0.02262   0.0125     0.01341  5.50959     19.07685   8636.45859    -9.26032  0.52818  6206.49265  0.00663  57345.95968  52.12534   1.31379  21.93561  57377.68195 
    14.04788  1.44502    6.9121       0.11567         2877.47092  0.00263  0.01414     0.07986  4.03465     18.92054   4893.07587   -12.06675  1.28913  5960.00454  0.00463  57343.15325  52.05507     0.141  21.95982  57375.04326 
    14.41005  2.03112   8.97713       0.15437         2641.42001  0.01194  0.01809     0.06599  3.46548     19.27161   4431.20838   -11.34225  0.78171  6206.00549  0.01038  57343.87775    52.072   0.61328  21.91294  57375.04326 
    13.93116  1.49262   9.45619       3.48805         2500.64077  0.18727  0.01085     0.04977  8.18954     18.17154   4920.20051    -9.77772  1.44125  6176.65435  0.00082  57345.44228  52.16203  11.95023  21.97216  57377.68195 
    14.29827  1.25303   6.76959       0.41568         2298.12521  0.07696  0.01215     0.02713  5.05534     18.23878   5131.19128   -10.32145  0.46931  6567.30907  0.00096  57344.89855  52.16502   4.37424   21.9526  57377.68195 
    14.27791  1.70628   7.61753       1.93516         2445.54051   0.0087  0.03314        0.32  2.20149     19.50815   9468.88444    -12.5317  0.56695  5384.86575   0.0179   57342.6883  51.88938   0.38981  21.95751  57380.32065 
    14.33473  1.16481   6.97277       1.68502         2068.41904  0.08498  0.01225     0.08429  7.99841       19.708   3949.88642   -11.86478  0.43696  6281.79594  0.02836  57343.35522  52.17436   5.39383  21.92996  57377.68195 
    14.36852  1.71304   8.59569       3.87687         2638.69231  0.00338  0.04003     0.42187  1.94545     18.78263   7867.77601   -11.18667  0.53799  5500.54085  0.00337  57344.03333  51.89015   0.14529  21.94204  57377.68195 
    14.04896  1.53509   7.46909       1.38903         2385.93947  0.01664  0.02305     0.10475  2.90999     17.07689   6020.41883   -11.11581  1.07517  6349.81236    7e-05  57344.10419  52.06999   0.81275  21.95373  57377.68195 
    14.18278   1.6837   7.76099       0.72766          2106.5831  0.00164  0.01461     0.04401  6.59663      16.1217   9838.96268   -15.84068  1.44987  4919.41666    1e-05  57339.37932  51.94252   0.09953  21.92052  57377.68195 
    14.20289  1.77866   8.19812       2.12118         2188.85233  0.02557  0.01332     0.02291  7.45994     20.28928   5673.98809   -11.38847  1.31718  5831.46723  0.10814  57343.83153   52.1028   1.59688  21.93058  57377.68195 
     14.4356  1.98568   9.10389       0.72767         2249.99904  0.00152   0.0323     0.39398  1.99994     17.38988   9369.00434    -10.6024  0.71332  6058.13196  0.00014   57344.6176  51.97803   0.06598  21.92939  57377.68195 
    14.50406  1.72036   8.10323        0.6382         2171.58144  0.00657  0.02453     0.42172  3.61258     19.02899   6045.37483   -12.87447  0.45933  6132.60352  0.00594  57342.34553  52.06671   0.34173  21.89586  57377.68195 
     14.5529  1.95977  10.03448       3.67944         2033.08917  0.09028  0.01359     0.01134  6.04724     17.97742    4037.0862   -10.48592  0.49493  6325.62363  0.00053  57344.73408  52.15181   5.36485  21.94014  57377.68195 
    14.38012  1.60061   7.84024       3.35698         2298.43645  0.00363  0.02522     0.10538  2.64343     18.15257   7393.59672    -9.28269  0.43664  6357.36728  0.00079  57345.93731  52.05849   0.17248  21.95494  57377.68195 
    14.18469  1.86266   8.90609       2.71374         2172.40123  0.07249   0.0212     0.06128  3.49407      19.7611   6178.36283   -10.41628  1.11391  6477.61595  0.03205  57344.80372  52.11021   3.73269  21.93906  57377.68195 
    14.23203    1.718    7.8978         0.235         2664.96237  0.00725  0.01531     0.10186   4.1002     18.20001   4378.84122   -11.68481  0.84597  6504.91953  0.00088  57343.53519  52.13295   0.39011  21.93299  57377.68195 
    14.19681    2.188  11.38341       3.25406         2351.66136  0.38671  0.02368     0.22558  3.23343     19.41401    5618.3678    -8.90381  1.24008  6366.48572  0.01441  57346.31619  52.08561  19.47915  21.94682  57377.68195 
    14.07748  1.53909   7.63185        4.5796         2315.13386  0.00268  0.01126     0.02666  6.48067     17.11069    4160.5844   -10.06466  0.91759  5916.21439    7e-05  57345.15534  52.10095    0.1619  21.93736  57377.68195 
    14.27627  1.94677   9.14444       0.37017         3058.42545  0.00849  0.01727     0.14034  4.68394     16.68361   9780.14284   -12.37307  1.21328  6020.18945    3e-05  57342.84693  52.08095   0.47314  21.95258  57377.68195 
    14.49705  1.88921   8.26168       1.84227         2009.57259  0.00192  0.01722     0.06476  3.60156     20.30817   8309.27506   -10.64446  0.49356  6342.29226  0.11295  57344.57554  52.09555   0.09993  21.95804  57377.68195 
    14.11599  1.69336   8.77275       4.92313         2180.26849  0.09387  0.03457     0.03252   3.2838     18.50974   5371.25053   -12.77895  1.50363  5892.98814   0.0018  57342.44105  52.02041    4.7494  21.94862  57377.68195 
    14.56591  1.76001  10.28425       1.70784         2760.26889  0.25982  0.03107     0.09252  3.85388     16.76255   7932.90868    -14.1043  0.50068  5136.08872    3e-05   57341.1157  51.92043  13.74708   21.9521  57377.68195 
    13.93414  1.42384   7.18438       2.20904         2390.87028  0.04944  0.02206     0.04428  2.96799     18.79657   9573.87295     -9.6981  1.34024  6438.13602  0.00348   57345.5219  52.08452   2.42891  21.93292  57377.68195 
    14.16313  1.63804   7.93594       0.12321         2177.63641  0.03899   0.0276     0.07206  2.78528     17.31791   8876.46071   -12.26586   1.2463  6421.16184  0.00012  57342.95414  52.07403   1.87989  21.92825  57377.68195 
    14.07512   2.0259   8.59704       4.81778         2413.74631  0.00328  0.01218     0.01083  4.82347     20.13141   8690.35266    -9.44647  1.49536  5450.17617  0.07519  57345.77353  51.99784   0.18446  21.95964  57377.68195 
    14.40745  1.41225   6.74149       0.13726         2819.24612  0.00171  0.02888     0.03222  3.72752     17.14012   7024.88001    -15.9726  0.48619  5152.83129    8e-05   57339.2474  51.91928   0.08965  21.94983  57377.68195 
    14.30627  1.35252   6.94561       2.77276         2294.09971  0.02709  0.01485     0.01655  3.89465      18.6465   7634.28449    -8.74383  0.38934  6812.09945  0.00246  57346.47617  52.16698   1.43766  21.93104  57377.68195 
    14.89385  1.87492   9.24282       2.96761         2578.04275  0.00171  0.04165     0.04478  2.30267     18.19622   6864.09467   -11.90818  0.20285  5228.77884  0.00087  57343.31182  51.87008   0.07789  21.93695  57380.32065 
    14.33499  1.19977   6.72281        1.2201         2387.50212  0.05366  0.02783     0.24188  3.70396      17.9377   7454.04209   -10.68062   0.5512  5557.82962  0.00048  57344.53938  51.98424   2.80825  21.96891  57377.68195 
    14.23224  2.10275  10.82359       3.37744         2043.01458  0.22385  0.02628     0.39794  3.13169     18.48317   6450.79422    -8.70913  1.36392  7253.85688  0.00169  57346.51087  52.19495  11.17202  21.95274  57377.68195 
    14.13116  1.65836   9.61238       4.71964         2083.12128  0.33158  0.02734     0.12849  3.00617      19.0894   9702.21176    -8.68909  1.24581  6722.84466  0.00683  57346.53091  52.12374  16.35292  21.94929  57380.32065 
    14.50432  1.93138   8.82068       0.61673         2665.44102  0.00108  0.01573     0.06799  4.88317     17.99622   5508.90549   -12.16607  0.48025  6266.18314  0.00055  57343.05393   52.1204   0.06057  21.94571  57377.68195 
     14.1874  1.93797    9.4181       3.71386         2150.91257  0.08372  0.02808     0.04739   2.6435     18.74733   8777.84941   -10.03305  1.19352  6681.87111   0.0031  57345.18695  52.10174   3.97344  21.96726  57380.32065 
     14.1387  1.74352   8.28028       0.98372         2337.46064  0.01909  0.01744     0.49214  3.54656     19.03204   6022.10941   -10.49243  1.32263  6193.33065  0.00598  57344.72757  52.07304   0.98694  21.94108  57377.68195 
    14.17368  1.83583   8.66826       4.42282         2287.58728  0.00555  0.01763     0.02815  4.01875     18.15828   4606.83771   -11.66674  1.02764  5317.27212   0.0008  57343.55326  51.95549   0.29708  21.93656  57377.68195 
    14.40367  1.93503   8.94172        0.9285         2432.04459  0.01164  0.02666     0.02986  2.07644     17.50306   8195.85121   -10.54538  0.63267   6115.3815  0.00018  57344.67462   51.9916   0.51196  21.93161  57377.68195 
    14.11041   1.7022   8.07833       2.33832         2093.49779  0.00326  0.03244      0.1568  1.98399     19.49943   6472.08229    -10.1391     1.18  6521.27362  0.01755   57345.0809  52.04086   0.14121  21.95619  57377.68195 
      14.313  1.56439   7.46248       0.61777         2460.14508  0.00578  0.02332     0.07356  3.07859     17.18677   5190.87963   -12.49625  0.58939  5895.38602    9e-05  57342.72375  52.01268   0.28683  21.95063  57377.68195 
    14.21885  1.83211    10.184        4.2426         2369.24629  0.11074  0.01319     0.01232   6.7177     18.46091   8610.00471   -10.52135  1.10926  5909.53551  0.00161  57344.69865  52.10368   6.74917  21.90049  57377.68195 
    14.01032  1.48896    7.5947       4.53582         2200.04625  0.02886  0.01716     0.01058  4.34264     16.76388   9173.31548   -10.32192   1.1721    6132.801    3e-05  57344.89808  52.08843   1.57695  21.94597  57377.68195 
    14.33539  1.57335   7.83093       3.24928         2254.99105  0.00133  0.01936     0.01816  3.08669     18.82801    7396.2168    -9.23546   0.5039  6140.11414  0.00374  57345.98454  52.04834    0.0663  21.95174  57377.68195 
    13.99258  1.61455    8.1011       4.88248         2486.46372  0.00476  0.01327     0.04026  4.79555     18.15699   6185.09562    -8.67042  1.49395  6566.54258   0.0008  57346.54958  52.15905   0.26682  21.94083  57377.68195 
    14.17587  1.51963   6.99831       3.00788         2627.03537  0.28461  0.02174     0.01962  2.88701     17.77823   5451.98876    -9.78441  0.36776  5994.63632  0.00033  57345.43559  52.01898  13.86993   21.9655  57377.68195 
    14.38017  1.75717   9.10513        2.2308         2669.80909   0.0592  0.01705     0.01106  5.13694     17.31063   6204.65716   -10.99818  0.58413  6009.19652  0.00011  57344.22182  52.08964   3.37818   21.9563  57377.68195 
    14.23833  1.42714   9.30125       1.65762         2445.81631  0.16745  0.01258     0.04846  7.23252     16.78086   4348.28757   -10.75187  1.01734  5437.18223    3e-05  57344.46813  52.03887  10.38433  21.96349  57377.68195 
    14.49883  1.42094    7.0611       2.18014         2642.42879   0.0011  0.02275     0.15926  2.71128     19.04017   6788.35244   -11.15037  0.25852  5736.25249  0.00609  57344.06963  51.97254    0.0526  21.92361  57377.68195 
    14.71799  1.36024    7.3202       1.38371         2560.50857  0.00311  0.01135     0.14565  9.74978     16.51103    7930.6037   -12.59394  0.22273   5695.6826    2e-05  57342.62606  52.10845    0.2062  21.96707  57377.68195 
    14.25407  1.93347  10.62102        2.4346         2091.83341  0.24766  0.02597     0.27776  3.60106      16.9233   4629.56461   -10.98782  1.55072  6356.77719    5e-05  57344.23218  52.09751  12.86061  21.94781  57377.68195 
     14.1239  1.48146   7.22103       0.64408         2276.48132  0.00159  0.01069     0.03828  8.47028     19.81636   4571.63264   -11.02382  1.22935   6210.2305   0.0364  57344.19618  52.17005   0.10241  21.95497  57377.68195 
    14.15455  1.77828   8.79156        2.9471         2438.73378  0.00202  0.01514     0.34214  5.28504     17.50177   5919.35865   -11.02844    1.402  5621.10122  0.00018  57344.19156  52.03477   0.11625  21.97669  57377.68195 
    14.13223  1.83514   9.97584       3.28774         2097.70908  0.40861  0.03266     0.01609  2.66437     18.97158   6168.08989    -9.91482  1.56026  6587.78506   0.0052  57345.30518  52.09046  19.43867  21.94263  57377.68195 
    14.13844  1.97462   9.03699       3.95195         2270.86833  0.00239   0.0237     0.38409  2.96962     18.28673   7865.08144   -10.31964  1.33342   5934.6975  0.00108  57344.90036  52.01387   0.11728  21.95267  57377.68195 
    14.06396  1.42624   8.02248       2.20079         2568.82495  0.11883  0.01858     0.04108  4.63936     17.03305   9628.99573   -11.29439  1.15643  5310.08484    6e-05  57343.92561  51.97085   6.60589  21.98849  57377.68195 
    14.30941  2.03457   9.26733       0.02815         2225.29054  0.00163  0.03059     0.22279  1.98496     16.27039   3239.38057   -10.40429  1.50295   6547.2478    1e-05  57344.81571  52.04438   0.07075  21.94511  57377.68195 
    14.19062  1.97034   9.19911       3.23832         2172.13733  0.00734  0.03336      0.0354  2.36202     18.77092   5971.47666   -11.96205  1.39174  5932.31873  0.00328  57343.25795  51.98323   0.33617  21.94495  57380.32065 
    14.31022  1.93063  11.80076       0.70785         2335.71198  0.44023  0.02401      0.0754  3.26404      17.2392   3452.57668   -10.38491  1.34225   6674.2694   0.0001  57344.83509   52.1278  22.23499  21.93707  57377.68195 
    14.40922  1.27744   9.24412       1.48756         2333.61787  0.23415  0.01062     0.49834  7.79301     19.39125    7138.4645    -10.0625  0.38887  6414.26782  0.01368   57345.1575  52.18991  14.77355  21.94917  57380.32065 
    14.36908  1.84932   8.73632       2.12349         2278.18908  0.04018  0.06578     0.24542  0.96733     18.04424   9991.80927    -9.82599  0.62064   6144.7217  0.00062  57345.39401  51.87009   1.32269  21.96161  57377.68195 
    14.19804  1.54975  10.83429       3.51872         2349.69807  0.39006  0.02838     0.18731  3.72826     16.48352   3693.64309   -10.47568  1.38457  5956.58786    2e-05  57344.74432  52.04521  20.45112  21.95739  57377.68195 
    14.22811  1.52131  10.82791       1.63735         2540.13246  0.43205  0.02903     0.07583  4.07776     16.70725   7211.01312   -13.96515  1.22977  5377.16355    3e-05  57341.25485  51.96693  23.21265  21.94797  57377.68195 
    14.26948  1.63095   9.29505       0.48807         2707.16424  0.20543  0.02336      0.0156  4.81831     17.82064   9506.57488   -12.73133  1.30633  5820.65833  0.00037  57342.48867  52.05485    11.533  21.93481  57377.68195 
    14.23089  2.13272   9.68445       2.04453         2131.16292  0.01801  0.01841     0.40917  3.17084     17.44375   4945.03285    -8.81242  1.51864  6386.34845  0.00015  57346.40758  52.08588   0.90229  21.94182  57377.68195 
    14.27205  1.79719  10.95483       0.84814         2508.69406  0.46019  0.02397     0.01137  3.49114     19.03146   9710.01213   -11.14791  0.95984  6219.26405  0.00597  57344.07209  52.07475  23.69073  21.93493  57377.68195 
    14.11551  1.41422   7.37323       4.99569         2036.24056  0.04442  0.01455     0.06018   4.9168     16.23442   9545.93408   -10.34557  0.77887  6168.31594    1e-05  57344.87443  52.10749   2.50685  21.95051  57377.68195 
    14.01265  1.42641   7.16562       3.52556         2428.97816     0.04  0.01377     0.01611   4.5571      17.9804   9823.46549    -8.58654  0.85729  6264.75198  0.00053  57346.63346  52.11243    2.2131  21.92392  57377.68195 
     13.8126  1.19334   6.24144       4.72849         2079.53555  0.01163  0.01031     0.01777  6.96028     17.41618   7404.85302    -9.40727  1.43882  6392.26357  0.00014  57345.81273  52.17553    0.7146  21.93158  57377.68195 
    14.30624  2.10513   9.33018       0.39063         2023.97717  0.01797   0.0156     0.05139  3.86388     19.42244   6303.81219     -9.9887  1.45875  6358.67399  0.01469   57345.2313  52.10621   0.95132  21.95638  57380.32065 
    14.24046  1.81299   8.72234       1.09477         2406.12513  0.00134  0.02195     0.24207  4.12424     16.70168   9876.45189    -11.4796  1.50449  5535.30099    3e-05   57343.7404  51.99343   0.07218  21.95301  57377.68195 
     14.1438   1.7407   8.27241       1.36116         2231.03264  0.00408  0.01588     0.39358  4.52802     16.25415   3574.77785   -10.65098  1.31195  5935.43515    1e-05  57344.56902   52.0648   0.22531  21.97611  57377.68195 
    14.16904  1.75813    8.1555       2.51625         2255.55806  0.00237  0.01989     0.02636  3.09383     16.02732   6692.59309    -8.98782   0.8744  6514.87562    1e-05  57346.23218  52.10009   0.11802  21.95627  57377.68195 
     14.2618  1.55072  10.22612       2.13561         2544.16815  0.21412  0.01982     0.02024  5.43752      17.8514   4621.58792   -12.46999  1.22146  5426.08902  0.00039  57342.75001   52.0072  12.39491  21.93421  57377.68195 
    14.07217  1.42452   7.40729       1.83271         2081.52811  0.08018  0.01746     0.03486  3.69045     18.54699   8776.39068    -9.33805  0.93303  6669.05613  0.00196  57345.88195  52.14212   4.19193  21.92762  57377.68195 
    14.19887  1.84176   9.00042         3.816         2692.62725  0.12015  0.01937     0.14007  3.53384     19.16162   6829.17641    -10.0733   0.7362  5682.44012  0.00806   57345.1467  51.99782   6.20677  21.93573  57377.68195 
    14.23678  1.64781     8.417       1.61064          2619.7695  0.09586  0.01974     0.03727  3.72473     16.75378    6795.1863   -10.98797   0.7485  5857.61461    3e-05  57344.23203  52.03054   5.02477  21.93232  57377.68195 
    14.02139  1.56853   9.77863       4.45031         2080.78157  0.43566  0.01883     0.01016  4.89278     19.96503   4886.80472   -10.64758   1.0612  5970.09599  0.05126  57344.57242  52.07858  24.55465  21.94524  57377.68195 
     14.1158  1.81385   8.70779       2.75713         2589.19403  0.00224  0.01918     0.08543  3.31903     19.34293   3628.29526   -10.78964   1.4013  5319.10108  0.01224  57344.43036  51.93274   0.11377  21.97814  57375.04326 
    14.36406  2.06196   9.26045       0.86958         2446.29188  0.00579  0.01953     0.14201   3.0269     17.96845   3457.01717   -10.93923  0.79424  6182.28187  0.00052  57344.28077   52.0518   0.28604  21.95614  57380.32065 
    14.13469  1.60183    7.8431       0.26521         2771.63599  0.01315  0.01195      0.2503  5.16366     18.94437   8850.44453   -10.20434  1.44755  6283.55309  0.00489  57345.01566  52.12899   0.75124   21.9275  57380.32065 
    14.20065  1.21659   8.55857        1.2073          2134.0269  0.26957  0.01108     0.08151  6.75216     19.68097   6980.62347   -10.41209  0.79919  5802.20957  0.02665  57344.80791  52.08829  16.44914  21.94819  57377.68195 
    14.26217  1.68199    10.351       3.02398         2565.33334  0.33091  0.03841     0.10967  2.76763     16.74325    5717.4839   -10.65608  0.92281  6179.44233    3e-05  57344.56392  52.03987  15.92407  21.95515  57377.68195 
    14.21571  1.66049   8.22784       4.96171         2195.03726  0.00551  0.01779     0.10986  4.55579     18.13704   9781.70801   -11.06807  0.79381  5915.83592  0.00076  57344.15193  52.06262   0.30486  21.95193  57377.68195 
    14.43297  1.79715  11.00413       1.76766         2802.11818  0.44812   0.0298     0.01786  2.96248       19.038   6887.44832    -9.63946  0.53869  6352.88086  0.00606  57345.58054   52.0727  22.00559  21.94928  57380.32065 
     14.4284  1.97617  10.73923        4.5073         2201.02079  0.18948  0.01883     0.01044  4.02716     17.39757   8791.46448    -8.94748  0.63729  6275.12657  0.00014  57346.27252   52.0996  10.14597  21.95456  57377.68195 
    13.98283   1.5831   7.50369       2.01145         2445.12179   0.0013  0.02901     0.01175  2.24652     18.58725   3014.31837   -11.46955  1.38407   6064.3557  0.00215  57343.75045  51.99542   0.05841  21.92166  57380.32065 
    14.18404  1.64167   7.92164       0.12484         2522.77629  0.04246  0.02216     0.18921  3.06701     16.40293   9366.14419   -10.36213  1.10542  6690.99715    1e-05  57344.85787  52.12216   2.10612  21.91236  57377.68195 
    14.45168  1.60786   7.55178       0.00668         3959.75735  0.00464  0.02386     0.18312  5.46533     17.02396    3894.2375   -16.98585  0.56036  5656.41101    6e-05  57338.23415  52.04386   0.26893  21.96415  57377.68195 
    14.16763  1.93334   8.71416       4.67605         2038.86134  0.01081  0.01332     0.46443  4.75378     17.91325   8859.86834   -11.04455  1.00527  6073.54946  0.00045  57344.17545  52.09028   0.60501  21.91806  57377.68195 
    14.18789  1.89601   9.02548       2.97135         2123.75746  0.00214   0.0189     0.14511  4.11976     16.52021   5866.78329   -11.85486  1.31089  6096.42484    2e-05  57343.36514  52.07717   0.11542   21.9408  57377.68195 
    14.04923  1.53649   7.85569       3.09349         2342.08072  0.03507  0.01428     0.03717  6.27624     17.50337    5431.0965   -12.69188  1.21962  5575.62452  0.00018  57342.52812   52.0461   2.10272  21.95528  57377.68195 
    14.51988  1.72281   8.15553        0.3914         2746.83912  0.07595  0.01639     0.21632  4.77151     20.10215   8272.89943   -11.33691  0.46877  6020.47546  0.07029  57343.88309  52.08307   4.25325  21.94478  57377.68195 
    14.23194  1.91526   9.18689       3.20081         2302.84121  0.02444  0.02523     0.01949  3.20658     17.18091   7500.03553   -11.93042  1.04627  5743.89228    8e-05  57343.28958  51.99519     1.228  21.92303  57377.68195 
    14.09063  1.58527   7.90596       1.92516         2248.80532  0.00128  0.01644     0.15601  4.31185     17.14026   7700.10091   -11.39145  1.37191  5814.49191    8e-05  57343.82855  52.04132   0.06964  21.95829  57377.68195 
    14.25559  1.78909   9.43024       1.06353          2260.3172  0.08918  0.01031     0.06583  8.80531     18.26778   6273.70637   -12.59626   1.1566  5527.97614  0.00103  57342.62374  52.07274   5.78394  21.93495  57377.68195 
     14.3576  1.51397   8.42624       0.35542         2107.77846  0.11465  0.01023     0.30499  9.14504     16.04952   8903.57914   -12.77917    0.734  5695.72196    1e-05  57342.44083  52.10235   7.49866  21.93121  57377.68195 
    14.87183  2.08216    9.5443       2.53704         2500.33747  0.00147  0.01845     0.12242  4.15935     17.91719   6177.21517   -11.64497  0.20811  5861.00016  0.00046  57343.57503  52.04407   0.07914   21.9786  57377.68195 
    13.92668  1.74239   8.22369       4.10806         2483.64205  0.16901  0.02066      0.0769  3.01462     17.58849   7354.02291     -9.6192  1.48246  6304.69438  0.00022   57345.6008  52.06832   8.34227  21.95304  57377.68195 
    14.24657  1.85666   9.18832       4.30669         2834.80038  0.12577  0.01205     0.01041  4.97221     18.09828   9294.52248    -8.22552  0.56593  5906.08693   0.0007  57346.99448  52.07101   7.11817  21.93917  57377.68195 
    14.08642  1.97967   8.92819       4.62417         2191.58488  0.02541   0.0198      0.0115  2.81146      18.7788   6972.73039    -9.47738  1.56132  6347.52439  0.00334  57345.74262  52.06523   1.22866  21.95577  57377.68195 
    14.18941  1.60172   7.44459       0.66709         2446.73611  0.00211  0.02833     0.03185  2.84471     17.42021   5407.88133   -13.88612  0.82751  5453.55598  0.00015  57341.33388   51.9349   0.10227  21.94419  57380.32065 
    14.16752   1.2157   8.55803       4.52166          2484.5633  0.27155    0.024     0.01329   4.0805     18.65578   6947.14166    -8.79263  0.72151  5991.13747  0.00251  57346.42737  52.06092  14.59245  21.96515  57377.68195 
    14.05648  1.61028   7.80167       3.46451         2181.65148  0.01023  0.03845     0.01497  2.15047     16.14228   7194.61725   -12.31945  1.32807  5639.85887    1e-05  57342.90055  51.92626   0.45483  21.91608  57377.68195 
    14.18133    1.842  10.19887       4.06149         2024.69357  0.20713  0.01495      0.0701  5.65894     19.86609   4672.39974   -10.56312  1.40873  6356.68243  0.04081  57344.65688  52.14899  12.11033   21.9519  57377.68195 
    14.10592  1.65617   7.81807        0.2765         2726.72783  0.01421  0.03563     0.47894  1.77452     18.19705   3000.59292   -11.31891  1.39129  6394.34822  0.00087  57343.90109   52.0073   0.59253  21.96276  57377.68195 
    14.06194  1.65382   8.17424       4.49557         2440.85549   0.0013  0.02806     0.32523  2.66192     18.02462   3803.43265   -10.18753  1.16543  6224.23044  0.00059  57345.03247  52.04103   0.06197  21.92863  57380.32065 
     14.2357  1.97064   9.27581       1.61942          2053.9338  0.00292  0.02545     0.07379  2.56244     17.00565   9462.22817    -9.30124  1.42229    6730.495    6e-05  57345.91876  52.10389   0.13731  21.94891  57377.68195 
    14.22649  1.58454   8.80414       3.98757         2526.05848  0.27849  0.02499     0.01078   3.0928     17.31558   8042.25244    -9.65646   0.6032  5786.27666  0.00011  57345.56354  51.99703  13.84897  21.94087  57377.68195 
    14.50802  1.89741   8.63397       0.01937         5465.33037  0.07417  0.02198     0.14666  4.11175     16.75172   6268.82324   -15.07568  0.49967  5953.44055    3e-05  57340.14432  52.05633   3.99405  21.94133  57377.68195 
    14.03344  1.40427   7.43346       1.24274         2604.06722  0.02065  0.01006      0.0201  6.81553     18.62592   7243.15871   -10.36652  1.49974  5607.89046  0.00235  57344.85348  52.05966   1.26286  21.90604  57380.32065 
    14.09371  1.48364   6.94755       0.06531         2210.18621  0.00104  0.03545      0.4594  2.14411     18.60332   5660.79022   -13.96996  1.00893  5955.52087  0.00223  57341.25004  51.97315   0.04613  21.95109  57377.68195 
    14.06793  1.59393   8.28403       2.85682         2480.79523   0.0541  0.01222      0.0257  5.58515     19.07607   6295.03188    -8.80528  1.14458  6064.54009  0.00662  57346.41472  52.10671   3.15303  21.93581  57377.68195 
    14.10117   1.3592   7.35972       0.91425         2392.20764  0.08216  0.01378     0.02788  6.02869     16.70016   9952.13363   -12.94323  1.08063  5425.89422    3e-05  57342.27677  52.01822   4.87853  21.94337  57377.68195 
    14.24258  1.78669   8.57376       2.09056         2341.72593  0.00131  0.01316     0.02133  7.91623     18.81092   6129.52158   -14.32607  1.20063  4787.90584  0.00359  57340.89393  51.93746   0.08306  21.95801  57377.68195 
    13.98465  1.67783   8.95725       2.29809          2823.9984  0.23696  0.01207     0.07968   4.7233     18.59873   9480.67816    -7.21908   1.0918  5718.91664  0.00221  57348.00092   52.0373  13.23479  21.94764  57377.68195 
    14.55815  1.68258   9.16797       0.03391         2940.36005  0.18453  0.01804     0.04178  4.98959     16.94106   6794.68544   -12.22826  0.47671  6368.51664    5e-05  57342.99174  52.13687  10.45284  21.94492  57377.68195 
    14.15019  2.03146  11.13855       2.96251         2215.30436  0.43777  0.02348     0.01077  3.11337     18.13869   7583.81806    -9.12084  1.36839  6396.23828  0.00076  57346.09916  52.08492  21.81185  21.90966  57377.68195 
    14.13812  1.80824   9.87251        2.9737         2414.18548  0.32611  0.02215     0.01431  3.19162     19.86638   8888.49567    -9.46021  1.21429  5914.18901  0.04084  57345.75979  52.01998  16.36532  21.94295  57377.68195 
    14.36985  1.70931  11.73137        0.5128         2398.20778  0.49913  0.02537     0.07243  4.03216     19.72903   8682.39872    -12.3107   1.0774  6249.03853  0.02977   57342.9093  52.09613  26.73541  21.92104  57380.32065 
    14.68155  1.58738   7.96242        4.9168         2002.10963  0.00457  0.02819     0.14072  3.12609      16.1491   8215.71178   -11.54339  0.24521  6301.65301    1e-05  57343.67661  52.07249   0.22775  21.95029  57377.68195 
    14.31048  2.03535  11.45418       1.60314          2419.4467  0.18242  0.01201     0.04833  7.28767     17.58545   6425.22021   -11.70517  1.09133  5713.25231  0.00021  57343.51483  52.08265  11.33255  21.96113  57377.68195 
    14.08127  1.75289   8.15032       3.06556          2260.3419  0.00299  0.02854     0.07675  2.41344     16.86904   7876.98864   -11.50872  1.21657  5954.91536    4e-05  57343.71128  51.98947   0.13807  21.93685  57377.68195 
    14.09127   1.7705   8.49839       3.30534         2231.64508  0.07752  0.02103     0.04253  3.63357     18.10088    8411.2239   -11.09998  1.20923  5839.55419   0.0007  57344.12002  52.02488   4.03583  21.91747  57377.68195 
    14.12089   1.4863   8.45448       1.96917         2516.38956  0.24046  0.01604     0.05111  3.69561     16.35899   4117.44866    -7.33629  0.83282  6354.82636    1e-05  57347.88371  52.10037  12.57687  21.94256  57377.68195 
    14.13449  1.58036    7.6979       0.28935         2534.07857  0.00344  0.01589     0.03509  5.20703     17.79919    6287.3638   -11.71661  1.35491  6299.35482  0.00035  57343.50339  52.13209   0.19702  21.94163  57377.68195 
    13.94522  1.12234   6.55564       1.72725         2701.96174  0.08755  0.02754     0.08216  3.79793     17.68265   8255.24724   -13.31538  1.06465   5287.2465  0.00027  57341.90462  51.94389   4.61399  21.92887  57380.32065 
    14.15473  1.72235   8.57475       0.85874         2988.75373  0.00198  0.01999      0.1279  3.43682     17.75528   4998.36023   -10.39526  1.50345  5763.18066  0.00032  57344.82474  52.00668   0.10166  21.94964  57377.68195 
    14.31067  2.07948   8.59654       4.70355         2286.25295  0.00501  0.01154     0.12448  4.75626     19.91989   3460.32402   -10.66256  0.58059  5959.20579   0.0462  57344.55744  52.07383   0.28018  21.96014  57377.68195 
    14.05507   1.6388    7.8835       0.90073         2374.43657  0.00203  0.02689     0.02405  2.61968     16.02226   8180.53075   -12.07738  1.51634  6523.08569    1e-05  57343.14262  52.07965   0.09623  21.95419  57377.68195 
    14.11713  1.61336   7.90248       0.79873         2278.29814  0.01229  0.01881      0.1977  3.23445     17.40316   4468.23435     -9.8907  1.25515  6522.86989  0.00014   57345.3293  52.10673   0.61888  21.93733  57377.68195 
     14.4705  1.94602   7.62505       0.08508         2411.49399  0.00654   0.0323     0.01345  2.14071     20.38459   9812.13319   -15.12664  0.57377  5797.55375  0.13468  57340.09336  51.94957   0.29039  21.92592  57377.68195 
    14.37184  1.38099   7.27522       2.59024          2401.2497  0.00228  0.01458     0.27041  5.48913     17.52831    8705.3088   -10.92335   0.4123   6053.7163  0.00019  57344.29665  52.10329   0.13242   21.9834  57377.68195 
    14.54295  1.57346   7.75838       3.86681         2090.12464  0.00102  0.01263     0.16194  7.37427      16.2214   5235.10971   -11.88549  0.31788  6243.77589    1e-05  57343.33451  52.16098   0.06366  21.95642  57377.68195 
    14.15944  1.85107     8.501       1.11667         2302.05977   0.0566  0.02077     0.17337  3.01037     19.04927   8586.69148   -11.66954   1.1359  6167.56971  0.00622  57343.55046  52.04904   2.79256   21.9478  57377.68195 
    14.24528  1.77421   8.46343       0.49558          2721.2886   0.0032  0.01959     0.19788  3.24619     17.89814   3721.36523    -9.93585  0.92728  6611.78548  0.00044  57345.28415  52.11894   0.16135  21.93213  57377.68195 
    14.18553  1.64004   9.12572       4.93104         2021.18887  0.09895  0.01736     0.01493  4.99674     18.74791   4096.13777    -9.29384  1.53702  6281.05226  0.00311  57345.92616  52.12502   5.60689  21.94268  57377.68195 
     14.2789  1.86719   8.43476       0.10121         3016.80738  0.00274  0.01764     0.04195  6.04719     18.24784   7070.37731   -15.89494  1.23695  5472.15733  0.00098  57339.32506  52.02592   0.16308  21.95436  57377.68195 
    14.61999  1.75216   8.30183        0.4654         3092.49503  0.03731   0.0215     0.04499  3.54978     16.96561   3717.31916   -13.54947  0.30525  6256.93436    5e-05  57341.67053  52.08202    1.9296  21.93073  57375.04326 
    14.11944  1.46496   7.68092       0.34149         2773.86008  0.11811  0.02231      0.0165  3.30053     18.77712   6796.90814    -11.7317  1.41645    5919.786  0.00333   57343.4883  52.02498   5.98458  21.97091  57377.68195 
    14.26736  1.91044   8.54937       0.00546         3291.51102  0.00131  0.02158     0.09781  2.86811     16.76289   9335.56654   -11.84187  1.41404   5919.4645    3e-05  57343.37813  52.00717   0.06376  21.93373  57377.68195 
    14.26425  1.75627   8.21226       0.37666         2328.68575  0.00268  0.01452     0.07002  4.81755     16.80999   6766.00925   -11.45875  0.88518  6279.31408    4e-05  57343.76125  52.12071    0.1504  21.93084  57377.68195 
    14.12679  2.03528   8.92112       1.72243          2493.3483  0.00242  0.03917     0.43215  1.46625     19.14565   8079.32593   -10.53893  1.43581   6085.8748  0.00777  57344.68107  51.93461   0.09415  21.95844  57377.68195 
    14.29404  1.34564  11.12769       3.88225         2667.76334  0.41894  0.02026     0.22629   4.8673     18.31939   6930.84957   -11.05155   0.4934  5030.47199  0.00116  57344.16845  51.92925  23.58069  21.93755  57377.68195 
    14.37209  1.72449   8.40436       0.26782         2780.54758  0.06115  0.01349     0.40357  5.18844     19.42589   5196.39593   -11.85953  0.64054   6307.7925  0.01481  57343.36047  52.13286   3.49848  21.94194  57377.68195 
    14.37848  1.74414   9.19153       4.02025         2426.56211  0.01987   0.0125     0.12828  7.72832     18.45355   5056.53446   -10.79523  0.62577  6211.94495  0.00158  57344.42477  52.16124   1.25105  21.92078  57380.32065 
    14.19006  1.72875  10.43304       1.00992           2377.153  0.19921  0.01166     0.03908   7.3277      17.8061   5977.27595   -11.52763  1.30226  6138.83654  0.00036  57343.69237  52.14561  12.39146  21.91529  57377.68195 
    14.42538  1.87838   9.83558       2.19422         2144.22588  0.05735  0.01691     0.02708  8.35125     18.17344   9463.07066   -11.13085  1.25475  5700.79377  0.00083  57344.08915  52.09432   3.67554  21.95014  57377.68195 
    14.18548  1.90722   8.55739       0.23098         2332.75222  0.00802  0.01616      0.2362  3.57313     18.30929   5200.32925   -11.50983  1.35203  6616.02387  0.00113  57343.71017  52.13129   0.41568   21.9586  57377.68195 
