 texplosion  fnickel     Pspin  log(Bfield)      Mns  thetaPB   mejecta    kappa  kappagamma     vejecta  temperature    alpha  cutoff_wavelength  log(nhhost)      A_V         MJD0  kenergy  mnickel             TSD   log(L0)  Peak_mag     Peak_MJD  log(E_rad)  log(Peak_lum)  Rise_Time    E_fold  tau_1  delta_m15     r_peak     frac 
  -13.51497  0.00882   7.78628     14.18611  1.65096  0.91213    5.6226  0.01307     0.17885  6514.26618   5345.35228  1.62739         2005.36873     17.13351    8e-05  57341.70503   1.4233  0.04959   3944540.37497  44.10793  21.97613  57379.19142    50.62127       43.90052   15.87442  38.96449   74.0     0.1603  -19.94524  0.98246 
   -9.97602   0.0011   6.78988      14.1149  1.35387  0.95695   3.73994  0.01836     0.01939  6697.40959   3550.12739  1.44963         2055.98801     19.09642  0.00694  57345.24398   1.0007  0.00411   3414449.96219  44.20338  21.91638  57379.19142    50.46229       43.75629   21.64694  38.96449   49.5    0.20014  -19.93838   0.9985 
   -9.79383  0.30348   7.70882     13.93717  1.47654  1.28939   2.82581  0.02445     0.25882  6608.52674   8296.72982  3.65771         2523.94009     20.28214  0.10638  57345.42617  0.73617  0.85757  10881839.11298  43.62741  21.94307  57379.19142      50.621       43.96905   17.31755  28.86259   91.0    0.16424  -20.03979  0.72952 
  -10.03153  0.00577   8.08864      14.2988   1.6211  0.74868   5.56435  0.01558     0.02432  6701.26599   7208.93078  3.12317         2084.25053     18.68282  0.00268  57345.18847  1.49058  0.03211   2487575.11262  44.26713  21.94106  57376.93292    50.54522       43.81632   17.12207   40.6031   60.0    0.22843  -19.93611  0.98743 
  -11.68173  0.00674   5.95298      13.9591  1.18846  1.16447   3.32329  0.01797     0.06599  6389.46285   5786.48772   0.4043         2812.62545     18.87756  0.00419  57343.53827  0.80933  0.02241   4721364.33785  44.12029  21.94669  57379.19142    50.59938       43.74271   20.20381  56.28205   66.5    0.17883  -19.95021  0.99243 
  -16.16588  0.00377   8.83245     14.43634  1.95704  0.64731    5.1253  0.02217      0.1145  5469.67653   3752.25731  1.99559         2322.59779     18.34971  0.00124  57339.05412  0.91468  0.01932   1900596.01802  44.38939  21.95181  57379.19142    50.46047       43.73007   20.20381  50.50953   74.0    0.19522  -19.88925  0.99314 
   -9.92981  0.22727  10.47379     13.94761  1.54912  1.54905   8.31868  0.01222     0.06899  6273.45035   5127.28696  4.27447         2531.14484     16.49771    2e-05  57345.29019  1.95297  1.89061  20085730.73494  43.11583  21.95307  57379.19142    50.56948       43.95885   18.76068  30.30572  117.0    0.19495  -19.91064  0.40186 
  -11.16579  0.02323   8.35816     14.35308   1.7177  0.64665   3.66674  0.02213     0.09653  6379.12077   4083.88789  1.88495         2581.29428     19.81454  0.03625  57344.05421  0.89008  0.08517    2191877.6546  44.31875  21.94853  57379.19142    50.59045        43.9132   18.76068  33.19198   69.5    0.20931  -19.95995  0.96781 
  -14.72317  0.00167   8.36409     14.16718  1.73686  1.42463   2.52853  0.03334     0.17316  5261.88027   8704.17956   1.5204         2753.20685     17.25686   0.0001  57340.49683  0.41762  0.00423   5224541.36697  43.94573  21.96956  57376.93292    50.47905       43.83672   14.43129  41.85075   65.5    0.21387  -19.84287  0.99839 
  -18.99468  0.01874   6.87663     14.25868  1.60342  1.04027   8.71576  0.01418      0.0149  5381.29487   3190.82224  0.22373         2026.21533     19.66689   0.0258  57336.22532  1.50559  0.16335   2139184.40094  44.46889  21.96877  57379.19142    50.50446       43.90667   17.31755  34.63511   61.5    0.23234  -19.88774  0.95541 
  -12.07705  0.00131    7.8599     14.33053  1.56903  0.44052   1.44307  0.05024     0.20407  5062.64141   6315.97759  4.61792          2817.3267     18.23628  0.00096  57343.14295  0.22063  0.00189   1964357.21189  44.38042  21.96937  57379.19142    50.63132       43.82633   18.57159  50.69862  100.5    0.19457  -19.86452  0.99923 
  -11.94096  0.00189   7.58616     13.98928  1.47638   1.4904   6.75545  0.01351      0.0188  5821.43862   6035.94862  4.73688         2479.57189     16.60622    2e-05  57343.27904  1.36566  0.01278   8288760.26447  43.75951  21.93959  57376.93292    50.54002       43.83588   15.87442  46.18014   75.5    0.21533  -19.90683  0.99481 
  -12.19151  0.16521   8.09338     14.17026  1.70627  1.04365   6.58811  0.01348     0.02802   5967.2356   7421.06585  3.21562         2061.22076     20.41928  0.14588  57343.02849  1.39938  1.08844   4738070.53677  44.00903  21.94511  57379.19142    50.69544       44.08226   15.87442  27.41946   80.5    0.14537  -20.07126  0.71257 
  -11.20196  0.05284   7.14285     14.26646  1.90351  1.51457   7.35644  0.01219      0.0542  5733.65608    4654.1356  1.79194         2035.80208     20.67405  0.26229  57344.01804  1.44264   0.3887   2643558.73978  44.41847  21.98568  57379.19142    50.53608       43.84021   15.87442  46.18014   75.5     0.2217  -20.12277   0.9152 
  -10.75679  0.00297   8.07945     14.43448    1.635  0.52646   4.52969  0.02039     0.25651   6579.2804   7982.25159  2.76083         2024.97971     16.03704    1e-05  57344.46321  1.16964  0.01344   1340082.95389  44.54047  21.96009  57379.19142    50.57187       43.79119   20.20381  59.16831   62.0    0.22292  -19.92006  0.99478 
  -14.40193  0.01046   7.47278     14.53049  1.61137  0.45563   4.40428  0.02119     0.39569  6463.72642   3282.58965  0.14329         2648.66817     18.59152  0.00217  57340.81807  1.09766  0.04607    726104.65045  44.86808  21.94441  57376.93292    50.44254       43.83252   18.57159   34.8242   60.0    0.22597  -19.94462   0.9847 
  -10.07599  0.10356  10.33537     14.48061  1.95342  0.64382    6.5489  0.01201     0.01058  6319.18256   3632.64036   3.8837         2119.25904     17.56728  0.00021  57345.14401  1.55997  0.67823    2118577.4232  44.20494   21.9442  57379.19142    50.49607       43.84288   18.76068  37.52136   59.0    0.19001  -19.88742  0.74936 
  -11.16559    0.058   7.22091        14.11  1.37195  0.70709   3.18616   0.0225     0.30418   6161.6516   8764.36933  3.82314         2377.41553      18.3506  0.00125  57344.05441  0.72159  0.18479   4002522.11234  44.08667  21.96273  57381.44992    50.64527       43.97037   18.76068  31.74885   74.0    0.17549  -19.89213  0.92863 
  -10.70607  0.06773   8.26865      14.4987  1.54907  0.47795   3.63016  0.02923     0.03486  6385.73635   3048.61444   4.8494         2054.13214      18.3452  0.00123  57344.51393  0.88303  0.24587    989374.57921  44.62869  21.95967  57379.19142    50.55733       43.91415   17.31755  33.19198   61.5    0.26455  -19.91488  0.90223 
  -14.37975  0.00258   8.73275     14.59194  1.93305  0.35623     3.978  0.01812      0.3272  6551.28874   3466.65012  1.14599           2734.762     19.24567  0.00978  57340.84025  1.01846  0.01025    896372.51957   44.7203  21.94938  57379.19142    50.58245       43.83312   18.76068  38.96449   71.5    0.16093  -19.97521   0.9963 
  -12.07026  0.17479   9.41797     14.33573   1.8088  0.74727   3.52101  0.02696     0.04423  6421.92718    5667.8697  3.16945          2258.1591     16.65101    2e-05  57343.14974  0.86621  0.61544   3174342.54932  44.07667  21.97394  57376.93292    50.64233       43.82321   17.12207  57.92066   77.5    0.19132  -19.94027  0.77849 
  -16.60237  0.00226   6.83281     14.23275  1.39896  0.59222   6.42856   0.0158     0.40767  5524.55923   5601.88486  2.64426         2127.16009     17.17121    8e-05  57338.61763   1.1704  0.01452   2076401.37923  44.42814  21.94783  57379.19142     50.5534       43.81045   18.76068  44.73701   81.5     0.1771  -19.87671  0.99487 
  -12.34484  0.01515   8.51516     14.18859  1.77737  1.33247   5.24485  0.01554     0.15583  6298.91861   9682.77131  0.75698         2794.61192     16.53742    2e-05  57342.87516  1.24134  0.07945   5021156.26646  43.95743  21.96526  57379.19142     50.5544       43.94276   18.76068  34.63511   52.0    0.19929  -19.91993  0.97045 
  -10.84295  0.00208   8.10394     14.43066  1.81665  0.63564   3.63786  0.01854     0.07682  6293.61677   7883.04037  1.68531         2091.64544     20.15496  0.07938  57344.37705  0.85956  0.00758   1524589.15641  44.52757  21.97131  57379.19142    50.65024       44.02524   14.43129  28.86259   62.5    0.18563  -19.95705  0.99748 
  -13.04733  0.27275   9.88122      14.2267  1.60486  1.33429   4.72899   0.0267     0.33813  5991.50511   4231.89106  3.83525         2230.20542     19.48912  0.01713  57342.17267  1.01267  1.28983   5122332.93012  43.77519   21.9487  57379.19142    50.54657       43.98302   15.87442  25.97633   85.0    0.21347  -19.93606  0.56349 
  -16.05896  0.06581   9.03584     14.96959  1.95764  0.22528   3.64091  0.03478      0.1029  6083.84815   6977.44702  0.67706         2166.91527     16.71186    3e-05  57339.16104  0.80388   0.2396    170729.35313  45.41633  21.91709  57379.19142    50.51962       43.73406   18.76068  51.95266   64.5    0.23616  -19.91333  0.91893 
   -16.7203  0.02501   7.21344     14.13412  1.42839  1.12371   9.07388  0.01491     0.11512  5718.67926   7458.09181  1.77354         2289.49914     18.42873  0.00149   57338.4997  1.77016  0.22692   3721501.53096  44.13669  21.93901  57379.19142    50.55362       43.77654   20.20381  46.18014   66.0    0.23649  -19.91588  0.92099 
  -11.49322  0.28282   9.63018     14.22496  1.92583  1.36917   2.41303  0.03216      0.3988  6561.20305   9285.36484  1.43128         2426.53869     19.80092  0.03513  57343.72678  0.61966  0.68245    5885421.5931  43.81642  21.94712  57376.93292    50.63647       43.82736   15.87442  47.62327   63.5    0.16864  -19.97325  0.76981 
  -10.91714  0.00611   8.86739     14.16857  1.69932  1.28745   4.18873  0.02213     0.06092  5992.09213   8445.91521  3.19986         2669.44209      18.0691  0.00065  57344.30286  0.89715   0.0256   5708840.54167  43.84698  21.91116  57376.93292    50.51463       43.85171   17.12846  39.15358   63.5    0.25791  -19.90495  0.98869 
  -15.68103  0.00316   7.50492     14.43054  1.63039  0.65291   5.10655  0.02297     0.01687  5922.95233    8471.6422   0.5234         2462.35695     16.43486    2e-05  57339.53897  1.06864  0.01614   1174132.75191  44.66073  21.96818  57376.93292    50.50409       43.89537   15.87442  34.63511   47.0    0.26104  -19.90569  0.99466 
  -11.86527  0.04967    8.5884     14.57935  1.72603  0.32908   4.63981  0.01836     0.22527  6597.03246   5540.41552  3.05048         2335.49347     16.20088    1e-05  57343.35473  1.20455  0.23048    820317.62715  44.72409  21.96003  57379.19142    50.61741       43.76604   20.20381  53.39579   84.5    0.18687  -19.94138   0.9127 
  -13.28987  0.00409   8.48408     14.64815  1.79681  0.36523   4.19212  0.02425     0.01973  6099.33034   5122.00714  2.54632         2071.75176     16.59073    2e-05  57341.93013   0.9303  0.01717    607052.26647  44.88291  21.94998  57379.19142    50.60046        43.9774   17.31755  28.86259   57.0    0.21851  -19.90851  0.99365 
   -11.6153  0.44094    9.3332     14.29401  1.33852  0.26208   5.51819  0.01657     0.07048  5831.19358   6829.58409   1.7676         2978.08913     16.79941    4e-05   57343.6047  1.11928  2.43321   2795639.75257  44.00893  21.97274  57379.19142    50.60836        43.8087   17.31755  47.62327  120.0    0.17052  -19.91424  0.31983 
  -14.60365  0.08629   8.79449     14.40959  1.73641  0.58376   5.27516  0.02242     0.28427  6168.73316   5575.76066  3.70329         2102.02047     16.79172    3e-05  57340.61635  1.19744  0.45521   1891117.45741  44.34336  21.96143  57379.19142    50.57293       43.87622   17.12846  39.15358   85.0    0.19875  -19.93586  0.83757 
  -12.91047  0.03234   8.86879     14.27723  1.91124  1.49859   3.15103  0.02301     0.49328  6492.70395   4351.96954   0.3671         2623.98038     17.11052    7e-05  57342.30953  0.79237  0.10191   3894025.51937  44.06403  21.94276  57379.19142    50.62869       44.01268   17.31755  27.09876   61.5    0.20802  -19.91199  0.96375 
  -11.90102  0.03949  10.35012     14.50247  2.14589  0.94151   7.56212  0.01427     0.11022  6328.70771   5899.87135  0.98456         2801.25119     19.50487  0.01777  57343.31898  1.80676  0.29861   2110482.13763  44.24618  21.93499  57379.19142    50.51205        43.8382   17.31755  37.52136   65.5    0.28518  -19.94233  0.88836 
  -11.21657  0.31417   9.31312     14.12081  1.80957   1.1595   2.55949  0.02953     0.02092  6887.07303   6592.05105  4.56378         2061.27732     16.13952    1e-05  57344.00343  0.72419  0.80412   8355312.23848  43.66627  21.93471  57379.19142    50.57542       43.90268   18.76068  31.74885   51.5     0.1428  -19.96157  0.72886 
  -11.25172  0.01785   7.71457     14.19151  1.67054  1.01501   3.92444  0.02189     0.30673  6244.20555   7596.63853  3.11848         2106.30325     20.24056  0.09667  57343.96828  0.91277  0.07005   3821902.90721   44.1348  21.96446  57379.19142    50.55605       43.75869   18.76068  54.83892   71.0    0.20774  -19.99244  0.97643 
  -12.92653  0.00159   9.11551     14.20223   1.9978  1.10686   3.68405  0.02459     0.24567  5682.55187   7503.56452  3.71453         2584.89091      19.8966  0.04379  57342.29347  0.70964  0.00584   6073978.30664  43.86636   21.9274  57376.93292    50.55422       43.82191   15.87442  40.40762   85.0    0.20109  -19.94527   0.9978 
  -12.38198  0.04331   7.70949     14.51601  1.56582   0.4316   4.30845  0.01699     0.44987  6188.72215   7109.63209   0.5527         2874.73933      17.2687   0.0001  57342.83802  0.98435  0.18662    802767.89769  44.78495  21.94529  57379.19142    50.53166         43.823   17.31755  38.96449   67.5    0.20636  -19.91085   0.9343 
  -12.09938  0.00285   7.12779     14.05784  1.52449  0.97397   2.17148  0.03223     0.01489  5964.92129   3668.99534  3.04942         2218.80202      19.6914   0.0273  57343.12062  0.46088  0.00618   5510316.36905  44.00488  21.93293  57379.19142    50.66035       43.95429   18.76068  33.19198   47.5    0.16603  -19.93205  0.99788 
  -13.47682  0.00241   7.32125     14.26725  1.63699  0.54358   2.38477  0.02549     0.01194  5933.40891   3820.69426  2.30148         2094.22091     16.77672    3e-05  57341.74318  0.50082  0.00576   2379750.57423  44.37719  21.94541  57379.19142    50.56993        43.7817   17.31755  47.62327   45.5    0.15971  -19.90393  0.99812 
  -12.31066  0.11791   10.4249      14.2145   1.6213  1.10913  10.47184  0.01139     0.01018  5622.08621   8239.34849  4.85484         2452.76225      17.0214    6e-05  57342.90934  1.97445  1.23468   6092997.16649  43.65773  21.95126  57376.93292    50.56239       43.98896   15.87442  30.30572   75.5    0.21545  -19.88846  0.54755 
  -13.19959  0.01729   8.26373     14.20322   1.6828  0.97941   5.77273  0.01664     0.02466  6027.43774   9425.23859  3.95829         2095.42975     16.90999    5e-05  57342.02041  1.25105  0.09982   4185625.51976  44.03877  21.93776  57379.19142    50.56004       43.96174   18.76068  30.30572   56.0    0.19771  -19.89518  0.96221 
   -9.25103   0.0014   8.10445     14.13651  1.61671  1.10328   2.94015  0.02237     0.04587  6595.89931   9915.57581  2.84593         2303.41445     16.98335    5e-05  57345.96897  0.76304   0.0041   5258784.65836  43.93915  21.94734  57379.19142    50.52721       43.95404   15.87442  31.74885   49.5    0.20023  -19.91117  0.99834 
  -10.85027  0.00205   8.40404     14.04371  1.72266  1.48255   2.98454  0.02535     0.03725  6155.87006   5989.40875  4.02227         2590.11798     17.82405  0.00037  57344.36973  0.67466  0.00612   9238025.17046  43.69049  21.94895  57379.19142    50.58733       43.84715   17.31755  43.29388   73.0    0.19226   -19.9134  0.99754 
   -9.70664  0.34659   7.15012     14.15313   1.5313  0.41222   2.45734  0.02268     0.01487  5945.80826   5330.23294  3.00308         2683.68853     17.67994  0.00027  57345.51336  0.51822   0.8517   3591189.68111  44.19004  21.94162  57379.19142    50.60837       43.98393   14.43129  30.30572   55.5    0.09846  -19.92676  0.75616 
  -10.55481  0.08612    9.0735     14.32929  1.64617  0.55156   6.38451   0.0135     0.07901   6131.3861   6559.81936  4.22965         2627.25566     16.77201    3e-05  57344.66519  1.43177  0.54984   2762251.03292  44.12851  21.95902  57379.19142    50.57387       43.82847   18.57159  39.15358  100.5    0.20636  -19.89813  0.78276 
  -11.82467  0.25135   8.88452     14.15087  1.36566  0.92195    4.6013  0.02033     0.01041  6005.07449   3168.57711  1.94609         2721.95819     16.35869    1e-05  57343.39533  0.98979  1.15654   4996815.01085  43.80823   21.9592  57379.19142    50.62805       44.00281   15.87442  30.30572   58.5    0.20847  -19.88939  0.57966 
  -12.10956  0.00293   8.23807     14.46889  1.71752  0.37641   3.23649  0.02164     0.05111  5995.70222    4736.1977  2.84937         2587.68783     18.65266   0.0025  57343.11044  0.69404  0.00947   1249074.16101  44.57551  21.96654  57379.19142    50.63734       43.74813   20.20381  63.49769   73.5    0.16318  -19.89079  0.99633 
   -11.1835  0.00645   8.08007     14.64331  1.51901  0.34564   9.09751    0.013     0.18232  6042.34895   5358.10278  1.99241         2653.98215     17.01802    6e-05   57344.0365  1.98135  0.05865    475975.18761  44.95799  21.95657  57379.19142    50.61764       43.92428   14.43129  34.63511   60.0    0.30674  -19.91611   0.9753 
   -10.4869  0.40248  10.91191     14.27244   1.9963  1.36934   2.44677  0.03217     0.11182  6853.04192   5947.23772  3.13316         2009.68487      17.7066  0.00028   57344.7331  0.68547  0.98479    6294512.4639  43.69431  21.97123  57376.93292    50.71182       43.74706   17.31755  82.25838   83.0    0.16981  -19.93562  0.65479 
  -12.00591  0.00277   8.01505     14.28423  1.74546  0.98193   8.72517  0.01117     0.01545  6174.47841    4763.4587  1.68297         2241.17293     19.95797  0.05043  57343.21409  1.98427  0.02413   2812457.51235  44.25386  21.92726  57379.19142    50.59584       43.81379   20.20381  41.85075   61.0    0.23697  -19.96643  0.99172 
  -11.28689  0.00604   8.81273     14.07669  1.71842  1.55514   7.77054  0.01072     0.43165  5686.60676   6202.63599   4.5802         2729.08952     17.91259  0.00045  57343.93311  1.49894  0.04691   8705313.64783  43.67397  21.98826  57379.19142    50.53452       43.92291   17.31755  36.07823   88.5    0.22049  -19.88879  0.97965 
  -13.04218  0.02161    6.6791     14.06103  1.42403  0.96265   4.64613  0.02237     0.01453  6099.88225   6255.24871  4.36349         2090.77062     20.31711   0.1153  57342.17782  1.03124  0.10039   4453665.24914  44.12421   21.9563  57379.19142    50.59576       43.79174   21.64694  44.73701   60.5    0.19934  -20.03546   0.9679 
  -11.45355  0.07403   9.73722     14.27997  2.02077  1.26718   4.05838  0.02136     0.46528  6166.40923   6394.92736  3.45869          2058.4636     18.41431  0.00144  57343.76645  0.92055  0.30044   4900795.16213  43.90722  21.93716  57379.19142    50.54383        43.7601   18.76068  44.73701   81.0    0.19152  -19.89599  0.88922 
  -13.31105  0.01198   6.69573     14.07715  1.30169  1.30801   4.45072  0.02243     0.05439  6140.68145   7928.00475  0.92692         2320.97452     17.63911  0.00024  57341.90895  1.00113   0.0533   3798623.00938  44.15213  21.94661  57379.19142    50.60629       43.78624   20.20381   49.0664   56.5    0.25994  -19.88439  0.98052 
  -11.49615  0.00179   7.59953     14.08025   1.5099  1.30851   4.34467  0.01872     0.45334  6806.09729   4280.73186  1.26955         2514.73053     17.47913  0.00017  57343.72385  1.20055  0.00778   5595501.00386  43.93838  21.93864  57376.93292    50.49168       43.84507   17.12207  37.71684   64.0     0.2202  -19.95289  0.99697 
  -15.13359  0.00304   8.71187     14.24128  1.79339  1.21444   2.79098  0.04871     0.06591  5692.48804   6043.92684  3.99978         2210.93641     17.43685  0.00015  57340.08641   0.5395  0.00848   4160625.45541  44.02314  21.94413  57379.19142    50.52644        43.8434   20.20381  41.85075   68.0    0.24809  -19.89489  0.99667 
  -12.54331  0.28926    8.0128     14.09157  1.41574  1.21451   2.45883  0.03022     0.01779  6147.58791   6018.17773  1.08061         2489.27387     18.19109  0.00086  57342.67669  0.55433  0.71124   5536380.70234  43.86903  21.93922  57376.93292    50.55694       43.81348   15.67894  49.26188   51.0    0.18031  -19.87066  0.74611 
  -10.84614  0.16249   9.91204     14.40077  1.69164  0.66639   5.82374  0.01645     0.20638  6167.23867   5604.08078   2.1898         2535.87118     18.95272  0.00498  57344.37386  1.32133   0.9463   2437269.27574  44.11792  21.93965  57379.19142    50.52163       43.92863   17.31755  30.30572   93.0    0.21253   -19.9026  0.65236 
  -12.00595  0.00258   7.40966     14.17391  1.51124  0.86909   1.63313  0.04945     0.01973  6210.19695   4059.25231  1.64877         2314.28621     19.15064  0.00786  57343.21405  0.37572  0.00421   3458781.64612  44.16966  21.94665  57379.19142    50.55615       43.84439    18.5652  39.15997   43.5    0.22394   -19.9093  0.99844 
  -12.18097  0.39753  10.88302      14.1699  1.58272   1.3605   3.75756  0.02949     0.44166  5925.31768   6319.08478  4.63132         2375.50764     16.91602    5e-05  57343.03903  0.78697  1.49373   7960013.91128  43.49384   21.9227  57376.93292    50.45972       43.86355   17.12207  33.38746  111.5    0.20718  -19.88541  0.46845 
  -14.73001  0.29512    9.5492     14.39735  1.60723  0.75877   4.12939  0.02841     0.07536  5576.17416   4352.52749  1.80469         2416.46812     16.46244    2e-05  57340.48999  0.76592  1.21868   2183350.78595  44.17586  21.94247  57379.19142    50.67403       43.86703    18.5652  44.93249   85.0    0.21013  -19.87771  0.59597 
  -11.91499  0.02273    7.8771     14.15373  1.57283  1.00455   2.99751  0.02696     0.01344  5751.88873   9781.21494  1.95172         2565.03331     17.76227  0.00032  57343.30501  0.59157  0.06812   4464464.84295  44.02302  21.97667  57379.19142    50.58365       43.81817   17.31755  44.73701   42.5    0.21277  -19.87832  0.97375 
  -12.12187  0.01916   8.01913     14.07029    1.664  1.36699   3.56158  0.02091     0.12411   6257.5645   3795.67527  2.72744         2146.63022     17.45453  0.00016  57343.09813  0.83192  0.06826   7188712.79141  43.82509  21.95635  57376.93292    50.53333       43.74971   18.76068  60.61143   73.0    0.15707  -19.90318  0.97467 
  -16.56402  0.01629   8.65161     14.58013  1.98344  0.60347   4.70788  0.02509     0.09327   6255.2214   8654.80057   0.0873         2099.14644     17.61127  0.00023  57338.65598  1.09885  0.07671    953181.95251   44.7129  21.96551  57376.93292    50.63514       43.89609   14.43129  40.40762   49.5    0.26083  -19.93053  0.97533 
  -10.88892  0.02167    7.4494     14.11728   1.4729  0.87316   5.56754  0.01374     0.15311  6439.46302   9514.08558  4.74499         2037.48024     16.99333    5e-05  57344.33108  1.37718  0.12067   4422504.15835  44.04711   21.9673  57376.93292    50.59972       43.75772   17.31755  72.15647   59.0    0.18098   -19.9198  0.95469 
  -10.85677  0.02655   9.07875     14.32084  1.87782  0.68343   3.51913   0.0204     0.02485  6029.67385   9774.99038  2.97113         2605.10257     16.05912    1e-05  57344.36323  0.76322  0.09344   3279762.68121  44.11061  21.93588  57379.19142    50.49964       43.77954   21.64694  40.40762   55.0    0.17999  -19.89116  0.96302 
  -12.36608  0.03352   7.46998     14.02244  1.44022  1.04771    7.5289  0.01142      0.0247  5939.01916   5903.33864  2.86777         2492.42279     18.32398  0.00117  57342.85392  1.58412  0.25238   6729767.02341  43.85263  21.95655  57376.93292    50.52305       43.86714   17.31755  37.52136   83.0     0.1822  -19.90241  0.90561 
  -14.10954  0.00402   8.25516     14.22957  1.79118  1.56034   4.43365  0.02169     0.12397  6040.53082    3607.6535  0.60948         2597.66165     17.11031    7e-05  57341.11046  0.96503  0.01783   3937967.71028  44.09326   21.9302  57381.44992    50.55527       43.84566   20.20381  34.63511   63.5    0.22351   -19.9079  0.99376 
  -14.97005  0.00154   8.08128     14.32984  1.81035  0.95467    5.3992   0.0179     0.40398  6030.49296   4615.06995  0.45535         2053.18971     16.03125    1e-05  57340.24995  1.17128  0.00833   2403569.27793  44.33079  21.92044  57379.19142    50.55797       43.84063   17.31755  40.40762   62.0    0.22148  -19.89978  0.99725 
  -11.21335  0.00714   8.27342     14.20633   1.7728  0.94483   3.79517  0.01631      0.4954  6774.28061   4294.98094  1.27125         2339.99533     16.92636    5e-05  57344.00665  1.03893   0.0271   4356915.15223  44.04296   21.9618  57379.19142    50.59391       43.89456   17.31755  38.96449   67.0    0.15767  -19.96496  0.99016 
  -11.62993  0.00568   9.14334      14.2055  1.94463   1.2917   1.88195  0.04456     0.05915  6510.13469   6574.69264  4.02433         2109.06288     17.27048   0.0001  57343.59007  0.47579  0.01069     5859625.813   43.8676  21.93865  57379.19142    50.66462         43.946   17.12846   34.8242   63.0     0.1921  -19.92251  0.99585 
  -12.95767  0.21615   9.23797     14.22848  1.66418  1.47796    4.2069  0.02063     0.30082  6028.68062   7810.45985  0.76226         2866.52227     18.05503  0.00063  57342.26233  0.91208  0.90931   4604834.60806  43.89568  21.94727  57379.19142    50.62395       43.90982   17.31755  34.63511   78.5    0.20101  -19.89716  0.68979 
  -10.36442  0.11391   7.32677     14.07127  1.32047  1.22798   8.16495  0.01142     0.22761  6407.58127   6927.56155  3.02398         2117.37859     20.27697  0.10512  57344.85558  1.99972  0.93005   4740476.01788  43.98393  21.95482  57379.19142    50.50144       43.82922   17.12846  40.59671   85.5    0.21199   -20.0125  0.70935 
  -15.44782  0.30653   9.68122     14.26513  1.35428  1.08861   5.16611  0.03325     0.21039  6033.75077   9870.66931  2.28758         2595.86334     19.58006  0.02112  57339.77218  1.12193  1.58358   3476370.13299  43.88757  21.93309  57379.19142    50.54512       43.82808   17.31755  44.73701   64.0    0.24011  -19.95546  0.46171 
  -13.06162  0.11437   8.99489     14.19559  1.44453  1.32166   9.20167  0.01457     0.12407  6472.75314   6782.50696  2.64551         2182.87336     17.28965  0.00011  57342.15838   2.2997  1.05237   4409166.98823  43.87622  21.97654  57379.19142     50.6158       43.85179   18.76068  40.40762   83.0    0.23785  -19.93085  0.62154 
  -10.43948  0.35522  10.36259     14.31358  1.83353  0.65195    3.9276   0.0217     0.10776  6929.07237    4538.9515   4.6552         2035.95847     17.55926   0.0002  57344.78052  1.12488  1.39517   4313905.45461  43.86633  21.96178  57379.19142     50.5869       43.88824   17.31755  36.07823   86.0    0.14001  -19.97935  0.55725 
  -11.76351  0.00399   8.82116      14.1677  1.90802  1.25685     3.044  0.02879     0.06793  5823.08667   6801.03545  4.01153         2295.05066     19.21532  0.00912  57343.45649  0.61571  0.01214   6368569.28583  43.85433  21.96754  57376.93292     50.6106       43.99553   14.43129  30.30572   80.0    0.18673  -19.90794  0.99546 
  -16.83129  0.14493   8.53376     14.30445   1.8419   0.9068   3.01694  0.02875     0.01728  5803.64841   5634.10545  0.33977         3084.97172     18.99655  0.00551  57338.38871  0.60617  0.43725   3065161.32778  44.18538  21.93143  57379.19142    50.62263       43.83086   20.20381  43.29388   53.5    0.17492    -19.932   0.8627 
  -14.16741  0.00191   7.30822     14.17628  1.64698  1.26115   4.26467  0.01866     0.26453  6398.55336   5970.49521  0.42667         2395.24043     20.10581  0.07088  57341.05259  1.04154  0.00814   3627205.64939  44.19834  21.96663  57379.19142    50.57252       43.91454   18.76068  31.74885   66.5    0.20136  -19.98774  0.99746 
  -12.62541  0.04656   7.74201     14.26234  1.58583  1.03804   2.52819  0.03441     0.07284  6933.35052   8122.35512  0.07264         3445.67789     18.80302  0.00353  57342.59459  0.72498  0.11771   2636994.98432  44.27028  21.93365  57379.19142    50.58175       43.86804   21.45146  34.83059   50.5    0.26007  -19.94441  0.95826 
  -10.96597  0.37284  11.08642     14.28759  1.58625  0.93423    3.2987  0.03408     0.07365   5784.3929   4513.18334  4.09431         2730.73439     16.21088    1e-05  57344.25403  0.65839  1.22989   4814909.22184  43.69705  21.96342  57379.19142    50.64132       43.89542   15.87442  40.40762   85.5    0.25358  -19.90436  0.51015 
  -12.22997  0.00379   8.71566     14.33801  1.81134  0.65251   3.90248   0.0236     0.10314  5646.42501   7964.20525   4.7869         2390.63539     18.35209  0.00125  57342.99003  0.74219  0.01478   2694052.71775  44.21584  21.92119  57379.19142    50.48256        43.7702   18.76068  40.40762   79.0    0.20864  -19.89247  0.99417 
   -9.41932  0.48594  10.59028      14.2821   1.4441  0.78838   3.47443   0.0263     0.44182  6221.01141   7680.54644  2.94254         2564.57989     19.96064  0.05074  57345.80068  0.80211  1.68838   4102222.32224  43.76561  21.92879  57379.19142    50.53069        43.9589   17.31755  28.86259  105.5    0.21733  -19.92735  0.41875 
  -10.31748  0.10855   9.99239     14.37585  1.87025  0.81552   6.01181   0.0135      0.0165  6193.67725   7967.90455  3.00752         2331.50321     17.82455  0.00037  57344.90252  1.37572  0.65256   3071473.14426  44.05406  21.95468  57376.93292    50.59509        43.8051   17.31755  46.18014   65.0     0.2101  -19.90105  0.75725 
  -10.99914  0.01195   8.59586     14.24244  1.81125  1.01893   3.32395   0.0215       0.024  6688.16067   3958.01523  2.09753         2097.35538     19.45628  0.01589  57344.22086  0.88694  0.03971   4069066.12873  44.04875  21.93885  57379.19142    50.50208       43.87842    18.5652  34.83059   52.0    0.18755  -19.93552  0.98511 
  -12.44812  0.00757   7.46084     14.09961  1.52275  0.78005   6.29919  0.01284     0.38988  6034.63986   6836.29026   2.9297         2605.99146      17.2169    9e-05  57342.77188  1.36841  0.04765   4974960.95857  44.00911   21.9422  57376.93292     50.6866       43.80366   15.87442  72.15647   90.5    0.16758  -19.92326  0.98209 
  -15.68163  0.00447   7.42826     14.40955  1.62912  0.66353   7.06995  0.01505      0.1044  5850.98441   4720.64484  0.13753         4548.63363     16.61774    2e-05  57339.53837  1.44378  0.03161   1266017.10294  44.63659  21.95295  57379.19142    50.60691       43.82314   20.20381  43.29388   60.5    0.24071  -19.91936  0.98978 
  -11.51218  0.01164   9.38412     14.25212   2.0451  1.00083   4.60714  0.01704     0.36514  6390.90392   7172.82786  4.90813         2111.21998     16.58358    2e-05  57343.70782  1.12249  0.05361   5236947.19401  43.91569  21.96459  57379.19142    50.60475       43.96978   15.87442  28.86259   80.0    0.17068   -19.9185  0.97979 
  -11.97015  0.02635   7.82845     14.24512   1.6294  0.76244   4.78973  0.01907     0.04933  6519.89404   8291.15873  3.37235         2112.99681     20.02409  0.05872  57343.24985  1.21456  0.12619   2998810.05863  44.21657   21.9688  57376.93292    50.62568       43.84525   15.87442  46.18014   65.0    0.19391  -19.98493  0.95527 
  -13.76437  0.04214   9.27666      14.6894  1.91985  0.40777    8.9918   0.0114     0.02065  6410.14455   3339.39964  0.81039         2217.59502      17.3913  0.00014  57341.45563  2.20399  0.37891    641298.45024  44.81027   21.9139  57379.19142    50.55229       43.89889   17.12207  29.05807   63.0    0.21943  -19.92669  0.86791 
  -15.42222   0.0015   6.35112     14.38227  1.39559  0.47715   3.67176  0.03161     0.47627  5651.92717   7397.84881  0.75831         2634.24925     20.18662  0.08538  57339.79778  0.69967  0.00551    898951.62499  44.85417  21.91258  57379.19142    50.48393       43.85092   17.31755  34.63511   65.5    0.21997   -19.9818  0.99834 
  -12.90482  0.00121   8.46483     14.30579  1.77052  0.80356   3.76769   0.0275     0.02528  6252.14245   5269.73082  2.77124         2172.56665     17.15515    8e-05  57342.31518  0.87854  0.00457   2881228.79436  44.20213  21.94226  57376.93292    50.49368        43.8544   17.12207  39.15997   60.0    0.21683  -19.92589  0.99826 
  -16.87691  0.00354   7.42683     14.14163  1.57048  1.56399   4.27467  0.02466      0.2573  5371.09931   3538.52915  0.64125         3184.36795     19.40511  0.01412  57338.34309  0.73562  0.01515   4189722.63821  44.10108  21.92502  57379.19142    50.51649       43.95938   15.87442  30.30572   66.5    0.23081  -19.88731  0.99477 
  -14.00856  0.01161   8.82206     14.21359  1.68572  1.14854  11.00608  0.01097     0.01048  5179.68152   4825.11424  3.14723         2775.21995      17.6657  0.00026  57341.21144  1.76143  0.12782   4555797.33123  43.94593  21.95116  57376.93292    50.67457        43.8445   15.67894   55.0344   67.0    0.26336  -19.89401  0.94616 
  -14.00944   0.0863   6.89702      14.5905  1.37877  0.33192   4.13505  0.02512     0.36934  5990.99235   3304.10458  0.68669         2103.28416     16.05752    1e-05  57341.21056  0.88533  0.35686    401449.91202  45.12738  21.91826  57379.19142    50.50531       43.87398   17.31755  34.63511   66.5    0.22078  -19.90191  0.88554 
  -11.46185  0.00593   9.99865     14.83929  2.11264  0.26741   4.42211  0.01756     0.10774  6083.55867   5133.22306  2.20191         2622.80279     18.24156  0.00097  57343.75815  0.97628   0.0262    411104.81562  44.97984  21.93592  57379.19142     50.6025       43.99631   14.43129  30.30572   76.5      0.207  -19.89463  0.98933 
  -12.86126  0.02305   9.18492     14.14059  1.96335  1.20369   4.40688  0.01775     0.20694  5376.70923   9644.83041  2.91837         2849.67541     17.06613    6e-05  57342.35874  0.75996  0.10158   8049803.85997  43.72991  21.96389  57379.19142    50.58908       43.84698   20.20381  38.96449   77.5      0.178  -19.88785  0.96122 
  -13.47115  0.06808   8.06824     14.04177    1.679  1.01228   3.41558  0.02564     0.01365  5627.46134   9784.72998  4.84691         2572.83115     16.97467    5e-05  57341.74885  0.64523  0.23252   8372840.21708  43.75747  21.92589  57376.93292     50.6512       43.76394   18.76068  69.27021   51.5    0.16653  -19.91252  0.91641 
  -18.66932  0.00218   8.45054     14.36237  1.99563  1.14791   6.52271  0.02051     0.02099  5837.01757   7521.25142  0.12261         2690.74932     16.59307    2e-05  57336.55068  1.32568  0.01422   2494141.08535  44.31823  21.93339  57379.19142    50.56411       43.86259   17.12207  37.71684   55.0    0.24217  -19.91948  0.99558 
  -11.35249  0.01009   8.06437      14.1782  1.73448  0.80835   1.83768  0.02529     0.02061   5665.8104   6707.94781  1.65931         2848.37057     16.29487    1e-05  57343.86751   0.3519  0.01854   4610170.19067  44.03116  21.95332  57376.93292    50.56151       43.85456   18.76068  37.52136   52.0    0.13101  -19.88604  0.99326 
  -13.23326  0.23356    7.5554     14.18754  1.21178  0.73627   3.67213  0.02977     0.01024  5922.79519   9000.42465  3.14612         2313.22866      19.3259  0.01177  57341.98674  0.76842  0.85766   2708192.73252  44.16308  21.97681  57379.19142    50.61884       44.02101   18.76068  28.86259   45.0     0.2404  -19.89572  0.68573 
  -12.48763  0.02278   8.32834     14.16763  1.76814  1.38739   2.70664  0.02883     0.02363  6569.32836   7168.97849  1.11231         2162.17071     16.18513    1e-05  57342.73237  0.69679  0.06166   5262337.08975  43.95407  21.93542  57376.93292    50.54341       43.70446   18.76068  57.72518   48.5    0.18915  -19.93729  0.97771 
  -12.97321  0.03836   8.55254     14.09054  1.89182  1.55225   4.66222  0.01746     0.11583   6210.2277   7338.20714  2.97553         2335.24569     19.76035  0.03199  57342.24679  1.07259  0.17884   8468616.29498  43.75372  21.93002  57379.19142     50.4917        43.7609   18.76068  47.62327   87.0    0.14911  -19.97394  0.93929 
   -9.32477  0.05163   8.62488     14.13099  1.82977  1.19053   2.72908  0.02361     0.04563  6460.30111   5038.10601  2.83351          2502.2542     19.83701  0.03817  57345.89523  0.67944  0.14091   6914000.22313  43.82001  21.95761  57379.19142     50.6938       43.97514    18.5652  42.04623   68.0    0.16699  -19.96843  0.94859 
  -11.83561  0.03871   7.73964      14.2789  1.89157  1.32975   5.23884  0.01847     0.20802  6423.39957   4496.46655  1.78366         2013.22866     20.54272  0.19384  57343.38439  1.28941  0.20278   2912641.48463  44.30394  21.94975  57379.19142    50.76282       44.17706   15.87442  25.97633   67.0    0.23752  -20.10354  0.94563 
  -11.28749  0.00127   7.90373     14.12637  1.68344   0.9589   2.39459  0.02553     0.04191  6030.39635   5064.76593  2.32881         2349.27725     17.89307  0.00043  57343.93251  0.51946  0.00303   5456814.19081  43.96244  21.94964  57379.19142    50.56669       43.86947   17.31755  34.63511   63.5    0.14357  -19.90028  0.99889 
  -12.42088  0.46129  10.70956     14.78882  1.76451  0.01565   7.13606   0.0206     0.01427  5930.88529   8308.50012  3.42054         2378.65761     17.85792   0.0004  57342.79912  1.49735  3.29178    496973.90882  44.75959  21.93938  57379.19142    50.61539       43.98667   15.87442  27.41946   87.5    0.19396  -19.89416  0.02874 
  -18.64958  0.05245   6.86807     14.54185  1.57181  0.51668      4.48  0.03167     0.34176  5643.05785   3095.24887  0.01277         5321.66774      17.2483   0.0001  57336.57042  0.85101  0.23499    567775.70551   45.0374  21.96221  57376.93292    50.59279       43.79169   17.31755  47.62327   59.0    0.26316  -19.89582  0.93572 
  -11.33114  0.01004   8.05341     14.09881  1.57999  1.53137   7.25873  0.01209     0.02409  6348.88719   6863.57835  1.88715         2551.38708     18.88348  0.00425  57343.88886  1.74535  0.07291   6036720.09466  43.87474  21.94182  57381.44992    50.53409       43.88085   20.20381  30.30572   68.0    0.22737  -19.92274  0.97098 
  -16.57169  0.00609   6.93145     14.31447   1.4068   0.6187    4.4053  0.02869     0.23309  6379.92475   8204.97585  0.46804         2687.46317     17.64251  0.00024  57338.64831  1.06963  0.02683   1474853.26714  44.56668  21.96975  57376.93292    50.48414       43.82322   15.87442  43.29388   54.5    0.26084  -19.95827  0.99052 
  -10.31104  0.05698    8.6851     14.07619  1.72528  1.17891   5.38876  0.01266     0.04073  5622.85814   5708.95506  3.46393         2650.69715      18.8286  0.00374  57344.90896  1.01632  0.30706   8508478.95101   43.6983  21.95176  57379.19142    50.59699       43.78228   20.20381   49.0664   94.0    0.17146  -19.86418  0.88302 
  -11.32286  0.10911   8.69768     14.26543  1.60011  0.84291    4.5274  0.01891     0.01752  6082.62069   9850.28844  2.49141         2382.79388     17.29701  0.00011  57343.89714  0.99921  0.49397   3310647.05672  44.07427  21.95511  57379.19142    50.49874       43.80509   21.64694  37.52136   50.5    0.21592  -19.88498  0.81184 
   -12.8426  0.00467   7.88354     14.09801  1.69158  1.33909   4.11862  0.02363     0.01919   5619.0873   6298.26993  3.13969          2464.0586     20.08228  0.06714   57342.3774  0.77573  0.01921   6216241.64195  43.91017  22.00248  57376.93292    50.48242       43.88652   15.87442  34.63511   67.5    0.20752   -19.9657  0.99319 
   -8.95433    0.298  10.16941      14.1441  1.69868  1.26349   3.72301  0.01902     0.04599  6263.29234   5768.55012  2.26992         2686.59186     17.18253    8e-05  57346.26567  0.87122  1.10946    8400788.1365  43.56005  21.94889  57379.19142    50.60007        43.8219   17.31755  43.29388   86.5    0.18327  -19.89221  0.59958 
  -12.59895  0.00394   8.63508     14.42259  1.83698  0.75974   4.10604  0.02225     0.03011   6235.6041   5841.25468  0.53513         2911.96551     17.12311    7e-05  57342.62105  0.95237  0.01617   1816665.61242  44.40114   21.9518  57379.19142    50.44959        43.8867   15.87442  31.74885   59.5    0.24038  -19.90934  0.99404 
  -12.28326  0.23657  10.36596     14.45498  1.84828  0.70994   3.78484  0.02631     0.05886  6226.32997   9447.66797   1.5068         2723.76279     19.52393  0.01856  57342.93674  0.87526  0.89538   2269034.76834  44.14855  21.95131  57376.93292    50.61751       43.77481   20.20381  53.39579   64.5    0.22164  -19.92931   0.6757 
  -11.21124  0.38754  10.10212     14.26166  1.80326  1.11867   2.66366  0.03449     0.01445  6710.35197    7050.2284  3.91189         2025.10965     18.30354  0.00112  57344.00876  0.71548  1.03227    5121308.5763   43.8067  21.95069  57379.19142    50.59747       43.85954   20.00833  39.15997   47.0    0.21065  -19.94449  0.64546 
   -14.0677  0.31847  13.56805     14.47862  2.07151  1.20612   6.24999  0.01975      0.4759  5959.45831   7246.34216  1.78591         2299.38559     17.45516  0.00016   57341.1523   1.3241  1.99042   3907451.33832   43.7282  21.94171  57379.19142     50.4534       43.84467   17.12846  36.26733  105.0    0.18204  -19.92446  0.39477 
  -12.08346  0.00177   7.52475     14.68558  1.53557  0.20914   2.77239  0.02891     0.20269  6225.22463   8692.16806  4.59815         2086.46881     16.21377    1e-05  57343.13654   0.6409   0.0049    343485.28931  45.16622  21.99692  57379.19142    50.58637       43.83694   17.12207  43.48936   67.0    0.16748  -19.90379  0.99815 
  -10.16625  0.29268  12.03759     14.43135  1.96198  0.55572   5.07849   0.0186     0.02177  6034.73154   9331.47878  4.63583         2514.38743     18.13284  0.00075  57345.05375  1.10326  1.48638   3621424.67064  43.84158   21.9507  57379.19142       50.59       43.97373   17.31755  27.41946   77.0    0.19141  -19.87621  0.48889 
   -9.86621  0.00199   8.75409     14.23612  1.96036  1.02606   3.12846  0.01961     0.40211  6382.41511   9445.10571  4.76135         2059.97852     20.10516  0.07078  57345.35379   0.7602  0.00621   4702569.29105  44.00442  21.94777  57376.93292    50.59498       43.84347   17.12207  42.04623   59.5    0.16654  -19.96336   0.9978 
  -11.93366  0.22414    9.2661     14.29507  1.83568  0.49365   5.04386   0.0162     0.02885  5896.07118   8815.80695  4.57586         2466.29333     18.64904  0.00248  57343.28634  1.04596  1.13053   3760629.06381  44.02359  21.95908  57376.93292    50.48406       43.77569   17.31755  47.62327   76.5    0.13519  -19.92596  0.65214 
  -15.16707   0.0041   9.04081     14.32977  1.86942  0.85762    3.6943  0.03313     0.04313  5280.70691   4459.55519  2.82602         2633.28876     16.20559    1e-05  57340.05293  0.61453  0.01513   3107429.19767  44.13574  21.96338  57379.19142     50.5471       43.78991   18.76068   49.0664   70.0    0.23918  -19.89216  0.99396 
  -13.16297  0.00111   8.40041     14.35453  1.77062  0.68182   4.19613  0.01932     0.02593  5934.19818   8781.94854  1.92148         2343.95145     16.08568    1e-05  57342.05703  0.88146  0.00464   2267164.00543  44.31289  21.94157  57379.19142     50.5829       43.93681   17.31755  30.30572   56.5    0.19176  -19.88564  0.99825 
  -14.30277   0.0873   8.41998     14.46903  1.40982  0.60036  12.37295  0.01336     0.02183  5914.95924   4457.94806  3.35773         2101.80169     17.03315    6e-05  57340.91723  2.58228  1.08019   1070393.84153  44.53784  21.96434  57379.19142    50.61581       43.97293   17.31755  28.86259   73.5    0.24851  -19.92234  0.64005 
  -13.45801  0.00248   7.88813     14.07689  1.61181   1.5427   4.07661  0.01924     0.06919  5653.14504   6919.46888  1.31141         3048.19535     17.57553  0.00021  57341.76199  0.77715   0.0101   6535768.04861  43.86692  21.96159  57379.19142     50.6268       43.89168   14.43129  40.40762   78.5    0.20003  -19.90759  0.99614 
  -12.36458  0.12434  10.95279     14.32526  1.91599  1.07323   8.25749  0.01385     0.24966  5469.22597   9795.71223  3.39708         2578.29373     19.66738  0.02583  57342.85542  1.47342  1.02671   4772427.30096  43.79345  21.93302  57379.19142     50.5809       43.87229   15.87442  36.07823   73.5     0.2115  -19.90861  0.63029 
  -14.26389  0.00199   8.26132      14.2399  1.82663   0.9349   3.23426  0.02363     0.07507  5788.40378   8071.63747  1.35698         2378.17449     16.79899    3e-05  57340.95611  0.64643  0.00643    3835004.6586  44.11263  21.95651  57379.19142    50.63203       43.93087   17.12207  34.83059   69.5    0.16347  -19.90209  0.99776 
  -11.59406  0.00407   6.97991     13.95619  1.28313  1.23554   3.43772  0.02952     0.45479  6038.07438   4486.95026  4.96281         2426.47243     18.33555   0.0012  57343.62594  0.74764  0.01401   7102267.70996  43.83802  21.94914  57379.19142    50.53746       43.93021   17.31755  28.86259   72.0    0.23945  -19.91398   0.9941 
  -15.15248  0.03281   8.35676        14.55  1.89254  0.41787   2.20124   0.0334     0.02305  6132.95043   8728.14058  0.73337         2483.78249     19.60795  0.02253  57340.06752  0.49389  0.07223    974846.17001  44.71288  21.96156  57379.19142    50.55232       43.90155   18.76068  38.96449   42.5    0.15737  -19.95523  0.97617 
   -9.81039  0.00134   7.40754     14.26703  1.42665   0.5668   4.91002  0.01472     0.12181  6263.39229   9134.60009  3.02807          2431.2458     17.51576  0.00018  57345.40961  1.14903  0.00656   2125296.58158  44.35639  21.93692  57379.19142    50.61348       43.95524   15.87442  30.30572   63.0    0.20968  -19.90143  0.99733 
  -12.10232  0.00712   7.35645     14.37432  1.39876  0.46872   6.87464  0.01428     0.05808  6041.04325    6216.2133   4.0012         2196.04009     17.11533    7e-05  57343.11768  1.49658  0.04896   1253886.71377  44.58299   21.9544  57379.19142    50.47837       43.86755   17.12207  36.27371   75.5    0.23151   -19.8886  0.98032 
  -11.88069  0.02457   8.14396     14.28376  1.85164  1.00595   8.98353  0.01109     0.20202  5441.60073   7619.11877   3.4562         2193.14007     20.37197  0.13083  57343.33931  1.58682  0.22075   3086867.19589  44.22521  22.00274  57379.19142    50.48271       43.86819   17.31755  36.07823   76.0     0.2193  -20.00263  0.93263 
  -11.15368  0.00405   8.51484     14.16573  1.73062  0.96955   4.51499   0.0168     0.20643  6273.01982   5045.23915  2.18814          2781.8607     17.41536  0.00014  57344.06632  1.05983  0.01829   5431406.16659  43.91178  21.94593  57379.19142    50.51223       43.75651   20.20381  51.95266   78.5    0.19394  -19.92226  0.99262 
  -11.55214  0.06775   7.53985     14.17103  1.60221  1.47521   4.32656  0.02085     0.01534    5941.705   7257.44917  2.41709         2137.43948     20.33839  0.12109  57343.66786  0.91115  0.29312   3847750.34521  44.13363   21.9557  57379.19142    50.52387       43.83632   18.76068  40.40762   58.0    0.23249  -19.98039  0.90779 
  -17.56446  0.00383    7.8722     14.25406  1.79879  1.21149   5.22234  0.02154      0.0152  5769.89655   6932.22479  0.22008         3092.59116     16.80179    4e-05  57337.65554  1.03712  0.02002   3212718.33954  44.22476  21.93107  57376.93292    50.50507        43.8507   15.67894  37.71684   54.5    0.22839  -19.92525  0.99369 
  -13.05619  0.16575   8.56336     14.59145  1.67263  0.41407   3.63473  0.02221      0.0177  6798.24279   3519.15477   0.2631         2838.03307     17.75385  0.00032  57342.16381  1.00206  0.60247    747474.31899  44.75336  21.94544  57376.93292     50.4868       43.74816   18.76068  50.50953   48.5    0.20187  -19.96559  0.79741 
  -13.85355  0.01451    8.1136     14.16414  1.71934  1.01249   2.45547   0.0362     0.19343  6574.83147   4200.39669  1.67901         2355.81181     17.50107  0.00018  57341.36645  0.63319  0.03562   4935372.21169  43.99246  21.97689  57376.93292    50.49132       43.76757   15.67894  52.14814   69.0    0.17889   -19.9666    0.987 
  -13.50555  0.00105   7.77029     14.25494  1.67445  0.98784   3.86896  0.01861     0.19481  6248.51293   7078.82533  0.23417          3509.3957     16.35328    1e-05  57341.71445   0.9011  0.00407   2901836.67407  44.24917  21.95117  57376.93292    50.56167       43.73402   18.76068  54.83892   63.5    0.20231  -19.92458   0.9986 
  -13.44481  0.00893   8.47433     14.19156  1.72803  1.11345   7.18374  0.01371     0.19631  6140.19966   7490.04447  1.55319         2595.91602     16.82352    4e-05  57341.77519  1.61563  0.06414   4769427.47846  43.97172  21.95042  57379.19142    50.46288        43.8091   17.31755  40.40762   70.0    0.21126  -19.91479  0.97513 
  -12.66647  0.00139   8.62129     14.35199  2.02196  0.94958   1.45548  0.04961     0.23121  6436.27223   8184.30716  0.61034         2471.62477     20.05607  0.06321  57342.55353  0.35967  0.00202   2759028.35601  44.26272  21.98529  57376.93292    50.53141       43.77076   17.31755  51.95266   59.5    0.18698  -19.99476  0.99935 
  -13.26938  0.43493   11.5094     14.52636  1.68107  0.41475   3.87058  0.02775     0.28906  5234.58783   4481.14148  2.85099         2798.26136     16.05394    1e-05  57341.95062  0.63266  1.68344   1831381.18414  44.10955  21.90671  57379.19142    50.50443       43.82893   18.76068  31.74885  108.5    0.17566  -19.85367  0.42776 
  -11.26747   0.0467   8.59589     14.44001  1.73748  0.58019   6.30291  0.01077     0.33958  6487.00835   4225.04438  0.75428         2868.55869     19.61221  0.02275  57343.95253  1.58218  0.29437   1571418.12558  44.44389  21.96887  57376.93292    50.58561       43.86369   15.87442  43.29388   68.0    0.19109  -19.94263  0.89383 
   -9.30958  0.17708  10.30759     14.62357  1.91816  0.20744   9.39573  0.01061     0.21985  6695.97707   4377.56488   4.9052         2512.18058     19.66422  0.02564  57345.91042  2.51296  1.66379   1071227.72261  44.49553  21.91859  57379.19142    50.55511       43.94469   17.12207   30.5012  106.5     0.1817  -19.95323  0.50776 
    -12.251   0.1447  11.94132     14.53797  1.80809  0.78846  10.23044  0.01349     0.13564  5996.79221   3518.64668  3.95614         2261.39272     17.11831    7e-05    57342.969  2.19462  1.48037   2010058.62497  44.06875  21.94035  57376.93292     50.5519       43.71413   18.76068  51.95266   83.5    0.24163  -19.91279  0.48164 
  -15.36277   0.0097   9.06485     14.56536  2.00984  0.75357   7.73822  0.02225     0.28848  5820.56355   8823.57362  2.17456         2033.04303     16.88686    4e-05  57339.85723  1.56386  0.07507   1134968.36333   44.6023  21.95193  57379.19142    50.60259       43.86225   17.12846  39.15358   44.5    0.29158  -19.90048  0.97416 
  -15.03753  0.00655   7.73122     14.20629  1.67101   1.4798   7.41311  0.01406     0.37013  6072.26799   3788.87149   0.2655         3001.16521     16.73477    3e-05  57340.18247  1.63053  0.04856   3586823.19832  44.16062  21.94196  57379.19142    50.60363       43.95828   17.31755  30.30572   61.0    0.23554   -19.9178  0.98368 
