 texplosion  fnickel     Pspin  log(Bfield)      Mns  thetaPB   mejecta    kappa  kappagamma     vejecta  temperature    alpha  cutoff_wavelength  log(nhhost)      A_V         MJD0  kenergy   mnickel               TSD   log(L0)  Peak_mag     Peak_MJD  log(E_rad)  log(Peak_lum)  Rise_Time     E_fold  tau_1  delta_m15     r_peak     frac 
  -18.67416  0.24716   3.76074     13.39222  1.61548  0.55219  28.12565  0.06196     0.04362  4635.16141   9350.63082  3.23766         3263.33186     18.75378  0.00315  59116.49772  3.60462   6.95167    34850907.24221  43.78438  19.95511  59236.35685    51.22177       43.84841   89.82005  198.13247  180.0    0.02195  -20.80388  0.46721 
  -53.02398   0.2903    4.2469     13.41588  1.72303  0.72091  36.39031   0.0838     0.03686  3327.39633   9034.26221  0.91185         3439.03644     17.78717  0.00034  59082.14789  2.40338  10.56411    42509949.30786   43.6205  19.94332  59249.51402     51.1748       43.81063  105.20118  180.10957  180.0    0.01711  -20.72129  0.35678 
  -23.61209  0.35213   3.55813     13.34016  1.47137  0.64515   17.6609  0.10413     0.06235   4408.7947   9491.45978  3.83084         3500.75411     16.79096    3e-05  59111.55979  2.04776   6.21886    36113035.41858  43.77646  20.08403  59239.79907    51.26414       43.85238   97.74535  237.75896  186.0    0.02367  -20.83253  0.52039 
  -23.46744  0.34321   3.56353     13.17719   1.7277  0.67224   23.8187  0.10831     0.03656   4619.5629   9569.13269  3.66651         3553.66792     18.48907  0.00171  59111.70443  3.03212   8.17484    90088618.28949  43.44788  20.09422  59284.54795    51.31841        43.8052  245.68426  256.25133  174.0    0.01944  -20.75442  0.38867 
 -159.61295  0.40785   29.7345     14.73921   1.3763  1.41678  98.25491  0.17407     0.01149   1921.1482   6982.79627  2.32587         3043.38465     17.79897  0.00035  58975.55892  2.16323  40.07355     3755129.90524  42.88641  19.97341  59232.51245    51.22621        43.8355    77.8462  213.58353  238.0    0.00547  -20.21008  0.00368 
  -27.51268  0.21838   4.35489     13.69552  1.67889  0.53125   37.0369  0.05088     0.03608  3385.30561   8875.17613  0.41902         2803.24577     18.21351  0.00091  59107.65919  2.53196   8.08805    12015728.07659  44.13616  19.95242  59249.51402    51.27001       43.93227   81.58953  185.56907  144.0    0.02062  -20.78411  0.46292 
  -18.70484  0.30014   3.21803      13.1265  1.45358  1.01936  18.26881   0.1174     0.06536  5527.11537   9021.40453  3.62073         2611.52203     16.02884    1e-05  59116.46703  3.32916   5.48314    78059722.68797  43.52368  19.90886  59239.79907    51.24438       43.88681   93.36806  207.79329  196.0    0.02221  -20.72808  0.58917 
 -186.37648  0.42565  18.40913     14.29855  1.59841  0.93168   95.8589   0.2536     0.03281  2670.13523   8804.79793  2.38424         3303.43396     19.24093  0.00968  58948.79539  4.07686  40.80233     12719706.4976  42.83799  19.92557  59239.79907    51.26254       43.90728   89.82005  206.05777  238.0    0.00481  -19.93369  0.01045 
 -179.08996  0.48244  28.01398     14.30624  1.20872  1.46852  95.87727  0.20003     0.01147  1959.57042    7672.3884  1.02141         3734.64413      17.5505   0.0002  58956.08191  2.19616  46.25458    21498845.39105    42.124  19.99325  59239.79907    51.31058       43.91889  118.87948  192.68842  244.0    0.00535  -20.14244  0.00265 
  -16.18079  0.29959   2.16766     12.70396  1.71572  0.92728   27.9403  0.07863     0.03178  5233.05961   8996.77879   2.1798         3035.84339     20.37282  0.13108  59118.99109  4.56425   8.37059   292627771.52461  43.36499  20.08129  59250.12574    51.17363       43.78488  110.95418  200.77423  196.0    0.02001  -20.88181  0.50525 
   -43.2668  0.37533     4.365     13.67809  1.78973  0.34371  21.65165  0.13681     0.08904  4989.87867     9458.275  4.15778         3548.78845     17.90749  0.00045  59091.90507  3.21587   8.12656    13944348.38118  44.09727  19.92025  59243.24129    51.27635       43.91794  103.02888   179.6401  178.0    0.01859  -20.76641  0.39128 
  -25.66211  0.47148    4.4326      13.3863  1.79733  0.52349  20.78173  0.12095     0.05969  4613.68012   9262.67664  4.63944         3385.45824     17.65138  0.00025  59109.50976  2.63878   9.79822    55354199.01802    43.487  19.93698  59232.51245    51.29972       43.89422    89.5114  235.42585  152.0    0.02362  -20.85947  0.27028 
  -26.24711  0.23202   3.42087     13.33538  1.62366  0.66473  26.55596  0.06326     0.03859  4271.13007   8851.96812  2.12438         2610.86032     17.97091  0.00052  59108.92477  2.88985   6.16148     37654605.1794  43.83525  19.96938  59243.24129    51.26723       43.89302  105.67065  206.05777  192.0    0.02243  -20.80427  0.57446 
  -35.49719  0.30744   4.45713     13.62786  1.54637   0.4953  23.23627  0.12102     0.09736  4287.12618   9768.61041  4.20207         3682.17415      16.8385    4e-05  59099.67468  2.54757   7.14386    15831769.85095  43.96052    20.387  59291.49219    51.23919        43.7107  251.01368   266.7725  170.0    0.01961  -20.74768  0.42414 
  -14.01006  0.26767   4.53304     13.83937  1.85114  0.37419  19.23191  0.07961     0.07171  4547.18749   9539.97904  3.94989         3805.94334     18.59954  0.00221  59121.16181  2.37211   5.14777     7400923.24729  44.35422  19.86946  59246.68351    51.30136       43.93474   95.10358  182.28187  174.0    0.01366  -20.95325  0.57591 
  -23.16251  0.25209   3.61339     13.25246  1.68558  0.77651  28.64436  0.06937     0.03766  4720.40343   9640.77599  4.78115         2669.52847     17.07972    7e-05  59112.00937  3.80736   7.22083    63896476.05759  43.57429  20.18392  59294.62521    51.26541       43.74435  245.49285   259.0845  186.0    0.02333  -20.73607  0.48755 
 -187.45405  0.42141   13.1302     14.42177  1.74374  0.64729  95.37351  0.21831     0.02251  2077.94102   8473.44639  2.40335         3109.28138     19.08036  0.00668  58947.71782  2.45653  40.19149      4002258.7495  43.67148   19.9067  59243.24129    51.25839       43.88605   95.10358  198.13247  248.0    0.00414  -19.86861   0.0248 
  -28.64628  0.34559   4.54623     13.46678  1.89154  0.64472  24.35937  0.08949     0.03567   3658.2359   9787.15527  3.74248         3877.76274      19.4503  0.01567   59106.5256  1.94463   8.41832    42302849.10387  43.60399  19.98847  59249.54688    51.20523       43.82093  118.43523  203.86025  174.0    0.01884  -20.87339  0.38561 
  -33.15965  0.42178   3.17731     13.11358  1.56906  0.82392  17.68451  0.14476     0.06724  5342.38296    9596.1484  3.65637         3096.57077     17.73764   0.0003  59102.01222  3.01086   7.45899    87178190.84234  43.51996  19.89493  59246.68351    51.24866       43.87985   97.74535  192.84894  193.5    0.02358  -20.77063  0.49262 
  -64.09402  0.24857   4.73294      13.6413  2.00598  0.55228  40.00778  0.09253     0.02355  3155.08001   9241.92749   1.5996         3475.96153      18.5693  0.00206  59071.07785   2.3757   9.94468    21767508.59221   43.8831  20.01895  59243.24129    51.26639       43.85064   95.10358  237.75896  194.0    0.01316  -20.61674  0.38676 
  -25.27752  0.47337   2.27615     12.71912  1.54217  1.06083  20.13799  0.11407     0.04238  4608.44863   9056.22142  0.18564         2883.59048     18.23842  0.00096  59109.89435  2.55125   9.53267   270457479.42563  43.31048  19.91314  59252.53544    51.27564       43.92821   95.10358  200.77423  194.0    0.02056  -20.85142  0.46643 
  -31.86263  0.36409   4.09878     13.26391    1.827  1.04384  23.87727  0.10238     0.04004  4521.05169   9197.84925  0.91257         2950.32831     17.58131  0.00021  59103.30924  2.91133   8.69359    84535657.64943  43.37823  20.00155  59232.91463    51.23492       43.86176   95.10358  198.13247  176.0     0.0188   -20.7651   0.4213 
 -183.15598  0.49735  19.63226     14.49023  1.71731  0.85337  84.18965  0.26894     0.02264  2437.36341   8519.40854  2.80404         2592.68309     19.61171  0.02272   58952.0159   2.9835  41.87214     6429006.65566  43.10961  19.95547  59243.24129    51.26089       43.88639  100.38712  198.13247  240.0    0.00463  -19.92754  0.01054 
   -37.7927  0.11786   3.82402     13.54461     1.84  0.89825  27.24028  0.08862     0.04263   4802.6796   9287.20778   2.4775         2412.63453     18.25181  0.00099  59097.37918  3.74806   3.21044     20344453.4115  44.06018   19.9684  59228.51201    51.25787       43.87218   83.79946  227.63252  174.0    0.02119  -20.83511  0.77639 
  -15.26879  0.42453   3.65592     13.29936  1.75573  0.69574  17.53515  0.10157      0.0455  4938.30363   9501.61547  4.05967         3534.50074     17.94847  0.00049  59119.90308  2.55089    7.4442    54897082.44222  43.64776  19.99905  59230.65324    51.27324       43.86795   96.00983  226.28565  176.0     0.0214  -20.97026  0.48333 
  -22.15381  0.21852   3.63488     13.28788   1.6767  1.33426  20.89876  0.06086     0.04767  4200.50505   9633.40533  4.50331         2500.27735     17.48031  0.00017  59113.01806  2.19964   4.56678     54638436.9086  43.63482  19.94861  59239.79907    51.22242       43.85238   95.10358  182.28187  180.0    0.03625  -20.82942  0.67285 
  -46.70155  0.25146   4.28272     13.39325  1.60767  0.86032  35.92745  0.07716     0.04156  3422.49904   9563.08788  3.79383           2675.497     18.80278  0.00353  59088.47033  2.51038   9.03449    44765739.40102  43.56066  20.15002  59272.49609    51.32672       43.79619  254.92731  268.14241  176.0    0.01762  -20.63658  0.38988 
  -28.20639   0.2881   2.64364     12.86973  1.53974   1.1768  27.45611  0.08466     0.03343  5030.35148   8926.93694  0.06909         2036.85018     16.84067    4e-05  59106.96549  4.14441    7.9102   182056972.72771  43.35168  19.90307  59236.35685    51.19035       43.81951   89.82005    203.416  200.0    0.01959  -20.80293  0.52361 
  -27.40831  0.31273   4.53021     13.60502   1.9172  0.44225  30.31408  0.05781       0.046  4007.12896   9403.77608  0.63268         4665.77623     18.65463  0.00251  59107.76356  2.90361   9.48019    22525559.07726   43.8866  19.97452  59246.68351    51.27929       43.88441  103.02888   211.3413  152.0    0.03274  -20.89033  0.35772 
  -29.69435  0.27139   4.05653     13.38681   1.8722  1.23996  19.44228  0.10276     0.04709  4585.33964   8503.68313  2.11623         2222.74692     16.26205    1e-05  59105.47752  2.43847   5.27646    48179211.21424  43.64203  19.95462  59246.68351    51.23016         43.846  110.95418   186.8705  172.0    0.02297  -20.85972  0.62889 
  -23.42724  0.33929   2.44029     12.66141  1.52516  1.30884  25.02077  0.10457     0.03984  5313.77074   9648.87574  3.23005         3553.72696     19.80917   0.0358  59111.74463  4.21438   8.48939   401049638.30817  43.07408  19.93705  59246.68351    51.25487       43.91547   90.72629  199.17309  178.0    0.02261  -20.81882  0.42235 
  -20.00111  0.37707   3.65259     13.50913    1.631  0.49918   15.6722  0.08531     0.07232  4623.26757   8826.23124  1.88755         3096.98705     16.69698    3e-05  59115.17076  1.99827    5.9095     19374000.0919  44.06888   19.9501  59232.91463    51.22391       43.82152   92.46182  189.81455  176.0    0.03236  -20.87197  0.57007 
  -37.94908  0.26089   4.20537      13.5753  1.75038  0.46026  28.98043  0.09383      0.0496  4436.90062   9323.57024  2.72191         3488.00304     17.90367  0.00045   59097.2228  3.40323   7.56071    20321867.41507  43.95641  19.88599  59250.51562    51.28347       43.90485  132.08831  182.28187  186.0    0.01733  -20.72815  0.44046 
  -14.52262  0.28055   3.73099     13.35938   1.6977  0.71178  16.47898  0.09156     0.04245  4718.77887   9465.30745  4.60395         3491.08229     18.20528  0.00089  59120.64926  2.18885   4.62316    41933030.77542   43.7325  20.20004  59291.38914    51.29144       43.74857   258.8599  277.41865  192.0    0.02085  -20.78786   0.6163 
  -23.55393   0.1736   3.26911     13.61162  1.77678  0.31447  21.03776  0.07337     0.02862  4347.34869   9381.45359   1.9031         3876.98768     17.52303  0.00019  59111.61795  2.37179   3.65206    10545299.97514  44.46656  19.98904  59239.79907    51.25281       43.85896   97.74535  206.05777  224.0    0.01623  -20.74361  0.72702 
   -16.7277  0.17263   1.51164     12.59673  1.39497   0.4361  49.90478  0.02277     0.02329  4712.10861   8306.17785  0.29855          3026.1681     16.79473    3e-05  59118.44417  6.60998   8.61519   189592242.01223   43.7767  19.93456  59243.24129    51.31278       43.94578   97.74535  190.20717  180.0    0.04065  -20.81889  0.44569 
 -189.27028   0.4521   8.14206     14.32195  2.05709  0.92879  80.81984  0.21587     0.01565  1895.63171   9437.99773  1.42709         2686.31722     17.77886  0.00033   58945.9016  1.73242  36.53863     2875038.57874  44.30199  19.94964  59243.24129    51.18195       43.81996   95.10358  192.84894  242.0    0.00432  -19.67012  0.08896 
  -22.22366  0.26669   3.77021     13.31964  1.72091  0.91237  21.00461  0.10212     0.04241  4778.69153   9404.97972  2.66668         3025.53069     17.50947  0.00018  59112.94822  2.86128   5.60179    52121786.96039  43.63485  19.93312  59230.65324    51.16973       43.81504   96.00983  194.64455  190.0    0.02056  -20.73271   0.5861 
  -21.04619  0.35069   2.28548     12.68366  1.50487  0.96863  21.98722  0.10456     0.05483  5607.00762   9718.13708  3.78931         3477.46994     17.15713    8e-05  59114.12568  4.12344   7.71077   313294087.31495  43.23244   19.8322  59236.35685    51.24982       43.85124   87.60539  221.90836  190.0     0.0194   -20.8111   0.4613 
  -28.45283  0.36061   4.55102     13.52244  1.81925  0.75102  20.82045  0.09763     0.10057  4508.17037    8674.9776  4.50571         2906.32074      17.1367    8e-05  59106.71904  2.52417   7.50796    31553230.27302  43.71348  19.94534  59236.35685    51.22197       43.85345   89.82005    203.416  160.0    0.03261  -20.90402  0.45753 
  -29.83685  0.20235   3.61473     13.42877  1.68824  0.57882  30.43042  0.07534     0.04204  4920.82091   8772.54865  2.11339         2772.72725     18.47184  0.00165  59105.33502  4.39552   6.15747    28435141.26985  43.92627  19.92125  59239.79907    51.26374        43.9005   88.01373  200.77423  200.0    0.02006   -20.7801  0.56417 
 -163.62158  0.37092  16.77169     13.96959  1.37453   1.5384  94.21661  0.15913     0.02599  1961.88121   8403.30708  2.25335         3200.96642     17.84572  0.00039   58971.5503  2.16322  34.94677    41298566.73987  42.34191  19.87963  59239.79907     51.2218       43.87185   95.10358  184.92364  228.0    0.00513  -20.05045  0.01043 
  -26.93296  0.34473   4.10463     13.42234  1.73363     0.59  25.87098  0.08831     0.05458  4477.61607    9011.1607  3.34448         2770.47797     17.69133  0.00027  59108.23891   3.0941   8.91846    38782526.80235  43.69262  19.95718  59249.51402    51.22711       43.83474  103.02888  206.05777  170.0    0.01903   -20.8301  0.38656 
  -18.28422  0.19177    3.4223     13.24921  1.49785   0.7583  34.46757  0.02554     0.02389  3578.23679   9285.50326  1.40832         3493.03908     17.27183   0.0001  59116.88765  2.63255   6.60996    51700518.57298  43.66218  19.94281  59246.68351     51.2091        43.8184  105.67065  192.84894  182.0    0.03358  -20.76202  0.52043 
  -179.4411  0.42706  18.08708     14.52311  1.49513  0.51335  95.72722   0.2435     0.02705  2681.27961   8409.69745  2.84348         2827.26326     18.77177  0.00328  58955.73077  4.10532  40.88131     4083249.59301  43.31778  19.85044  59243.24129    51.28567       43.96758   87.17829  176.99834  234.0    0.00568  -20.00366  0.01001 
  -15.97335  0.27563   3.96872     13.73178  1.94838  0.38898  14.23491  0.09709     0.08468  5716.01594   9112.66126  2.83679         3727.76529     18.49352  0.00173  59119.19853   2.7744   3.92364     9800298.49201  44.36998  20.24107  59281.10573    51.26341       43.76156  237.75896  250.96779  196.0    0.01467    -20.971  0.69865 
   -185.892  0.42909  18.88366     14.60248  1.68257  0.53485  93.70919  0.24471     0.02417  2475.66331   8424.43244  2.37177         3421.38396     19.61546  0.02292  58949.27988  3.42604  40.20988     3475358.20993  43.40165  19.95893  59243.24129    51.25779       43.87175  110.95418   187.5654  238.0    0.00534  -19.95579  0.01134 
  -34.04015  0.23144   4.60274     13.56457  1.81252  0.53235  38.06014  0.04775     0.02957  3257.24949   9093.72334  1.99961         3575.28289     18.85269  0.00396  59101.13172  2.40879   8.80882    26483837.24726  43.77811  19.96147  59239.79907     51.2036       43.83511  100.38712  176.83782  156.0    0.02621  -20.77929  0.37112 
  -39.96052  0.19213   3.99062      13.5423  1.74286  0.46012  42.76138  0.04041     0.02385  3582.85219   9302.59398  1.24447         3437.34476     19.50737  0.01787  59095.21135  3.27444   8.21594    21210469.26234  43.98148  20.00341  59243.24129    51.20118        43.8369   97.74535  190.20717  170.0    0.02641  -20.77757  0.43955 
 -188.60408  0.47217  20.27221     14.45118  1.48573  0.88216  98.39544   0.2545     0.02184  2510.12755   8061.33051  2.79881         2509.46507     18.61566  0.00229   58946.5678  3.69823  46.45897     7099101.04784  42.97578   20.0067  59239.79907    51.23307       43.83118  108.31242  190.20717  244.0    0.00511  -19.99717  0.00721 
  -25.80086  0.34109   3.98946     13.37498  1.48717  0.75228   18.2818  0.11948     0.06771  5062.32117   9811.30675   4.6029         3742.23916     17.89183  0.00043  59109.37102  2.79477   6.23569     39087470.8466  43.64734  19.85912  59236.35685    51.21027       43.83735  100.38712   200.9085  173.0    0.02509  -20.85203  0.48385 
  -18.58628  0.25507   3.26022     13.60589  1.75064  0.31441  14.87213  0.12497     0.03699  4850.39748   9679.27676  3.49263         3014.09067     19.09653  0.00694   59116.5856  2.08716   3.79344    10610188.30186  44.45983  19.83154  59219.14574    51.22722       43.87857   76.61122  204.91081  200.0    0.01624  -20.63101  0.71611 
 -162.85352  0.43294   9.14877     13.66073  1.26837  0.78053  97.16501  0.19098     0.03402  2426.11102   7318.31225  2.28648         2093.99267     16.41074    1e-05  58972.31836   3.4116  42.06635    47025836.45263  42.77703  19.98928  59243.24129    51.24298       43.84848  113.59595  189.51227  232.0    0.00505  -20.32175  0.02003 
  -22.79826  0.30309    3.5596     13.18729  1.82493  0.78901  23.15445  0.08262     0.04949  5398.04501    9280.1713  4.86286         3223.40765      18.6741  0.00262  59112.37362  4.02471   7.01795    90631638.04744  43.47001  20.02307  59246.68351    51.20136       43.79213  116.23771  200.77423  184.0    0.02267  -20.84287  0.48161 
  -26.37909  0.24936    3.6106     13.34196  1.68481  0.77293  23.61785   0.1029     0.04897  4681.30619   8909.35931  1.35622         2655.78298     18.88892   0.0043  59108.79279  3.08746   5.88943    42229256.75418  43.75462  19.96951  59249.51402    51.24254       43.84879  102.55941   217.0943  204.0    0.01774  -20.72382  0.58445 
  -24.43298  0.49216   3.27065     13.09276  1.62827  0.98628  15.73702  0.12024     0.08961  5503.99279   9445.59062  1.40707         2816.94029     16.00432    1e-05  59110.73889  2.84384   7.74509   105509177.46978  43.42801  19.95162  59239.79907    51.23569       43.85214   92.46182  206.05777  186.5    0.02479  -20.82878    0.489 
  -25.77332  0.22914   3.80697     13.39309  2.04241   0.6284  27.86398  0.05959     0.03074  3981.42118   8981.70867  0.74595         3535.55569     18.91366  0.00455  59109.39855  2.63479   6.38476    44971325.64686  43.76489  20.02148  59246.68351    51.27081       43.86649  100.38712  232.47543  204.0    0.02494  -20.73041  0.55153 
  -20.21001  0.20539   3.40906     13.22887  1.60397  0.79297  31.78697  0.05461     0.03688  4794.98418   8943.04244  2.68853         2821.31203     18.60627  0.00224  59114.96186  4.35964   6.52861    60332293.08731  43.62822  19.90821  59253.56796    51.26806       43.89264   92.88892  186.41845  192.0    0.02519  -20.82747  0.53738 
  -25.97441  0.41792   2.63036     12.87377  1.37968  0.94868  22.24799  0.10311     0.04247  4871.37147   9454.82315  0.74098         2320.41839     16.83893    4e-05  59109.19746  3.14935   9.29778   158518729.54738  43.36851  19.86779  59249.51402    51.28155       43.89785   97.74535  203.55027  180.0    0.02209  -20.78179  0.43521 
  -28.12611  0.28149   3.71088     13.37144  1.65612  0.58842  25.47056  0.09684     0.04809  4517.68568   9491.59414  2.79519         3802.02471     18.32936  0.00119  59107.04577  3.10097   7.16961    38281029.51685    43.766   19.8735  59226.03019    51.24622       43.85967   78.57924  232.17899  192.0    0.01959  -20.81003  0.47628 
  -25.32912  0.20799   3.87064     13.65699   1.6606  0.37457  24.09442   0.0843     0.04603  4236.95833    9549.5171  3.41081         3490.70929     17.71239  0.00029  59109.84275  2.58019   5.01143     11211781.1477  44.26387  19.96449  59243.24129    51.20758       43.86164   92.88892   179.6401  202.0    0.02014  -20.69427  0.58859 
  -28.15847  0.10804   3.07431     13.58001  1.39579   0.4541  21.41563  0.11542     0.07113  5333.13686   8667.17634  2.21041         2544.82843     17.25031   0.0001  59107.01341  3.63349   2.31365     8474606.85528  44.51005  19.93826  59232.91463    51.19477       43.83656   86.50454  200.77423  188.0    0.02159  -20.83464  0.82658 
  -17.02108  0.37932   4.10403     13.43036  1.85237  0.71856  17.70528  0.11895     0.08414  5579.95088    8922.7658  3.76636         3114.10504     19.02608   0.0059   59118.1508  3.28845   6.71591    39925383.20082   43.7089  19.98363  59246.68351    51.25557       43.87521   97.74535   195.4907  182.0    0.02444  -20.89579  0.51247 
   -49.7459  0.38391    2.7559     12.81527  1.47668   0.9528  35.72706   0.1138     0.02153  3514.10755   9028.26473  0.15428         2914.68223     19.63389  0.02391  59085.42597  2.63181  13.71604   243831225.46585  43.17051  19.95918  59232.91463    51.24598       43.89223   92.46182    203.416  182.0    0.01245  -20.68887  0.27802 
  -18.33602  0.17204   1.82606     12.42984  1.69623  1.46263    49.195   0.0207       0.012  5085.92198   9520.52918  3.50297         2663.26265     17.05144    6e-05  59116.83586   7.5908   8.46351   725523917.97903  43.11465  19.89801  59239.79907    51.28586       43.90784   84.53652  208.69953  156.5    0.04057  -20.92458  0.48792 
  -18.99046  0.29509   4.02838     13.25402   1.7419  1.25567  26.99634  0.06904     0.03642  4471.00619   9047.84797  3.39406         2459.70013     16.94235    5e-05  59116.18142  3.21916   7.96635    81482231.63294  43.38854  19.93556  59232.91463    51.26822        43.9203   76.61122  198.13247  164.0    0.02548  -20.86295  0.46172 
  -15.48107  0.14609   3.63107      13.6239  1.70482  0.42055   32.7497   0.0399     0.02959  4015.92575   9241.14567  0.84406         2916.22652     19.25633  0.01002  59119.69081  3.15069   4.78442    11796570.14588   44.3087  19.99917  59243.24129    51.19998       43.83787   92.46182  192.84894  190.0    0.02932  -20.75341  0.65262 
  -26.48895  0.28299   4.22053     13.35668  1.87825  1.07723  28.93141  0.07223     0.03587  4570.84315   8974.57699  1.89058         2795.40743     16.80707    4e-05  59108.68293   3.6057    8.1872    60110747.60036  43.51291  19.85532  59232.91463    51.24972       43.86255   92.46182  198.13247  166.0    0.02498  -20.91934  0.47134 
   -39.2093  0.23804   4.07675     13.40308  1.65596  0.65526  38.14279  0.04508     0.02566  3315.91495    9110.8428  3.58505         2549.00957     18.32039  0.00116  59095.96257  2.50176   9.07968    39933289.90313  43.66593  20.06078  59294.62521    51.34745       43.81608  254.08272  268.98699  156.0    0.02482  -20.74162  0.38925 
  -13.79539  0.47719    2.7651     12.94218  1.52516  0.72194  15.59343   0.1076     0.07432  5502.53351   9488.31729  3.88941         3676.63749      17.5129  0.00018  59121.37648   2.8164   7.44107   141319063.99678  43.41854  19.97674  59252.53544    51.19779       43.80943  112.80353  198.92488  174.5    0.02703  -20.92209  0.44478 
 -185.51136  0.40445  15.30356       13.713  1.43605   1.4814  94.70031  0.21532     0.04469   2131.0454   9638.50129  2.80931          3936.4492     20.03119  0.05969  58949.66051  2.56545  38.30157   117101063.82041  41.98787  19.98043  59239.79907    51.28205       43.89274  105.67065  216.62483  246.0    0.00425  -19.90264   0.0085 
  -25.90822  0.28777   3.65363     13.19189  1.81597  1.21666  23.18369  0.09284     0.03113  4460.65004   9681.86033   1.9471         2942.71638      16.8903    4e-05  59109.26366  2.75173   6.67161    93025719.83307   43.4339  19.89753  59246.68351    51.25775       43.90011   87.17829  184.92364  192.0    0.01729  -20.71961  0.55026 
  -19.40218  0.42455   3.71801      13.3276  1.68146  0.51444  18.98088  0.11192     0.03518  4090.55601      9961.73  4.95605         3516.76244     18.83311  0.00378   59115.7697  1.89456   8.05839    47743933.25054  43.67499   20.0232  59249.51402    51.20762       43.82791   99.91765  198.60194  172.0    0.01782  -20.78232  0.38882 
  -18.96032  0.39385   3.08214     13.10614  1.54346  1.09165  15.49634  0.09454     0.07257  5441.37524   9330.47339  3.17553         2599.18743     17.18616    9e-05  59116.21156  2.73699   6.10327    83510389.86692   43.5579  20.08933  59290.42969    51.35262       43.82646  250.96779  266.81839  193.5     0.0282   -20.9238  0.60415 
  -34.08056  0.37008   4.53014     13.33115  2.15933  1.46701  21.73737  0.10158     0.03305  4093.77847   9402.00556  0.82601         3375.96892     16.93046    5e-05  59101.09131  2.17312   8.04456    89549100.57904  43.33888  19.97763  59243.24129    51.24864       43.87952  108.31242  192.84894  180.0    0.01908   -20.7629  0.46898 
 -180.01885  0.46811  22.32813     14.66242  1.56144  0.83486   95.4668  0.21335     0.02878  2270.86329   7384.20905  0.15525         3939.02158      19.1172  0.00728  58955.15302  2.93671  44.68884      3421413.4499  43.23046  19.83379  59228.51201    51.29949       43.93566   81.89475   211.3413  238.0    0.00447  -20.14003  0.00692 
  -22.53072    0.234   3.36319     13.35287  1.64796  0.59361  24.96111  0.08292      0.0335  4645.93827   9724.79055  2.15236         3703.29294     19.75426  0.03155  59112.64116  3.21394   5.84086    34082055.12277  43.89976  19.92472  59246.68351    51.32561       43.91544  103.02888   211.3413  202.0    0.01934  -20.79918  0.58988 
  -16.27093  0.45274   3.09556     13.30911  1.87913  0.53296  11.31824  0.20401     0.13727  6918.27016    9149.3165  2.89193         2833.52061     18.90426  0.00446  59118.90095  3.23148   5.12418    40275100.41156  43.95629  19.99293  59243.24129    51.24379       43.87798  105.67065   187.5654  224.0    0.01767   -20.7556  0.65448 
  -24.24161  0.07352   2.86744      13.6025  1.40951  0.39912   19.0387  0.07891     0.03644  4299.42038   9210.37618  3.45643         2022.52907     17.89864  0.00044  59110.93027  2.09935   1.39964     6712302.39265  44.67605  20.19569  59284.54795     51.3222        43.7904  253.60956  269.46016  178.0    0.03199  -20.85226  0.90157 
  -35.11632  0.11923    3.3169     13.69861  1.33852  0.32687  32.85863  0.04244     0.03398  3661.86638   9848.58572  3.96517         2826.75887     16.98193    5e-05  59100.05556  2.62834   3.91774      5478669.7222  44.61533  19.91186  59236.35685    51.26057       43.91462  105.67065  187.17279  177.5    0.03277  -20.71619   0.6851 
   -24.4631  0.24364   3.88144     13.32379  1.65813  1.17673  25.14567  0.08144     0.05553  4464.90736   9503.35645  4.16524         2571.79565     17.75356  0.00031  59110.70877   2.9903   6.12649    52221579.72901  43.59263  19.77576  59239.79907    51.23149       43.88765   91.78807  189.06021  182.0    0.02017  -20.79011  0.56528 
  -17.36715  0.24109   3.21014     13.36078   1.8621  0.52955  19.84005  0.07828     0.05246  6035.36122   8875.31762  1.35031         3191.02489     19.26105  0.01013  59117.80472  4.31098   4.78323    33830268.07488  43.99649  19.90783  59243.24129    51.27972       43.91813   86.44122  204.15306  210.5    0.02393  -20.83266  0.67098 
  -31.56546  0.42177   3.06968     13.14396  1.65439  0.79052  14.88016  0.16199     0.10268  6220.33598   9098.44117  1.45595         2871.31904     17.04085    6e-05  59103.60642  3.43449   6.27595    74597965.90018  43.64057  20.06566  59250.51562    51.24521       43.84082  121.82047  189.90795  210.5    0.02123  -20.76824  0.58108 
  -25.64039  0.41477   3.48858     13.18396  1.34239   0.7049  19.77412  0.08717     0.05897  3909.83264   9380.40196  4.82494         3068.68597     16.24765    1e-05  59109.53149  1.80319   8.20173    65023543.24956  43.49836  19.98054  59243.24129    51.29538       43.89225  103.02888  213.98307  160.0    0.02636  -20.80141  0.38236 
 -194.91252  0.45915  17.53202     14.51655  1.46183   0.5071  91.86078   0.2386     0.01755   2380.1279   8785.05093   4.5837         2649.56195     19.20774  0.00896  58940.25936  3.10426  42.17793     3866166.09027   43.3588  19.86995  59246.68351    51.26838       43.90683   95.10358  175.20522  238.0    0.00484  -19.85826  0.01003 
  -18.82519  0.32709   3.75475     13.40153  1.55037  0.60625  17.02918  0.10745     0.07449  5063.00331   9614.18187  4.04692         3725.67712     17.92982  0.00047  59116.34668  2.60398   5.57015    31941801.42424  43.80576  19.95255  59250.51562    51.24951       43.89414  103.02888  192.84894  188.0    0.02082  -20.83614   0.5394 
  -26.10989  0.25502   3.36114     13.42192  1.80464  0.45381  29.66221   0.0787     0.03202  4905.26563   9012.20523   2.2136         2467.84802     18.84251  0.00387  59109.06199  4.25751   7.56455    27123431.99865  44.03892  19.95908  59246.68351    51.22363       43.84208  103.02888  190.20717  198.0    0.01643  -20.80828  0.52261 
  -33.87768  0.40756    4.2547     13.49577  1.72493  0.52104  21.71495  0.10621     0.05075  3815.03065   9940.48654  4.06195         3255.51299     19.10168  0.00702  59101.29419  1.88531   8.85017    29564995.00477   43.7771  19.90378  59236.35685    51.26304       43.90138   84.53652   202.7211  174.0    0.01774  -20.75976  0.37566 
  -23.99899  0.07395     2.972     13.55846    1.424  0.46519  18.44312  0.07416     0.03762  4358.70059   8855.95063  2.77947          2263.4257     18.16883  0.00082  59111.17288  2.09014   1.36392     8922940.38907  44.52575  20.00891  59243.24129    51.21864        43.8174  110.95418  200.77423  174.0    0.02989  -20.84614  0.89878 
  -24.73287  0.28337   2.13217     12.50089  1.70369  1.13374   28.7826  0.07786      0.0574  5364.14229   9593.33064  4.17362         3477.66787     17.02242    6e-05    59110.439  4.94035    8.1561   716248101.80308  42.98753   19.9613  59239.79907    51.17127       43.81123   91.04159  206.05777  172.5     0.0254  -20.78931  0.38555 
  -69.94429  0.13222   3.88374     14.05512   1.8799  0.31604  40.01975  0.10221     0.03197  3633.28077   8618.15015  1.69031         2878.76983     16.93301    5e-05  59065.22758  3.15137   5.29157     2042707.80943  45.05427  20.01045  59243.24129    51.22548       43.81066  100.38712  240.40073  172.0    0.01609  -20.80736  0.69564 
 -184.33579  0.43115  20.81171     14.31452  1.48112  0.84832  92.59862  0.25727       0.021  2390.37976   9266.78804  2.64618         3452.08116     19.24338  0.00973  58950.83608  3.15621   39.9236    13995464.62544  42.65683  20.06307  59258.52734    51.25366       43.81909  143.81974  207.53517  246.0    0.00534  -19.85135  0.00728 
  -21.40186  0.29699   3.97985     13.28928  1.81768  0.87901  26.73098  0.07252     0.03768  4465.02346   9097.07227  3.61828         3053.73265     17.31594  0.00011  59113.77001  3.17899   7.93871    70551316.71988  43.48012  19.95789  59239.79907    51.31998       43.93085   73.96945  192.84894  174.0    0.01761  -20.87627   0.4505 
  -40.68028  0.24737   4.12441     13.53278   1.8114  0.71725  21.33421  0.15037     0.05424  4962.44591    9181.2903  2.39382         3635.14264     16.65147    2e-05  59094.49159  3.13397   5.27744    24603270.64643  43.90514   19.9598  59236.35685    51.24661       43.85499  103.02888  208.69953  188.0    0.01767  -20.75804  0.60641 
  -18.93683  0.42653   3.26511     13.14006  1.81826  0.79827  18.24415  0.11122     0.04688   5048.5031   9125.05882  1.26996           3592.878     19.13515  0.00758  59116.23504  2.77381   7.78171     94437253.3033  43.52556  20.21697   59288.5852    51.30298       43.75712  259.34976  279.57056  186.0    0.02218  -20.87275  0.49441 
  -18.64038   0.1156   3.04906     13.61833  1.43383   0.3988  17.96433  0.09073     0.06196  5015.03199   9127.08564  2.17506         2391.12205     17.61749  0.00023   59116.5315  2.69517   2.07663     7177567.38107  44.60104  19.99786  59258.52734    51.28007       43.86114    127.104  195.19148  188.0    0.02907  -20.84555  0.84603 
   -23.4964  0.38947   4.07611     13.32423  1.70099  0.58868  21.84356  0.09796     0.03723  3868.85148    9896.9326  4.81948         3548.91261     18.38636  0.00135  59111.67547  1.95036   8.50735    58960150.68951   43.5085  19.91345  59239.79907    51.21912       43.83839   97.74535    203.416  166.0    0.01991  -20.77907  0.34121 
  -23.49012  0.23364   2.75483     12.96613  1.61641  1.31232  18.67765  0.09293     0.03908  5098.79352   9258.45983  1.59769           2263.932     16.12489    1e-05  59111.68176  2.89657   4.36378   133133222.67078  43.47292  19.98832  59252.53544    51.18047       43.80708     107.52  188.35782  222.0    0.01626  -20.67795  0.71044 
 -171.31342  0.41938  18.10111     14.36074   1.5314  0.94492  94.75305  0.20449     0.03044  2379.06659    7957.1268  1.08309         3553.99649     18.63524   0.0024  58963.85846  3.19914   39.7374     8847673.77322  42.99169  20.15903   59308.6435     51.3039       43.77982  250.96779  264.17662  230.0     0.0057  -20.12459  0.01089 
  -10.60962  0.13539    1.7443     12.37169  1.51191  1.49218  46.80235  0.02595     0.01495  4802.04055   9227.46744  2.70221         3467.72539     16.46407    2e-05  59124.56225  6.43793   6.33662   771284482.85312  43.07791  19.98091  59270.77906    51.27105       43.91818  105.67065  171.71481  192.0    0.03064  -20.78516  0.54036 
  -15.01867  0.22114   3.89073     13.33167  1.73314  0.80137  34.15438  0.03447     0.02557  4214.50949   8709.32541  4.84276         2029.17447     16.20736    1e-05   59120.1532  3.61883   7.55274     52889205.9155  43.60425  20.04998  59243.24129      51.221        43.8407   95.10358  213.28553  162.0      0.027   -20.8088  0.47672 
  -28.64757  0.09992   3.29281     13.64462  1.57437  0.44086  17.55488   0.0896     0.04923  4526.38958   8904.91683  3.76479         2847.39239     16.24969    1e-05   59106.5243   2.1455   1.75409     8143522.81485  44.52001  20.13199  59280.45442    51.31566       43.78545  253.10971  267.31824  184.0    0.03115  -20.87324  0.86565 
  -73.21753  0.10262   3.90115     13.50774  1.86107   1.0049  52.08243  0.03494     0.01346  2612.63855   9419.29461  3.46118         2599.67585     19.74385   0.0308  59061.95434  2.12069   5.34479    25379248.71805  43.95174  20.05899  59298.59829    51.35356       43.81531  258.70168   274.9351  170.0    0.02287  -20.71433  0.66722 
   -162.253  0.40382   9.89015     13.60027  1.24199  0.65016  84.01789   0.2389     0.02461  2521.75079   9440.32923  3.20738         3461.05991     18.97018  0.00519  58972.91888  3.18716  33.92811    71089731.17527  42.52075  20.05149  59246.68351     51.2961         43.892   97.74535   211.3413  234.0    0.00599  -19.99068  0.01475 
  -31.83112  0.24455   4.17032     13.70898  1.60872  0.36713  24.61235  0.10133     0.04735  4252.55338   9572.06306  3.11022         3468.30955     17.77208  0.00033  59103.34075  2.65509   6.01885      9923620.6538  44.23832   19.9445  59236.35685    51.21081       43.81758  108.31242  191.70198  184.0    0.01881  -20.65383  0.50415 
  -27.40997  0.47862   3.03557     12.91725  1.59722   1.0249  22.87152  0.13099     0.05536  5514.88166   9412.60164  0.85416         2738.30979     17.00538    6e-05  59107.76191  4.14949  10.94676   200060737.63302  43.20657   19.9012  59243.24129    51.18258       43.84388  100.38712  163.78951  164.0    0.02158  -20.82979  0.34855 
   -21.0912  0.19423   3.32422     13.73994  1.65292  0.30353  15.98831   0.1155     0.15765   6288.7233   9075.58043  4.12021         2404.10887     17.61532  0.00023  59114.08068  3.77185   3.10544     5617808.91376  44.69415   19.9843  59250.12574     51.2788       43.87964   97.74535   219.2666  216.0    0.02366  -20.83795  0.77543 
  -30.01038  0.21825   3.27041     13.22194  2.12332  1.18796  13.72132  0.16228     0.05075  6084.72977   9229.68331  0.32266         3502.01595     17.79138  0.00034  59105.16149  3.03044   2.99469    75885213.68374   43.6865  19.96623  59249.51402    51.18357       43.79577  113.12648  184.69821  194.0    0.01699  -20.79393  0.81842 
 -172.12612  0.39329   15.4888      14.1639  1.43389  0.42755  84.79528  0.24357     0.03121   2372.8335   8518.49037  0.94818         2912.82618     19.09082  0.00685  58963.04575  2.84796  33.34931    15016264.74482  42.86876  19.79263  59239.79907    51.20882       43.85877   91.04159   187.5654  240.0    0.00442  -19.79478  0.01079 
  -18.58095  0.36139   2.17207     12.58109  1.70003  1.18119  29.45444  0.07255     0.02873  4825.46245   9099.63416   0.6208         2750.98843     18.23751  0.00096  59116.59093  4.09125  10.64456   512668072.22342  43.11572  20.00054  59239.79907    51.24322       43.86169   97.74535    203.416  166.0    0.03328  -20.90525  0.38902 
  -26.03954  0.30543   3.35828     13.03736  1.61977  1.22262  25.16237  0.08382     0.04434  4645.95005   9584.46897  4.86311         2755.86803     16.12331    1e-05  59109.13233  3.23987   7.68535   142816609.23556  43.27129  19.87043  59250.12574    51.21098       43.83024  108.31242   187.5654  190.0    0.01778  -20.75088  0.46744 
  -20.80106  0.39822   2.47516     12.89875  1.84768  0.79619   23.9558  0.09527     0.03023  5339.59607   9208.70716  1.63366         2825.83523     20.28605  0.10734  59114.37081  4.07431   9.53975   167548387.48678  43.52412  20.11229  59267.33684    51.24792       43.83688  124.16301   187.5654  178.0    0.02063  -20.95608  0.49004 
  -16.16925  0.28698   3.70679     13.29528  1.57464  0.64788  23.41099  0.08064     0.04276  4792.75204   9402.23414   3.2493         3657.92763     18.32236  0.00117  59119.00263  3.20787   6.71839    51575163.26446  43.61559   20.3058  59275.52734    51.29463       43.75897  251.97014  271.09958  180.0    0.02067  -20.80349  0.46085 
  -30.58834  0.31952   3.98525     13.59606   1.5597  0.47904  15.74404  0.12514     0.07518  4992.85998   9537.27948  4.84947         3540.41106     18.14166  0.00077  59104.58354  2.34122   5.03058     14779013.9012  44.09133  19.92077  59239.79907    51.23468       43.83874   95.10358    203.416  179.0    0.02544  -20.80702   0.5702 
  -13.87916  0.35052   4.52911     13.64459  2.14541  0.40637  24.82541  0.07777     0.06758     4737.88   8490.99917  1.25498         3311.04669     18.07629  0.00066  59121.29271  3.32424   8.70182    20998119.62722  43.96615  19.96649  59239.79907    51.28559       43.90864   97.74535   195.4907  160.0    0.03476  -20.89831  0.39964 
  -32.76959    0.222   4.07831     13.81677  1.88659  0.30867  30.42754  0.04833     0.02372  3355.07516   9853.32914  1.20523         4108.52716     17.07049    7e-05  59102.40229  2.04314   6.75478     6775094.76218  44.49265  19.93596  59249.54688    51.22908        43.8233  107.86816  209.14379  178.0    0.02717  -20.84977  0.54313 
  -15.09697  0.43101   3.49094     13.58485  1.72688  0.37884   9.49366  0.10645      0.0996  4683.19449    8912.1626    4.799         3336.36451     16.32218    1e-05   59120.0749  1.24207    4.0919    13221185.51079  44.29895   20.0483  59249.51402    51.20008       43.79151  105.20118  219.73607  208.0    0.03716  -20.87352  0.68094 
  -13.62265  0.38398   3.57548     13.24544  1.51233  0.60575  21.85386  0.08755     0.04408  4581.47569   9921.30602  3.21742         3102.66879     17.66763  0.00026  59121.54922  2.73631   8.39146    57976787.39955  43.57857  19.96923  59243.24129    51.24803       43.87633  103.02888  206.05777  164.0    0.02565  -20.75558  0.38122 
  -15.77282  0.23731   3.69686     13.54807  1.69641  0.36263  26.29282  0.06367     0.03795  5144.57875   9772.39735  2.57064         3699.58031     17.86833  0.00041  59119.39905  4.15111   6.23964    17253751.93207  44.12583  19.89625  59239.79907    51.23889       43.87531   92.46182  198.26673  183.5     0.0284   -20.7913  0.50788 
  -16.87309  0.25793   1.84114     12.45165  1.51626  1.39867   32.1543  0.08322      0.0301  6182.22204   9357.10669  4.11755         2542.53194     18.64719  0.00247  59118.29878  7.33087   8.29345   596311801.82467  43.14397  20.06033  59266.53135    51.29363       43.87164  136.75366  193.46712  182.0    0.01946  -20.77391   0.4959 
  -23.35294  0.31758   3.61258     13.29853  1.74304  1.10307  13.99518  0.13104     0.07383  5543.45987   9507.18968   1.8158         2761.99396     16.27541    1e-05  59111.81893  2.56547   4.44461    53419595.28537  43.66682  19.81166  59222.58796    51.28178       43.96238   66.04416   179.6401  188.0     0.0228  -20.78633  0.68201 
   -18.5125  0.36201   2.93057     13.17321  1.95433  0.55844   20.8003  0.08166     0.04642  5525.21787   8630.86928  0.58567         3428.51147     19.05011  0.00624  59116.65938  3.78788   7.53001    70194572.25346  43.77964   19.9112  59253.56796    51.25839         43.908   95.10358  186.41845  186.0    0.03013  -20.91697  0.52877 
  -19.93019   0.2235   3.89153     13.23049  1.78118   1.4506  27.62075  0.03548     0.03122   4126.3306   9362.29751  4.24145         2548.57149     16.49701    2e-05  59115.24169  2.80537   6.17318    86653663.60124  43.40153  20.02074  59258.52734     51.2758       43.88819   91.78807  216.62483  174.0    0.02907  -20.79576   0.5523 
  -16.74228  0.28828   3.99977     13.29011  1.83214  0.78519  24.67634  0.06721     0.03128  4237.57282   9422.10987  2.16378         3580.52851     19.62236  0.02329  59118.42959  2.64327   7.11375    71551690.19763  43.47311  19.86088  59246.68351    51.27419       43.92135  100.38712   187.5654  176.0    0.01989  -20.77817  0.45385 
  -26.03601  0.42773   3.19705     13.08325   1.7074  0.73016  19.31465  0.12807     0.09241  5909.72721   9383.42938  2.90391         3668.72937     16.51806    2e-05  59109.13586  4.02392   8.26148   110447694.78289  43.44852  19.99638  59249.51402    51.26741       43.88932  102.72023  182.59052  180.0    0.02251  -20.89766  0.42459 
 -173.01622  0.45366  27.63922     14.78753  1.43226    1.023  98.96228  0.20217     0.01905  2146.02345   6998.95554  1.20773         3571.72409     18.72917  0.00298  58962.15565  2.71873  44.89489     2702897.64054  43.10999  19.82442  59230.54947    51.21644       43.85783   83.14845  189.38057  240.0     0.0051  -20.22564  0.00404 
  -31.72851  0.18076   4.47075     13.60741  1.81786  0.61981  32.89407  0.07545     0.03529  4098.26611   9206.92902    4.853         3415.13148     18.09616  0.00069  59103.44337  3.29568   5.94582    20574151.19836  43.91432  20.17941  59287.99017    51.28503       43.74261  258.89309  274.74369  184.0    0.01939  -20.78318  0.53348 
  -33.38075   0.0803   2.99146     13.58633  1.42689  0.42256  29.18587  0.07769     0.04802  4916.63262   9227.02477  2.34015         2157.19098     16.76386    3e-05  59101.79113  4.20858   2.34375     7967440.28028  44.57015  20.01451  59246.68351    51.24569       43.86431  103.02888  206.05777  200.0    0.01915  -20.77851  0.83418 
   -17.7191  0.26761   2.64958     12.75234  1.67457  1.19954  33.66221  0.04822     0.02177  4440.81545   9140.57282  2.09471         3098.34865     17.76852  0.00033  59117.45278     3.96   9.00819    341498931.1148    43.113  19.93921  59250.51562    51.17609        43.8153  103.32811  184.62441  160.0    0.03013  -20.86702  0.40982 
  -21.39384  0.19441   2.89725     13.22862  1.63274   0.7298  17.83325  0.09939     0.03891  4945.16344    9101.2645  2.45875         2407.22185     17.37702  0.00013  59113.77804  2.60147    3.4669    44409207.11279  43.91032  19.95929  59243.24129    51.26122       43.87386   92.46182   211.3413  218.0     0.0159  -20.75154  0.77037 
  -18.90628  0.25721   4.59269     13.61763  2.02209  0.50738  26.40546  0.08152     0.04767  4717.42794   9118.07019   2.6958         3368.05647     19.56479  0.02039  59116.26559  3.50535   6.79181     23040395.3632  43.88802  20.01918  59249.51402    51.21821       43.84404  102.55941  203.88547  184.0     0.0195  -20.77161  0.47499 
  -22.32923    0.251   3.90553     13.70164  1.69164  0.35451  21.75048  0.07499     0.06052  4510.13583   9140.31902  3.31675         3180.09909     17.34199  0.00012  59112.84265  2.63922   5.45933     9466887.17811  44.33759  20.05384  59253.56796    51.26755       43.84671   97.74535  229.83366  186.0    0.02175  -20.81748  0.57536 
   -43.1473  0.37611   3.63714     13.38748   1.4915  0.46324  21.85969  0.12653     0.04491  3830.73482   9832.99462  3.95325         3520.27245      17.3655  0.00013  59092.02458  1.91353   8.22159      30760428.065  43.83296  20.06696  59252.53544    51.25214       43.84594  110.16177  220.05901  186.0    0.01813  -20.66722  0.39355 
  -13.89826  0.36438   3.35456     13.23334  1.66363  0.70271  16.36131  0.11466     0.10853  5959.46099   9156.13485   3.3947         3818.29936     16.43886    2e-05  59121.27362  3.46625   5.96177     59356628.5848  43.66516  19.88982  59239.79907     51.2538       43.88509   97.74535  182.28187  206.0    0.02065  -20.93636  0.55687 
   -20.8499  0.32012   3.87352     13.58746  1.63653  0.46286  16.67166  0.09798     0.07822  4802.15695   8927.52744  4.23953         3063.87588     17.27665  0.00011  59114.32198  2.29339   5.33691    15241256.69187  44.12354  20.01529  59243.24129    51.25436       43.85376  105.67065  216.34638  182.0    0.02363  -20.83792  0.57685 
  -11.02212  0.38669    3.3375     13.04211  1.69075  1.39573   18.9327  0.09283     0.05708  5336.30732   9125.88589  3.51305         2477.09615     18.00584  0.00056  59124.14976  3.21604   7.32117    144050834.2187  43.29156  20.17697  59287.99017    51.27407        43.7675  240.40073  250.96779  186.0    0.02415  -20.85004  0.50736 
  -27.52215  0.19371   4.37049     13.77038   1.8028  0.46634  25.61765   0.0554     0.03597  3574.43344   9303.58706  3.33612         3421.40689     17.93684  0.00048  59107.64972  1.95245   4.96237     9205975.53864  44.27966  19.94783  59243.24129    51.24994       43.87529  103.02888  184.98373  160.0    0.02934  -20.84549  0.60765 
  -25.72359  0.26664   4.31998     13.68299  1.93891  0.41592  24.23306  0.07784     0.03847  3955.28912   9127.26974   2.2556         3708.95294     18.99393  0.00548  59109.44828  2.26148   6.46148    14466122.26711  44.12509  19.93999  59239.79907    51.27717       43.91546   76.61122   195.4907  186.0    0.01631  -20.81809  0.51533 
  -27.84108  0.36079   1.45244     12.18496  1.54551  1.46868  22.77263  0.18104     0.06816  7674.23579   9341.32278  4.40176         3546.52153     19.05835  0.00635  59107.33079  8.00038   8.21614  1291720886.17596  43.02255   20.1278  59284.54795    51.32168         43.799  250.96779  261.53486  178.0    0.01998  -20.81905  0.45821 
   -24.5328  0.14111   3.78966     13.72364   1.7633   0.5005  28.37529  0.04557     0.03069  4042.11886   9165.16247  2.65352         2604.57118     19.58526  0.02138  59110.63908  2.76558   4.00418     8395806.93685  44.43391  19.80312  59226.03019    51.23738       43.88068   81.89475   211.3413  154.0    0.03446  -20.91349  0.72358 
 -167.07354   0.4653  19.74107     14.30628   1.4105  0.78291  73.53372  0.25698     0.02519  2510.29338   9407.27049  1.00846         3700.95776     19.18149  0.00844  58968.09833  2.76416  34.21537    12455806.87398   42.7321  20.15804  59281.10573    51.30622       43.77419  253.60956  269.46016  224.0    0.00567  -19.89605  0.00878 
  -38.44988  0.30973   4.14346     13.46067  1.64515  0.62985  28.76542  0.08941     0.05336  4139.83511    9099.8187  3.97506         2734.38603     18.74821  0.00311    59096.722  2.94079   8.90961    31434466.07433  43.75292  19.95972  59250.51562    51.24015       43.85721  105.67065  182.28187  174.0    0.02084  -20.79355   0.4019 
  -29.37715  0.38708   4.08539     13.37133  1.43958  0.63403  21.18942  0.09526     0.07297  3983.27009   9395.63183  3.57738         3337.36271     16.85588    4e-05  59105.79472  2.00551    8.2021     40351011.2979  43.59876  19.98182  59243.24129    51.27142       43.88147  102.29182  196.22777  162.5    0.01349  -20.78718  0.36316 
  -19.73785  0.37119    3.6809     13.24181  1.56806  0.71717  20.33293   0.1066      0.0569  4934.09362   9635.43069   3.5072         3131.85956     17.97377  0.00052  59115.43402  2.95285   7.54738    64784874.31736  43.52083  20.10928  59287.99017    51.35558       43.81353  261.53486  274.74369  176.0    0.02006  -20.73393  0.42685 
  -38.46417  0.20829   3.66734     13.13216  1.67587  0.81372  44.30311  0.05544     0.02741  3962.06319   9361.92737  2.05968         3502.06623     18.50989   0.0018  59096.70771  4.14863   9.22801   113877235.82668  43.30795  19.87483  59236.35685    51.16926       43.82067   95.10358   187.5654  176.0    0.01927  -20.72354   0.3499 
  -30.46479  0.34524   3.53166     13.55096  1.41579  0.44688  14.95151  0.11405     0.05714  3884.39671   9637.16175  4.53697         3648.53891     16.85013    4e-05  59104.70709  1.34573   5.16184    12967206.97554  44.21104  20.11194  59250.51562    51.18902       43.80584  100.68634  213.83046  186.0    0.00889  -20.87437  0.59158 
  -19.02235  0.23592   3.24743     13.65345  1.39684  0.36092  10.51874  0.12779     0.17901  6042.89306   8385.86552  2.56494         3649.52246     16.20292    1e-05  59116.14953  2.29129   2.48162      6747463.2064  44.56177  20.02454  59295.49114    51.36811         43.852  242.27296   254.3791  183.0    0.04776  -20.98098  0.79073 
   -42.2908  0.47983    1.8312     12.41305   1.5949  1.24706  20.06192  0.16604     0.04063  5169.91509   9586.04022  2.65866         3238.10345     19.08638  0.00678  59092.88108  3.19865   9.62636   741170238.56132  43.07619  19.92021  59230.65324    51.22003       43.84908   90.72629  199.86799  178.0    0.01557  -20.72357  0.41373 
  -32.62059  0.37121   3.34889     13.08353  1.21858  0.85793  28.10038  0.11324     0.05315  3653.03501   9465.65365  2.32172         2473.88002     17.02373    6e-05  59102.55129   2.2369  10.43102    86378632.69064  43.36849  19.92036  59228.51201    51.28303       43.90926   89.08299   201.5113  176.0     0.0137  -20.62589  0.32184 
 -180.91765   0.3967   8.16146     14.20513   1.8804  0.86337  91.10847  0.17347     0.02042  1949.95204    8822.0021  4.44716         3035.84241     19.80085  0.03512  58954.25422  2.06649  36.14259     4522097.64245  44.06422  20.13824  59274.22129    51.31149       43.79206  243.04249  258.89309  232.0    0.00573   -19.9791  0.07727 
