# Wavelength Flux
# STATUS = PUBLIC
# OBJECT = 2019unb
# TELESCOPE = P200
# INSTRUMENT = BDSP
# DATE-OBS = 2020-01-01 09:47:22
# MJD =
# EXPTIME =
# SLIT =
# DISPERSER =
# SOURCE = 2020TNSCR1504....1D
# FILTER =
# FLUX_STANDARD =
# EXTINCTION_CORRECTED =
# PHOTOMETRY_CALIBRATED =
# FLUX_UNITS =
# QUALITY =
# MIN_WAVE =
# MAX_WAVE =
# COMMENT =
3400.0 4.4032e-16
3401.525 3.9871e-16
3403.05 4.9603e-16
3404.575 4.9419e-16
3406.1 4.3311e-16
3407.625 4.076e-16
3409.15 3.6817e-16
3410.675 4.2662e-16
3412.2 4.2388e-16
3413.725 4.0639e-16
3415.25 4.0249e-16
3416.775 4.7947e-16
3418.3 4.1928e-16
3419.825 4.3026e-16
3421.35 4.282e-16
3422.875 3.5018e-16
3424.4 4.2441e-16
3425.925 4.2296e-16
3427.45 4.0768e-16
3428.975 4.6035e-16
3430.5 4.5073e-16
3432.025 4.4109e-16
3433.55 4.7226e-16
3435.075 3.8202e-16
3436.6 4.4904e-16
3438.125 4.6097e-16
3439.65 4.705e-16
3441.175 4.6038e-16
3442.7 4.7935e-16
3444.225 5.1615e-16
3445.75 4.0512e-16
3447.275 3.5397e-16
3448.8 4.2562e-16
3450.325 4.6545e-16
3451.85 4.2085e-16
3453.375 4.0885e-16
3454.9 4.461e-16
3456.425 4.3398e-16
3457.95 4.6204e-16
3459.475 4.3978e-16
3461.0 4.4719e-16
3462.525 4.4445e-16
3464.05 3.7672e-16
3465.575 3.7552e-16
3467.1 4.3305e-16
3468.625 4.6355e-16
3470.15 4.531e-16
3471.675 4.5776e-16
3473.2 3.8669e-16
3474.725 3.7596e-16
3476.25 4.2475e-16
3477.775 4.4764e-16
3479.3 4.3759e-16
3480.825 4.3496e-16
3482.35 4.2419e-16
3483.875 4.0518e-16
3485.4 4.0842e-16
3486.925 4.0031e-16
3488.45 3.3709e-16
3489.975 3.9961e-16
3491.5 4.1007e-16
3493.025 4.2983e-16
3494.55 4.0829e-16
3496.075 4.7657e-16
3497.6 4.5697e-16
3499.125 3.8205e-16
3500.65 3.601e-16
3502.175 3.8122e-16
3503.7 4.9014e-16
3505.225 4.0367e-16
3506.75 3.7833e-16
3508.275 3.966e-16
3509.8 4.4098e-16
3511.325 3.9342e-16
3512.85 4.0392e-16
3514.375 3.9738e-16
3515.9 3.7103e-16
3517.425 4.4828e-16
3518.95 4.4066e-16
3520.475 4.0378e-16
3522.0 4.3479e-16
3523.525 4.0472e-16
3525.05 3.8022e-16
3526.575 4.1495e-16
3528.1 4.9554e-16
3529.625 4.4374e-16
3531.15 4.7622e-16
3532.675 4.4089e-16
3534.2 4.2943e-16
3535.725 4.6139e-16
3537.25 4.0296e-16
3538.775 3.7224e-16
3540.3 4.152e-16
3541.825 4.2407e-16
3543.35 4.2023e-16
3544.875 4.4836e-16
3546.4 4.1904e-16
3547.925 4.0308e-16
3549.45 4.7145e-16
3550.975 4.5428e-16
3552.5 4.5527e-16
3554.025 4.6797e-16
3555.55 4.4277e-16
3557.075 4.6037e-16
3558.6 4.4113e-16
3560.125 4.6093e-16
3561.65 4.3654e-16
3563.175 4.1019e-16
3564.7 4.4174e-16
3566.225 4.3927e-16
3567.75 4.645e-16
3569.275 4.6905e-16
3570.8 4.7293e-16
3572.325 4.5131e-16
3573.85 4.7857e-16
3575.375 4.9323e-16
3576.9 4.897e-16
3578.425 5.2165e-16
3579.95 4.8667e-16
3581.475 4.7588e-16
3583.0 4.6951e-16
3584.525 4.9029e-16
3586.05 4.5042e-16
3587.575 4.8296e-16
3589.1 4.9926e-16
3590.625 5.121e-16
3592.15 4.8728e-16
3593.675 4.7929e-16
3595.2 5.0075e-16
3596.725 4.9419e-16
3598.25 4.9782e-16
3599.775 4.4773e-16
3601.3 4.3903e-16
3602.825 4.1902e-16
3604.35 4.5493e-16
3605.875 4.7163e-16
3607.4 4.4298e-16
3608.925 4.4264e-16
3610.45 4.449e-16
3611.975 4.5035e-16
3613.5 4.708e-16
3615.025 4.3336e-16
3616.55 4.2863e-16
3618.075 4.3234e-16
3619.6 4.2082e-16
3621.125 4.2672e-16
3622.65 4.6178e-16
3624.175 4.5238e-16
3625.7 4.5651e-16
3627.225 4.2977e-16
3628.75 4.1365e-16
3630.275 4.3325e-16
3631.8 4.3483e-16
3633.325 4.5111e-16
3634.85 4.4253e-16
3636.375 4.8275e-16
3637.9 4.8538e-16
3639.425 4.5287e-16
3640.95 3.9987e-16
3642.475 3.9993e-16
3644.0 4.4577e-16
3645.525 4.5961e-16
3647.05 4.6828e-16
3648.575 4.4785e-16
3650.1 4.4359e-16
3651.625 4.5478e-16
3653.15 4.1565e-16
3654.675 3.8865e-16
3656.2 4.4401e-16
3657.725 4.5306e-16
3659.25 4.3059e-16
3660.775 4.523e-16
3662.3 4.3975e-16
3663.825 4.7075e-16
3665.35 4.2968e-16
3666.875 4.0674e-16
3668.4 4.6699e-16
3669.925 4.2585e-16
3671.45 4.4487e-16
3672.975 4.4973e-16
3674.5 4.4787e-16
3676.025 4.4902e-16
3677.55 4.4964e-16
3679.075 4.5794e-16
3680.6 4.4528e-16
3682.125 4.4727e-16
3683.65 4.525e-16
3685.175 4.586e-16
3686.7 4.7361e-16
3688.225 4.7266e-16
3689.75 4.2574e-16
3691.275 4.2944e-16
3692.8 4.4299e-16
3694.325 4.5901e-16
3695.85 4.7481e-16
3697.375 4.977e-16
3698.9 4.6326e-16
3700.425 4.5127e-16
3701.95 4.5278e-16
3703.475 4.5317e-16
3705.0 4.4149e-16
3706.525 4.369e-16
3708.05 4.4628e-16
3709.575 4.3517e-16
3711.1 4.6103e-16
3712.625 4.97e-16
3714.15 4.8158e-16
3715.675 4.3148e-16
3717.2 4.7308e-16
3718.725 4.5405e-16
3720.25 4.4106e-16
3721.775 4.5589e-16
3723.3 4.5368e-16
3724.825 5.0084e-16
3726.35 4.581e-16
3727.875 4.5839e-16
3729.4 4.6632e-16
3730.925 4.5969e-16
3732.45 4.6301e-16
3733.975 4.4764e-16
3735.5 4.8124e-16
3737.025 4.5975e-16
3738.55 4.3625e-16
3740.075 4.2874e-16
3741.6 4.3956e-16
3743.125 4.3402e-16
3744.65 4.1817e-16
3746.175 4.3085e-16
3747.7 4.3165e-16
3749.225 4.5352e-16
3750.75 4.3118e-16
3752.275 4.4063e-16
3753.8 4.3711e-16
3755.325 4.4025e-16
3756.85 4.8177e-16
3758.375 4.8637e-16
3759.9 4.5868e-16
3761.425 4.268e-16
3762.95 4.4131e-16
3764.475 4.6508e-16
3766.0 4.3896e-16
3767.525 4.4248e-16
3769.05 4.0929e-16
3770.575 4.2681e-16
3772.1 4.5626e-16
3773.625 4.3591e-16
3775.15 4.5829e-16
3776.675 4.5715e-16
3778.2 4.6371e-16
3779.725 4.7254e-16
3781.25 4.7602e-16
3782.775 4.6284e-16
3784.3 4.646e-16
3785.825 4.4503e-16
3787.35 4.129e-16
3788.875 4.5411e-16
3790.4 4.5252e-16
3791.925 4.5117e-16
3793.45 4.5484e-16
3794.975 4.744e-16
3796.5 4.7072e-16
3798.025 4.7959e-16
3799.55 4.6927e-16
3801.075 4.7392e-16
3802.6 4.7684e-16
3804.125 4.8346e-16
3805.65 4.6088e-16
3807.175 4.8067e-16
3808.7 5.0645e-16
3810.225 4.5954e-16
3811.75 4.4818e-16
3813.275 4.7702e-16
3814.8 4.7732e-16
3816.325 4.8421e-16
3817.85 4.5762e-16
3819.375 4.8822e-16
3820.9 4.7153e-16
3822.425 4.6135e-16
3823.95 4.7277e-16
3825.475 5.106e-16
3827.0 4.8358e-16
3828.525 4.9222e-16
3830.05 4.9956e-16
3831.575 4.7566e-16
3833.1 4.9474e-16
3834.625 4.9453e-16
3836.15 4.7267e-16
3837.675 4.8529e-16
3839.2 4.6424e-16
3840.725 4.5378e-16
3842.25 4.5949e-16
3843.775 4.5623e-16
3845.3 4.4603e-16
3846.825 4.4943e-16
3848.35 4.927e-16
3849.875 4.8807e-16
3851.4 4.7765e-16
3852.925 5.0724e-16
3854.45 4.9373e-16
3855.975 4.8144e-16
3857.5 4.8301e-16
3859.025 4.6616e-16
3860.55 4.8789e-16
3862.075 4.7664e-16
3863.6 4.7628e-16
3865.125 4.7747e-16
3866.65 4.6509e-16
3868.175 4.9595e-16
3869.7 4.8706e-16
3871.225 4.6848e-16
3872.75 4.648e-16
3874.275 4.8493e-16
3875.8 4.773e-16
3877.325 4.7663e-16
3878.85 4.6435e-16
3880.375 4.7148e-16
3881.9 4.8101e-16
3883.425 4.8014e-16
3884.95 4.6741e-16
3886.475 4.8167e-16
3888.0 4.7221e-16
3889.525 4.4509e-16
3891.05 4.515e-16
3892.575 4.8042e-16
3894.1 4.8036e-16
3895.625 4.8901e-16
3897.15 4.8272e-16
3898.675 4.8385e-16
3900.2 4.6615e-16
3901.725 4.6784e-16
3903.25 4.6928e-16
3904.775 4.8441e-16
3906.3 4.8781e-16
3907.825 4.5965e-16
3909.35 4.523e-16
3910.875 4.5142e-16
3912.4 4.5159e-16
3913.925 4.5839e-16
3915.45 4.7654e-16
3916.975 4.3664e-16
3918.5 4.4257e-16
3920.025 4.5169e-16
3921.55 4.2287e-16
3923.075 4.4427e-16
3924.6 4.481e-16
3926.125 4.4749e-16
3927.65 4.408e-16
3929.175 4.6473e-16
3930.7 4.4815e-16
3932.225 4.442e-16
3933.75 4.2328e-16
3935.275 4.0579e-16
3936.8 4.0912e-16
3938.325 4.5343e-16
3939.85 4.7401e-16
3941.375 4.7388e-16
3942.9 4.3954e-16
3944.425 4.4041e-16
3945.95 4.4282e-16
3947.475 4.1717e-16
3949.0 4.2321e-16
3950.525 4.3071e-16
3952.05 4.2469e-16
3953.575 4.343e-16
3955.1 4.3185e-16
3956.625 4.5433e-16
3958.15 4.5491e-16
3959.675 4.636e-16
3961.2 4.4138e-16
3962.725 4.4142e-16
3964.25 4.5195e-16
3965.775 4.4104e-16
3967.3 4.3582e-16
3968.825 4.1083e-16
3970.35 3.8954e-16
3971.875 4.2302e-16
3973.4 4.5281e-16
3974.925 4.2268e-16
3976.45 4.2103e-16
3977.975 4.4932e-16
3979.5 4.3657e-16
3981.025 4.5032e-16
3982.55 4.2265e-16
3984.075 3.7397e-16
3985.6 3.8016e-16
3987.125 3.9113e-16
3988.65 4.0179e-16
3990.175 3.968e-16
3991.7 4.0207e-16
3993.225 4.1905e-16
3994.75 4.2137e-16
3996.275 4.1778e-16
3997.8 4.0245e-16
3999.325 3.8585e-16
4000.85 4.0649e-16
4002.375 3.9146e-16
4003.9 3.871e-16
4005.425 4.1495e-16
4006.95 4.0787e-16
4008.475 4.2979e-16
4010.0 4.249e-16
4011.525 4.0557e-16
4013.05 3.9164e-16
4014.575 4.1944e-16
4016.1 4.2019e-16
4017.625 4.1975e-16
4019.15 4.0184e-16
4020.675 4.3255e-16
4022.2 3.984e-16
4023.725 4.0084e-16
4025.25 4.19e-16
4026.775 4.2645e-16
4028.3 4.1446e-16
4029.825 4.2023e-16
4031.35 4.4406e-16
4032.875 4.468e-16
4034.4 4.0812e-16
4035.925 4.0084e-16
4037.45 4.402e-16
4038.975 4.0512e-16
4040.5 4.1539e-16
4042.025 4.16e-16
4043.55 4.1221e-16
4045.075 4.0991e-16
4046.6 4.0956e-16
4048.125 4.0767e-16
4049.65 3.691e-16
4051.175 3.7984e-16
4052.7 3.6907e-16
4054.225 4.1088e-16
4055.75 3.8958e-16
4057.275 4.0221e-16
4058.8 4.3947e-16
4060.325 4.2781e-16
4061.85 4.3564e-16
4063.375 4.296e-16
4064.9 4.3031e-16
4066.425 4.2447e-16
4067.95 4.3265e-16
4069.475 4.3186e-16
4071.0 4.5091e-16
4072.525 4.2059e-16
4074.05 3.7794e-16
4075.575 4.1615e-16
4077.1 4.4143e-16
4078.625 4.3094e-16
4080.15 4.1854e-16
4081.675 4.0436e-16
4083.2 3.7939e-16
4084.725 4.0588e-16
4086.25 3.8223e-16
4087.775 3.683e-16
4089.3 3.7766e-16
4090.825 3.8061e-16
4092.35 3.7802e-16
4093.875 4.0146e-16
4095.4 3.8482e-16
4096.925 3.7521e-16
4098.45 4.0272e-16
4099.975 4.0139e-16
4101.5 3.8872e-16
4103.025 3.9565e-16
4104.55 3.8652e-16
4106.075 4.0281e-16
4107.6 4.1261e-16
4109.125 4.2113e-16
4110.65 4.2898e-16
4112.175 4.0585e-16
4113.7 4.0561e-16
4115.225 4.2743e-16
4116.75 4.2198e-16
4118.275 4.0581e-16
4119.8 4.2246e-16
4121.325 4.2897e-16
4122.85 4.3114e-16
4124.375 4.2516e-16
4125.9 4.0925e-16
4127.425 4.2664e-16
4128.95 4.2559e-16
4130.475 4.5191e-16
4132.0 4.0866e-16
4133.525 4.2648e-16
4135.05 4.1549e-16
4136.575 4.2565e-16
4138.1 4.2833e-16
4139.625 4.4599e-16
4141.15 4.3388e-16
4142.675 4.4576e-16
4144.2 4.4387e-16
4145.725 4.5423e-16
4147.25 4.5905e-16
4148.775 4.5119e-16
4150.3 4.5628e-16
4151.825 4.3556e-16
4153.35 4.3581e-16
4154.875 4.363e-16
4156.4 4.2697e-16
4157.925 4.5222e-16
4159.45 4.6538e-16
4160.975 4.7098e-16
4162.5 4.7015e-16
4164.025 4.7808e-16
4165.55 4.6749e-16
4167.075 4.6728e-16
4168.6 4.6805e-16
4170.125 4.69e-16
4171.65 4.6752e-16
4173.175 4.9323e-16
4174.7 4.7422e-16
4176.225 4.6991e-16
4177.75 4.6119e-16
4179.275 4.6345e-16
4180.8 4.5792e-16
4182.325 4.962e-16
4183.85 4.9237e-16
4185.375 4.6071e-16
4186.9 4.5106e-16
4188.425 4.5674e-16
4189.95 4.6482e-16
4191.475 4.6242e-16
4193.0 4.6349e-16
4194.525 4.8784e-16
4196.05 4.9702e-16
4197.575 4.7607e-16
4199.1 4.852e-16
4200.625 4.773e-16
4202.15 4.7965e-16
4203.675 4.9867e-16
4205.2 4.8849e-16
4206.725 4.8882e-16
4208.25 4.9723e-16
4209.775 4.8278e-16
4211.3 4.8098e-16
4212.825 5.0588e-16
4214.35 5.1184e-16
4215.875 5.0953e-16
4217.4 4.9376e-16
4218.925 4.8324e-16
4220.45 4.8065e-16
4221.975 4.8537e-16
4223.5 4.8869e-16
4225.025 4.8089e-16
4226.55 5.0136e-16
4228.075 4.9059e-16
4229.6 4.9828e-16
4231.125 5.04e-16
4232.65 4.807e-16
4234.175 4.7073e-16
4235.7 4.9937e-16
4237.225 4.8614e-16
4238.75 4.2802e-16
4240.275 4.5535e-16
4241.8 5.031e-16
4243.325 4.8088e-16
4244.85 4.9662e-16
4246.375 4.8162e-16
4247.9 4.5171e-16
4249.425 4.877e-16
4250.95 4.6249e-16
4252.475 4.631e-16
4254.0 4.8818e-16
4255.525 4.9095e-16
4257.05 4.9841e-16
4258.575 4.9529e-16
4260.1 4.7995e-16
4261.625 4.3658e-16
4263.15 4.3501e-16
4264.675 4.4272e-16
4266.2 4.6939e-16
4267.725 4.6296e-16
4269.25 4.3109e-16
4270.775 4.6096e-16
4272.3 4.7707e-16
4273.825 4.7643e-16
4275.35 4.7241e-16
4276.875 4.6217e-16
4278.4 4.3697e-16
4279.925 4.475e-16
4281.45 4.3774e-16
4282.975 4.4288e-16
4284.5 4.4574e-16
4286.025 4.3973e-16
4287.55 4.5122e-16
4289.075 4.2647e-16
4290.6 4.1693e-16
4292.125 4.2395e-16
4293.65 4.3204e-16
4295.175 4.3974e-16
4296.7 4.4255e-16
4298.225 4.2853e-16
4299.75 4.4175e-16
4301.275 4.3792e-16
4302.8 4.3632e-16
4304.325 4.449e-16
4305.85 4.3744e-16
4307.375 4.2672e-16
4308.9 4.0856e-16
4310.425 4.2601e-16
4311.95 4.4303e-16
4313.475 4.4496e-16
4315.0 4.3859e-16
4316.525 4.4941e-16
4318.05 4.2401e-16
4319.575 4.029e-16
4321.1 4.1701e-16
4322.625 4.3604e-16
4324.15 4.551e-16
4325.675 4.3858e-16
4327.2 4.419e-16
4328.725 4.4375e-16
4330.25 4.4884e-16
4331.775 4.5441e-16
4333.3 4.4269e-16
4334.825 4.2493e-16
4336.35 4.1984e-16
4337.875 4.3914e-16
4339.4 4.5739e-16
4340.925 4.4213e-16
4342.45 4.4517e-16
4343.975 4.3695e-16
4345.5 4.568e-16
4347.025 4.5181e-16
4348.55 4.5823e-16
4350.075 4.8061e-16
4351.6 4.7134e-16
4353.125 4.4267e-16
4354.65 4.5068e-16
4356.175 4.4484e-16
4357.7 4.7628e-16
4359.225 4.8584e-16
4360.75 4.2905e-16
4362.275 4.2512e-16
4363.8 4.5126e-16
4365.325 4.7813e-16
4366.85 4.702e-16
4368.375 4.464e-16
4369.9 4.6124e-16
4371.425 4.7537e-16
4372.95 4.6126e-16
4374.475 4.4794e-16
4376.0 4.625e-16
4377.525 4.7132e-16
4379.05 4.8739e-16
4380.575 4.6965e-16
4382.1 4.7539e-16
4383.625 4.7742e-16
4385.15 4.5694e-16
4386.675 4.5333e-16
4388.2 4.5979e-16
4389.725 4.6911e-16
4391.25 4.7233e-16
4392.775 4.8574e-16
4394.3 4.6159e-16
4395.825 4.4864e-16
4397.35 4.3931e-16
4398.875 4.6001e-16
4400.4 4.4616e-16
4401.925 4.5801e-16
4403.45 4.9498e-16
4404.975 4.837e-16
4406.5 4.5464e-16
4408.025 4.5872e-16
4409.55 4.6981e-16
4411.075 4.7375e-16
4412.6 4.7366e-16
4414.125 4.4657e-16
4415.65 4.5019e-16
4417.175 4.5941e-16
4418.7 4.6236e-16
4420.225 4.5472e-16
4421.75 4.4784e-16
4423.275 4.4657e-16
4424.8 4.6513e-16
4426.325 4.8163e-16
4427.85 4.4002e-16
4429.375 4.5313e-16
4430.9 4.5538e-16
4432.425 4.6366e-16
4433.95 4.6161e-16
4435.475 4.5639e-16
4437.0 4.3869e-16
4438.525 4.4963e-16
4440.05 4.5549e-16
4441.575 4.2784e-16
4443.1 4.3466e-16
4444.625 4.5084e-16
4446.15 4.5203e-16
4447.675 4.4022e-16
4449.2 4.2022e-16
4450.725 4.4009e-16
4452.25 4.4629e-16
4453.775 4.2876e-16
4455.3 4.3039e-16
4456.825 4.3709e-16
4458.35 4.323e-16
4459.875 4.2539e-16
4461.4 4.2331e-16
4462.925 4.2627e-16
4464.45 4.0477e-16
4465.975 4.019e-16
4467.5 4.1412e-16
4469.025 4.3254e-16
4470.55 4.1261e-16
4472.075 4.1098e-16
4473.6 4.2358e-16
4475.125 4.1353e-16
4476.65 3.915e-16
4478.175 4.1163e-16
4479.7 4.1932e-16
4481.225 4.1558e-16
4482.75 4.0728e-16
4484.275 4.1774e-16
4485.8 4.3206e-16
4487.325 3.9523e-16
4488.85 4.0856e-16
4490.375 4.2275e-16
4491.9 4.1444e-16
4493.425 4.0094e-16
4494.95 4.1891e-16
4496.475 4.1793e-16
4498.0 4.2825e-16
4499.525 4.2351e-16
4501.05 4.2739e-16
4502.575 3.9857e-16
4504.1 3.7914e-16
4505.625 4.0721e-16
4507.15 4.1206e-16
4508.675 4.0598e-16
4510.2 3.9059e-16
4511.725 3.9818e-16
4513.25 4.1359e-16
4514.775 4.1049e-16
4516.3 4.1719e-16
4517.825 4.3023e-16
4519.35 4.3083e-16
4520.875 4.1526e-16
4522.4 4.3812e-16
4523.925 4.2805e-16
4525.45 4.139e-16
4526.975 4.232e-16
4528.5 4.4312e-16
4530.025 4.3589e-16
4531.55 4.2957e-16
4533.075 4.1166e-16
4534.6 4.152e-16
4536.125 3.928e-16
4537.65 4.4269e-16
4539.175 4.2044e-16
4540.7 4.0927e-16
4542.225 4.2997e-16
4543.75 4.3577e-16
4545.275 4.0885e-16
4546.8 4.1792e-16
4548.325 4.2224e-16
4549.85 4.151e-16
4551.375 4.1456e-16
4552.9 4.2605e-16
4554.425 4.275e-16
4555.95 4.3298e-16
4557.475 4.0004e-16
4559.0 3.8239e-16
4560.525 4.0747e-16
4562.05 4.1607e-16
4563.575 4.0735e-16
4565.1 4.0402e-16
4566.625 3.8113e-16
4568.15 4.047e-16
4569.675 3.9751e-16
4571.2 3.8376e-16
4572.725 3.8416e-16
4574.25 4.0321e-16
4575.775 4.1244e-16
4577.3 4.0564e-16
4578.825 4.08e-16
4580.35 3.8241e-16
4581.875 4.0549e-16
4583.4 3.8893e-16
4584.925 3.7439e-16
4586.45 4.0976e-16
4587.975 3.9239e-16
4589.5 3.8963e-16
4591.025 3.8355e-16
4592.55 3.8139e-16
4594.075 3.7496e-16
4595.6 4.1572e-16
4597.125 4.1084e-16
4598.65 3.7752e-16
4600.175 3.8234e-16
4601.7 3.9556e-16
4603.225 3.9648e-16
4604.75 3.794e-16
4606.275 3.9015e-16
4607.8 3.8266e-16
4609.325 3.8552e-16
4610.85 4.0615e-16
4612.375 3.9314e-16
4613.9 4.0207e-16
4615.425 3.8428e-16
4616.95 4.014e-16
4618.475 3.9764e-16
4620.0 4.2706e-16
4621.525 4.0564e-16
4623.05 3.872e-16
4624.575 4.2134e-16
4626.1 3.9697e-16
4627.625 4.0513e-16
4629.15 4.0557e-16
4630.675 3.9253e-16
4632.2 4.0166e-16
4633.725 3.7215e-16
4635.25 3.8056e-16
4636.775 4.1164e-16
4638.3 4.147e-16
4639.825 3.8858e-16
4641.35 3.7998e-16
4642.875 3.8698e-16
4644.4 3.9651e-16
4645.925 3.8261e-16
4647.45 3.7139e-16
4648.975 3.8869e-16
4650.5 3.8661e-16
4652.025 3.8066e-16
4653.55 3.86e-16
4655.075 3.7418e-16
4656.6 4.1759e-16
4658.125 3.9783e-16
4659.65 3.869e-16
4661.175 4.1258e-16
4662.7 3.7879e-16
4664.225 3.8703e-16
4665.75 3.7654e-16
4667.275 3.7978e-16
4668.8 3.8401e-16
4670.325 3.8137e-16
4671.85 3.996e-16
4673.375 3.7545e-16
4674.9 3.9206e-16
4676.425 3.899e-16
4677.95 3.8565e-16
4679.475 3.8105e-16
4681.0 3.8983e-16
4682.525 3.8912e-16
4684.05 3.9133e-16
4685.575 3.6314e-16
4687.1 3.8701e-16
4688.625 4.1654e-16
4690.15 3.9468e-16
4691.675 3.9768e-16
4693.2 4.0516e-16
4694.725 3.9995e-16
4696.25 3.7353e-16
4697.775 3.6795e-16
4699.3 3.9413e-16
4700.825 4.1441e-16
4702.35 4.0876e-16
4703.875 4.0887e-16
4705.4 3.984e-16
4706.925 4.046e-16
4708.45 3.8573e-16
4709.975 3.6724e-16
4711.5 3.9838e-16
4713.025 3.8179e-16
4714.55 3.9662e-16
4716.075 4.2014e-16
4717.6 3.9799e-16
4719.125 4.0586e-16
4720.65 4.0136e-16
4722.175 4.03e-16
4723.7 4.1962e-16
4725.225 4.029e-16
4726.75 4.0077e-16
4728.275 4.1855e-16
4729.8 3.9607e-16
4731.325 3.8735e-16
4732.85 3.9909e-16
4734.375 4.1309e-16
4735.9 4.0741e-16
4737.425 4.0502e-16
4738.95 3.8809e-16
4740.475 4.1554e-16
4742.0 4.1669e-16
4743.525 3.8698e-16
4745.05 3.8881e-16
4746.575 3.9896e-16
4748.1 3.932e-16
4749.625 4.0676e-16
4751.15 4.2204e-16
4752.675 4.1437e-16
4754.2 4.22e-16
4755.725 4.0189e-16
4757.25 3.9669e-16
4758.775 4.0032e-16
4760.3 3.9641e-16
4761.825 3.8504e-16
4763.35 3.8366e-16
4764.875 4.0902e-16
4766.4 3.8984e-16
4767.925 3.7577e-16
4769.45 4.0348e-16
4770.975 3.9892e-16
4772.5 3.724e-16
4774.025 3.9296e-16
4775.55 3.8673e-16
4777.075 4.0903e-16
4778.6 4.2208e-16
4780.125 3.7779e-16
4781.65 3.8317e-16
4783.175 3.8665e-16
4784.7 3.7241e-16
4786.225 3.9677e-16
4787.75 3.7487e-16
4789.275 3.731e-16
4790.8 3.7332e-16
4792.325 3.7505e-16
4793.85 3.6543e-16
4795.375 3.9228e-16
4796.9 3.9173e-16
4798.425 3.763e-16
4799.95 3.932e-16
4801.475 3.9723e-16
4803.0 3.9066e-16
4804.525 3.7205e-16
4806.05 3.8692e-16
4807.575 3.962e-16
4809.1 4.0253e-16
4810.625 3.809e-16
4812.15 3.9224e-16
4813.675 3.9556e-16
4815.2 3.7902e-16
4816.725 3.7683e-16
4818.25 3.8131e-16
4819.775 3.8367e-16
4821.3 3.8326e-16
4822.825 3.7867e-16
4824.35 3.8901e-16
4825.875 3.9429e-16
4827.4 3.807e-16
4828.925 3.637e-16
4830.45 4.0064e-16
4831.975 3.925e-16
4833.5 3.8848e-16
4835.025 3.957e-16
4836.55 3.9316e-16
4838.075 3.9837e-16
4839.6 4.0549e-16
4841.125 3.9704e-16
4842.65 3.9679e-16
4844.175 3.8094e-16
4845.7 3.8085e-16
4847.225 4.0236e-16
4848.75 3.9674e-16
4850.275 4.2132e-16
4851.8 4.0972e-16
4853.325 4.0022e-16
4854.85 3.9035e-16
4856.375 4.031e-16
4857.9 4.1483e-16
4859.425 3.8451e-16
4860.95 3.9629e-16
4862.475 4.0625e-16
4864.0 4.0637e-16
4865.525 3.9387e-16
4867.05 4.1449e-16
4868.575 4.2773e-16
4870.1 4.0216e-16
4871.625 3.9417e-16
4873.15 4.2248e-16
4874.675 4.2368e-16
4876.2 4.1231e-16
4877.725 4.0183e-16
4879.25 4.0037e-16
4880.775 4.2128e-16
4882.3 4.327e-16
4883.825 4.1999e-16
4885.35 3.9321e-16
4886.875 3.9146e-16
4888.4 4.1011e-16
4889.925 4.1905e-16
4891.45 4.1785e-16
4892.975 4.1185e-16
4894.5 4.0781e-16
4896.025 3.8749e-16
4897.55 4.0206e-16
4899.075 4.1543e-16
4900.6 4.006e-16
4902.125 3.8885e-16
4903.65 4.2133e-16
4905.175 4.137e-16
4906.7 3.9007e-16
4908.225 3.9393e-16
4909.75 3.9142e-16
4911.275 3.9636e-16
4912.8 4.1921e-16
4914.325 4.0035e-16
4915.85 4.079e-16
4917.375 4.0293e-16
4918.9 3.9025e-16
4920.425 3.8611e-16
4921.95 3.9673e-16
4923.475 3.9363e-16
4925.0 4.1591e-16
4926.525 4.0438e-16
4928.05 3.9146e-16
4929.575 3.9158e-16
4931.1 4.044e-16
4932.625 4.1348e-16
4934.15 3.8491e-16
4935.675 3.9314e-16
4937.2 4.0791e-16
4938.725 4.1551e-16
4940.25 3.9325e-16
4941.775 3.974e-16
4943.3 4.137e-16
4944.825 4.2469e-16
4946.35 4.1216e-16
4947.875 3.9769e-16
4949.4 4.0763e-16
4950.925 3.8953e-16
4952.45 3.7788e-16
4953.975 4.0689e-16
4955.5 3.993e-16
4957.025 3.8736e-16
4958.55 3.9222e-16
4960.075 3.9607e-16
4961.6 3.7896e-16
4963.125 3.8131e-16
4964.65 3.679e-16
4966.175 3.8554e-16
4967.7 3.87e-16
4969.225 3.9595e-16
4970.75 3.9861e-16
4972.275 3.7838e-16
4973.8 3.7884e-16
4975.325 3.622e-16
4976.85 3.5304e-16
4978.375 3.6929e-16
4979.9 3.6839e-16
4981.425 3.8899e-16
4982.95 3.9643e-16
4984.475 4.0684e-16
4986.0 3.7808e-16
4987.525 3.7832e-16
4989.05 3.8294e-16
4990.575 3.628e-16
4992.1 3.7699e-16
4993.625 3.8227e-16
4995.15 3.7353e-16
4996.675 3.6947e-16
4998.2 3.5559e-16
4999.725 3.6316e-16
5001.25 3.5675e-16
5002.775 3.4833e-16
5004.3 3.7498e-16
5005.825 3.6475e-16
5007.35 3.4941e-16
5008.875 3.4993e-16
5010.4 3.5232e-16
5011.925 3.4829e-16
5013.45 3.5477e-16
5014.975 3.6696e-16
5016.5 3.7221e-16
5018.025 3.4722e-16
5019.55 3.6271e-16
5021.075 3.578e-16
5022.6 3.4861e-16
5024.125 3.4818e-16
5025.65 3.3617e-16
5027.175 3.5206e-16
5028.7 3.3328e-16
5030.225 3.3607e-16
5031.75 3.414e-16
5033.275 3.4515e-16
5034.8 3.4852e-16
5036.325 3.4491e-16
5037.85 3.4752e-16
5039.375 3.2832e-16
5040.9 3.5744e-16
5042.425 3.6505e-16
5043.95 3.5622e-16
5045.475 3.405e-16
5047.0 3.2848e-16
5048.525 3.3321e-16
5050.05 3.3124e-16
5051.575 3.3935e-16
5053.1 3.3996e-16
5054.625 3.4182e-16
5056.15 3.456e-16
5057.675 3.4633e-16
5059.2 3.4807e-16
5060.725 3.3082e-16
5062.25 3.4318e-16
5063.775 3.4926e-16
5065.3 3.4604e-16
5066.825 3.3986e-16
5068.35 3.3452e-16
5069.875 3.514e-16
5071.4 3.5259e-16
5072.925 3.4081e-16
5074.45 3.557e-16
5075.975 3.2532e-16
5077.5 3.3069e-16
5079.025 3.3346e-16
5080.55 3.3956e-16
5082.075 3.5253e-16
5083.6 3.5078e-16
5085.125 3.3622e-16
5086.65 3.4137e-16
5088.175 3.5649e-16
5089.7 3.7225e-16
5091.225 3.5782e-16
5092.75 3.4243e-16
5094.275 3.5007e-16
5095.8 3.2941e-16
5097.325 3.4426e-16
5098.85 3.5408e-16
5100.375 3.2862e-16
5101.9 3.467e-16
5103.425 3.5679e-16
5104.95 3.5673e-16
5106.475 3.6958e-16
5108.0 3.5318e-16
5109.525 3.4739e-16
5111.05 3.5399e-16
5112.575 3.5302e-16
5114.1 3.6087e-16
5115.625 3.6261e-16
5117.15 3.5002e-16
5118.675 3.5814e-16
5120.2 3.7932e-16
5121.725 3.5973e-16
5123.25 3.4909e-16
5124.775 3.4393e-16
5126.3 3.1662e-16
5127.825 3.3912e-16
5129.35 3.3383e-16
5130.875 3.2804e-16
5132.4 3.3544e-16
5133.925 3.4017e-16
5135.45 3.3513e-16
5136.975 3.361e-16
5138.5 3.4124e-16
5140.025 3.4371e-16
5141.55 3.4956e-16
5143.075 3.5441e-16
5144.6 3.3484e-16
5146.125 3.4378e-16
5147.65 3.3222e-16
5149.175 3.4627e-16
5150.7 3.4702e-16
5152.225 3.4125e-16
5153.75 3.1855e-16
5155.275 3.2195e-16
5156.8 3.4777e-16
5158.325 3.521e-16
5159.85 3.5303e-16
5161.375 3.3957e-16
5162.9 3.4483e-16
5164.425 3.291e-16
5165.95 3.3418e-16
5167.475 3.4826e-16
5169.0 3.2882e-16
5170.525 3.3405e-16
5172.05 3.6793e-16
5173.575 3.5453e-16
5175.1 3.5819e-16
5176.625 3.4892e-16
5178.15 3.3487e-16
5179.675 3.4088e-16
5181.2 3.2827e-16
5182.725 3.5424e-16
5184.25 3.5465e-16
5185.775 3.4077e-16
5187.3 3.555e-16
5188.825 3.572e-16
5190.35 3.2757e-16
5191.875 3.5145e-16
5193.4 3.4751e-16
5194.925 3.4479e-16
5196.45 3.5947e-16
5197.975 3.5394e-16
5199.5 3.5714e-16
5201.025 3.5306e-16
5202.55 3.231e-16
5204.075 3.5659e-16
5205.6 3.6566e-16
5207.125 3.4493e-16
5208.65 3.0832e-16
5210.175 3.4176e-16
5211.7 3.3113e-16
5213.225 3.3961e-16
5214.75 3.5567e-16
5216.275 3.4108e-16
5217.8 3.3758e-16
5219.325 3.3326e-16
5220.85 3.1867e-16
5222.375 3.13e-16
5223.9 3.1657e-16
5225.425 3.2033e-16
5226.95 3.2863e-16
5228.475 3.4323e-16
5230.0 3.4153e-16
5231.525 3.3007e-16
5233.05 3.3525e-16
5234.575 3.1359e-16
5236.1 3.1288e-16
5237.625 3.206e-16
5239.15 3.232e-16
5240.675 3.1252e-16
5242.2 3.0247e-16
5243.725 3.1503e-16
5245.25 3.1115e-16
5246.775 3.1287e-16
5248.3 3.2168e-16
5249.825 3.1552e-16
5251.35 3.2559e-16
5252.875 3.1904e-16
5254.4 3.2309e-16
5255.925 3.3514e-16
5257.45 3.4024e-16
5258.975 3.4246e-16
5260.5 3.4177e-16
5262.025 3.3501e-16
5263.55 3.2396e-16
5265.075 3.2808e-16
5266.6 3.086e-16
5268.125 3.0555e-16
5269.65 3.076e-16
5271.175 3.0681e-16
5272.7 3.2903e-16
5274.225 3.258e-16
5275.75 3.3758e-16
5277.275 3.5204e-16
5278.8 3.4121e-16
5280.325 3.4467e-16
5281.85 3.2499e-16
5283.375 3.2099e-16
5284.9 3.2264e-16
5286.425 3.3354e-16
5287.95 3.4262e-16
5289.475 3.2504e-16
5291.0 3.2753e-16
5292.525 3.3231e-16
5294.05 3.4186e-16
5295.575 3.447e-16
5297.1 3.3589e-16
5298.625 3.3891e-16
5300.15 3.3224e-16
5301.675 3.4062e-16
5303.2 3.3737e-16
5304.725 3.5121e-16
5306.25 3.3904e-16
5307.775 3.4199e-16
5309.3 3.4428e-16
5310.825 3.4695e-16
5312.35 3.3848e-16
5313.875 3.2263e-16
5315.4 3.5527e-16
5316.925 3.4737e-16
5318.45 3.5315e-16
5319.975 3.4926e-16
5321.5 3.1809e-16
5323.025 3.4428e-16
5324.55 3.5774e-16
5326.075 3.5108e-16
5327.6 3.3468e-16
5329.125 3.4167e-16
5330.65 3.4955e-16
5332.175 3.5034e-16
5333.7 3.3327e-16
5335.225 3.2618e-16
5336.75 3.6352e-16
5338.275 3.4748e-16
5339.8 3.3745e-16
5341.325 3.415e-16
5342.85 3.6714e-16
5344.375 3.7444e-16
5345.9 3.4064e-16
5347.425 3.5238e-16
5348.95 3.7325e-16
5350.475 3.7173e-16
5352.0 3.562e-16
5353.525 3.3571e-16
5355.05 3.4327e-16
5356.575 3.3319e-16
5358.1 3.486e-16
5359.625 3.4732e-16
5361.15 3.5735e-16
5362.675 3.8279e-16
5364.2 3.3332e-16
5365.725 3.5327e-16
5367.25 3.6493e-16
5368.775 3.4312e-16
5370.3 3.343e-16
5371.825 3.4328e-16
5373.35 3.3905e-16
5374.875 3.6461e-16
5376.4 3.349e-16
5377.925 3.414e-16
5379.45 3.5087e-16
5380.975 3.3762e-16
5382.5 3.5425e-16
5384.025 3.0693e-16
5385.55 3.2644e-16
5387.075 3.6736e-16
5388.6 3.3394e-16
5390.125 3.2362e-16
5391.65 3.4629e-16
5393.175 3.3338e-16
5394.7 3.4066e-16
5396.225 3.4172e-16
5397.75 3.2823e-16
5399.275 3.0801e-16
5400.8 2.9598e-16
5402.325 3.1386e-16
5403.85 3.0551e-16
5405.375 3.2648e-16
5406.9 3.2422e-16
5408.425 3.7063e-16
5409.95 3.3405e-16
5411.475 3.1879e-16
5413.0 3.1833e-16
5414.525 3.3884e-16
5416.05 3.4231e-16
5417.575 3.2447e-16
5419.1 3.5143e-16
5420.625 3.5406e-16
5422.15 3.0484e-16
5423.675 3.0726e-16
5425.2 3.3099e-16
5426.725 3.5284e-16
5428.25 3.1566e-16
5429.775 3.0308e-16
5431.3 3.4323e-16
5432.825 3.6828e-16
5434.35 3.2922e-16
5435.875 3.2917e-16
5437.4 3.0738e-16
5438.925 3.3575e-16
5440.45 3.2976e-16
5441.975 3.0208e-16
5443.5 3.1208e-16
5445.025 3.4151e-16
5446.55 3.2386e-16
5448.075 3.1097e-16
5449.6 2.6393e-16
5451.125 2.9559e-16
5452.65 3.1207e-16
5454.175 3.2863e-16
5455.7 3.5166e-16
5457.225 3.2869e-16
5458.75 3.1537e-16
5460.275 3.6188e-16
5461.8 3.6939e-16
5463.325 3.5129e-16
5464.85 3.3393e-16
5466.375 3.003e-16
5467.9 2.9289e-16
5469.425 3.1952e-16
5470.95 3.5259e-16
5472.475 3.4933e-16
5474.0 3.2264e-16
5475.525 3.4623e-16
5477.05 3.3385e-16
5478.575 3.5068e-16
5480.1 3.4279e-16
5481.625 3.0248e-16
5483.15 3.6092e-16
5484.675 3.5972e-16
5486.2 3.193e-16
5487.725 3.2675e-16
5489.25 3.18e-16
5490.775 3.221e-16
5492.3 3.124e-16
5493.825 3.2364e-16
5495.35 3.2488e-16
5496.875 3.227e-16
5498.4 3.2916e-16
5499.925 3.1417e-16
5501.45 3.186e-16
5502.975 3.2688e-16
5504.5 3.4062e-16
5506.025 3.6126e-16
5507.55 3.3393e-16
5509.075 3.2098e-16
5510.6 3.3596e-16
5512.125 3.2566e-16
5513.65 3.249e-16
5515.175 3.2925e-16
5516.7 3.2742e-16
5518.225 3.2543e-16
5519.75 3.1804e-16
5521.275 3.4151e-16
5522.8 3.5559e-16
5524.325 3.3739e-16
5525.85 3.3671e-16
5527.375 3.3843e-16
5528.9 3.3111e-16
5530.425 3.3231e-16
5531.95 3.5133e-16
5533.475 3.4362e-16
5535.0 3.3965e-16
5536.525 3.3406e-16
5538.05 3.3042e-16
5539.575 3.349e-16
5541.1 3.5245e-16
5542.625 3.2946e-16
5544.15 3.1626e-16
5545.675 3.2536e-16
5547.2 3.2902e-16
5548.725 3.2876e-16
5550.25 3.3324e-16
5551.775 3.2473e-16
5553.3 3.3179e-16
5554.825 3.3866e-16
5556.35 3.2507e-16
5557.875 3.2779e-16
5559.4 3.2286e-16
5560.925 3.2507e-16
5562.45 3.3577e-16
5563.975 3.4189e-16
5565.5 3.3946e-16
5567.025 3.4607e-16
5568.55 3.4832e-16
5570.075 3.3807e-16
5571.6 3.3308e-16
5573.125 3.3486e-16
5574.65 3.3095e-16
5576.175 3.4547e-16
5577.7 3.5993e-16
5579.225 3.5725e-16
5580.75 3.4296e-16
5582.275 3.3002e-16
5583.8 3.2096e-16
5585.325 3.2105e-16
5586.85 3.2725e-16
5588.375 3.3023e-16
5589.9 3.2245e-16
5591.425 3.177e-16
5592.95 3.2143e-16
5594.475 3.2094e-16
5596.0 3.1718e-16
5597.525 3.0682e-16
5599.05 3.129e-16
5600.575 3.2823e-16
5602.1 3.1332e-16
5603.625 3.1514e-16
5605.15 3.2355e-16
5606.675 3.2486e-16
5608.2 3.1256e-16
5609.725 3.1325e-16
5611.25 3.2465e-16
5612.775 3.2798e-16
5614.3 3.2238e-16
5615.825 3.2082e-16
5617.35 3.2672e-16
5618.875 3.2097e-16
5620.4 3.1794e-16
5621.925 3.1752e-16
5623.45 3.2498e-16
5624.975 3.0641e-16
5626.5 3.1413e-16
5628.025 3.3169e-16
5629.55 3.2217e-16
5631.075 3.1243e-16
5632.6 3.2427e-16
5634.125 3.2264e-16
5635.65 3.1071e-16
5637.175 3.1577e-16
5638.7 3.3081e-16
5640.225 3.1364e-16
5641.75 2.9707e-16
5643.275 3.014e-16
5644.8 3.13e-16
5646.325 2.992e-16
5647.85 3.0234e-16
5649.375 3.1112e-16
5650.9 3.0538e-16
5652.425 3.0543e-16
5653.95 3.0422e-16
5655.475 3.0697e-16
5657.0 3.0966e-16
5658.525 2.8884e-16
5660.05 3.0332e-16
5661.575 3.1767e-16
5663.1 3.3971e-16
5664.625 3.2526e-16
5666.15 3.0588e-16
5667.675 2.9238e-16
5669.2 3.0205e-16
5670.725 2.9074e-16
5672.25 2.9935e-16
5673.775 3.1671e-16
5675.3 3.1415e-16
5676.825 3.1088e-16
5678.35 2.888e-16
5679.875 2.9872e-16
5681.4 3.075e-16
5682.925 3.0332e-16
5684.45 3.0943e-16
5685.975 2.9685e-16
5687.5 2.8161e-16
5689.025 2.8816e-16
5690.55 2.9807e-16
5692.075 2.9342e-16
5693.6 2.7708e-16
5695.125 2.8746e-16
5696.65 2.976e-16
5698.175 2.7408e-16
5699.7 2.7886e-16
5701.225 2.9753e-16
5702.75 3.0038e-16
5704.275 2.9651e-16
5705.8 2.9455e-16
5707.325 2.9196e-16
5708.85 2.855e-16
5710.375 2.7937e-16
5711.9 2.9443e-16
5713.425 2.9025e-16
5714.95 2.9229e-16
5716.475 2.9503e-16
5718.0 2.9189e-16
5719.525 2.8911e-16
5721.05 2.8538e-16
5722.575 2.7782e-16
5724.1 2.765e-16
5725.625 2.8524e-16
5727.15 2.9911e-16
5728.675 2.9684e-16
5730.2 2.9484e-16
5731.725 2.7884e-16
5733.25 2.8829e-16
5734.775 2.9185e-16
5736.3 2.9359e-16
5737.825 2.984e-16
5739.35 2.9338e-16
5740.875 2.8386e-16
5742.4 2.8307e-16
5743.925 2.9496e-16
5745.45 3.0453e-16
5746.975 2.9495e-16
5748.5 2.921e-16
5750.025 2.8854e-16
5751.55 2.8225e-16
5753.075 2.8401e-16
5754.6 2.9659e-16
5756.125 3.0069e-16
5757.65 2.9552e-16
5759.175 3.0873e-16
5760.7 3.0577e-16
5762.225 2.8934e-16
5763.75 2.9469e-16
5765.275 3.0264e-16
5766.8 3.0555e-16
5768.325 3.0074e-16
5769.85 2.8374e-16
5771.375 2.6752e-16
5772.9 2.753e-16
5774.425 2.9206e-16
5775.95 2.924e-16
5777.475 2.8824e-16
5779.0 2.9271e-16
5780.525 2.9658e-16
5782.05 2.9371e-16
5783.575 2.845e-16
5785.1 2.7553e-16
5786.625 2.7926e-16
5788.15 2.873e-16
5789.675 2.8481e-16
5791.2 2.7919e-16
5792.725 2.7958e-16
5794.25 2.7827e-16
5795.775 2.8986e-16
5797.3 2.8928e-16
5798.825 2.7462e-16
5800.35 2.6422e-16
5801.875 2.8145e-16
5803.4 3.0098e-16
5804.925 2.9943e-16
5806.45 2.8689e-16
5807.975 2.8893e-16
5809.5 2.8214e-16
5811.025 2.6844e-16
5812.55 2.7732e-16
5814.075 2.8242e-16
5815.6 2.8884e-16
5817.125 2.8483e-16
5818.65 2.7641e-16
5820.175 2.8447e-16
5821.7 2.9121e-16
5823.225 2.8433e-16
5824.75 2.8144e-16
5826.275 2.8952e-16
5827.8 2.8814e-16
5829.325 2.6905e-16
5830.85 2.643e-16
5832.375 2.7457e-16
5833.9 2.7821e-16
5835.425 2.691e-16
5836.95 2.7218e-16
5838.475 2.8843e-16
5840.0 2.7982e-16
5841.525 2.8046e-16
5843.05 2.8339e-16
5844.575 2.7811e-16
5846.1 2.7828e-16
5847.625 2.8641e-16
5849.15 2.9519e-16
5850.675 2.8271e-16
5852.2 2.7273e-16
5853.725 2.814e-16
5855.25 2.8293e-16
5856.775 2.8008e-16
5858.3 2.837e-16
5859.825 2.8822e-16
5861.35 2.8236e-16
5862.875 2.7163e-16
5864.4 2.6416e-16
5865.925 2.6274e-16
5867.45 2.7123e-16
5868.975 2.5874e-16
5870.5 2.6362e-16
5872.025 2.7663e-16
5873.55 2.8389e-16
5875.075 2.8283e-16
5876.6 2.7572e-16
5878.125 2.6792e-16
5879.65 2.6275e-16
5881.175 2.6274e-16
5882.7 2.7376e-16
5884.225 2.6251e-16
5885.75 2.5304e-16
5887.275 2.5082e-16
5888.8 2.4412e-16
5890.325 2.5198e-16
5891.85 2.6704e-16
5893.375 2.4381e-16
5894.9 2.3193e-16
5896.425 2.3856e-16
5897.95 2.6217e-16
5899.475 2.7334e-16
5901.0 2.5625e-16
5902.525 2.5822e-16
5904.05 2.646e-16
5905.575 2.6098e-16
5907.1 2.6056e-16
5908.625 2.5889e-16
5910.15 2.5287e-16
5911.675 2.552e-16
5913.2 2.4622e-16
5914.725 2.407e-16
5916.25 2.4725e-16
5917.775 2.5319e-16
5919.3 2.6097e-16
5920.825 2.6172e-16
5922.35 2.6137e-16
5923.875 2.7396e-16
5925.4 2.7708e-16
5926.925 2.5894e-16
5928.45 2.4986e-16
5929.975 2.5568e-16
5931.5 2.3845e-16
5933.025 2.3907e-16
5934.55 2.5097e-16
5936.075 2.5842e-16
5937.6 2.5735e-16
5939.125 2.582e-16
5940.65 2.5938e-16
5942.175 2.6425e-16
5943.7 2.7076e-16
5945.225 2.8258e-16
5946.75 2.7716e-16
5948.275 2.709e-16
5949.8 2.7272e-16
5951.325 2.6767e-16
5952.85 2.6849e-16
5954.375 2.7394e-16
5955.9 2.6557e-16
5957.425 2.6959e-16
5958.95 2.6282e-16
5960.475 2.6085e-16
5962.0 2.6418e-16
5963.525 2.6569e-16
5965.05 2.6775e-16
5966.575 2.6756e-16
5968.1 2.6297e-16
5969.625 2.6321e-16
5971.15 2.6878e-16
5972.675 2.675e-16
5974.2 2.6684e-16
5975.725 2.8003e-16
5977.25 2.7676e-16
5978.775 2.6494e-16
5980.3 2.6172e-16
5981.825 2.6903e-16
5983.35 2.684e-16
5984.875 2.6219e-16
5986.4 2.6395e-16
5987.925 2.6956e-16
5989.45 2.664e-16
5990.975 2.5862e-16
5992.5 2.5599e-16
5994.025 2.6535e-16
5995.55 2.6907e-16
5997.075 2.7347e-16
5998.6 2.7904e-16
6000.125 2.7247e-16
6001.65 2.5344e-16
6003.175 2.5047e-16
6004.7 2.7175e-16
6006.225 2.7045e-16
6007.75 2.6352e-16
6009.275 2.6969e-16
6010.8 2.6007e-16
6012.325 2.4807e-16
6013.85 2.66e-16
6015.375 2.6902e-16
6016.9 2.609e-16
6018.425 2.6094e-16
6019.95 2.5466e-16
6021.475 2.4614e-16
6023.0 2.5533e-16
6024.525 2.6786e-16
6026.05 2.6767e-16
6027.575 2.5895e-16
6029.1 2.516e-16
6030.625 2.5154e-16
6032.15 2.4526e-16
6033.675 2.4244e-16
6035.2 2.548e-16
6036.725 2.5008e-16
6038.25 2.4136e-16
6039.775 2.4206e-16
6041.3 2.4615e-16
6042.825 2.535e-16
6044.35 2.5766e-16
6045.875 2.4155e-16
6047.4 2.3479e-16
6048.925 2.4389e-16
6050.45 2.431e-16
6051.975 2.4045e-16
6053.5 2.4181e-16
6055.025 2.4325e-16
6056.55 2.5519e-16
6058.075 2.5686e-16
6059.6 2.5328e-16
6061.125 2.5458e-16
6062.65 2.3962e-16
6064.175 2.3102e-16
6065.7 2.45e-16
6067.225 2.4314e-16
6068.75 2.3977e-16
6070.275 2.3953e-16
6071.8 2.2947e-16
6073.325 2.2954e-16
6074.85 2.4073e-16
6076.375 2.3982e-16
6077.9 2.3127e-16
6079.425 2.404e-16
6080.95 2.4626e-16
6082.475 2.4187e-16
6084.0 2.3407e-16
6085.525 2.3762e-16
6087.05 2.3546e-16
6088.575 2.3144e-16
6090.1 2.3659e-16
6091.625 2.3643e-16
6093.15 2.4436e-16
6094.675 2.4341e-16
6096.2 2.3252e-16
6097.725 2.3687e-16
6099.25 2.4405e-16
6100.775 2.4461e-16
6102.3 2.5211e-16
6103.825 2.5166e-16
6105.35 2.4068e-16
6106.875 2.3932e-16
6108.4 2.5125e-16
6109.925 2.5582e-16
6111.45 2.5477e-16
6112.975 2.4105e-16
6114.5 2.3291e-16
6116.025 2.3216e-16
6117.55 2.3132e-16
6119.075 2.3867e-16
6120.6 2.3748e-16
6122.125 2.3642e-16
6123.65 2.4145e-16
6125.175 2.3582e-16
6126.7 2.3641e-16
6128.225 2.4343e-16
6129.75 2.5184e-16
6131.275 2.5018e-16
6132.8 2.3735e-16
6134.325 2.3294e-16
6135.85 2.3958e-16
6137.375 2.4259e-16
6138.9 2.3872e-16
6140.425 2.4783e-16
6141.95 2.4993e-16
6143.475 2.4792e-16
6145.0 2.4802e-16
6146.525 2.4266e-16
6148.05 2.456e-16
6149.575 2.4668e-16
6151.1 2.3753e-16
6152.625 2.314e-16
6154.15 2.3505e-16
6155.675 2.4714e-16
6157.2 2.5301e-16
6158.725 2.4755e-16
6160.25 2.4905e-16
6161.775 2.5236e-16
6163.3 2.5006e-16
6164.825 2.4426e-16
6166.35 2.4995e-16
6167.875 2.5092e-16
6169.4 2.4931e-16
6170.925 2.4846e-16
6172.45 2.4967e-16
6173.975 2.4316e-16
6175.5 2.4416e-16
6177.025 2.5387e-16
6178.55 2.515e-16
6180.075 2.5289e-16
6181.6 2.559e-16
6183.125 2.625e-16
6184.65 2.6324e-16
6186.175 2.6174e-16
6187.7 2.691e-16
6189.225 2.5634e-16
6190.75 2.4997e-16
6192.275 2.6064e-16
6193.8 2.63e-16
6195.325 2.606e-16
6196.85 2.5956e-16
6198.375 2.6149e-16
6199.9 2.5453e-16
6201.425 2.6229e-16
6202.95 2.6926e-16
6204.475 2.699e-16
6206.0 2.7837e-16
6207.525 2.6251e-16
6209.05 2.6533e-16
6210.575 2.7171e-16
6212.1 2.7161e-16
6213.625 2.6725e-16
6215.15 2.7087e-16
6216.675 2.7669e-16
6218.2 2.6896e-16
6219.725 2.6551e-16
6221.25 2.6181e-16
6222.775 2.6035e-16
6224.3 2.6572e-16
6225.825 2.6887e-16
6227.35 2.6512e-16
6228.875 2.6032e-16
6230.4 2.6865e-16
6231.925 2.8044e-16
6233.45 2.6888e-16
6234.975 2.6365e-16
6236.5 2.6822e-16
6238.025 2.5776e-16
6239.55 2.5227e-16
6241.075 2.5891e-16
6242.6 2.6088e-16
6244.125 2.5751e-16
6245.65 2.5881e-16
6247.175 2.5928e-16
6248.7 2.6509e-16
6250.225 2.6431e-16
6251.75 2.573e-16
6253.275 2.5249e-16
6254.8 2.5266e-16
6256.325 2.6035e-16
6257.85 2.61e-16
6259.375 2.6072e-16
6260.9 2.4951e-16
6262.425 2.459e-16
6263.95 2.5155e-16
6265.475 2.4993e-16
6267.0 2.5658e-16
6268.525 2.636e-16
6270.05 2.61e-16
6271.575 2.6036e-16
6273.1 2.6439e-16
6274.625 2.6264e-16
6276.15 2.5805e-16
6277.675 2.5785e-16
6279.2 2.5338e-16
6280.725 2.5718e-16
6282.25 2.5789e-16
6283.775 2.6265e-16
6285.3 2.586e-16
6286.825 2.4945e-16
6288.35 2.5752e-16
6289.875 2.5297e-16
6291.4 2.4745e-16
6292.925 2.4358e-16
6294.45 2.4782e-16
6295.975 2.6182e-16
6297.5 2.6162e-16
6299.025 2.6753e-16
6300.55 2.7124e-16
6302.075 2.6165e-16
6303.6 2.4838e-16
6305.125 2.5543e-16
6306.65 2.5667e-16
6308.175 2.5304e-16
6309.7 2.6992e-16
6311.225 2.6957e-16
6312.75 2.5716e-16
6314.275 2.5967e-16
6315.8 2.5893e-16
6317.325 2.5181e-16
6318.85 2.6186e-16
6320.375 2.64e-16
6321.9 2.4854e-16
6323.425 2.4913e-16
6324.95 2.5991e-16
6326.475 2.5885e-16
6328.0 2.5012e-16
6329.525 2.4738e-16
6331.05 2.5289e-16
6332.575 2.4987e-16
6334.1 2.5451e-16
6335.625 2.4687e-16
6337.15 2.4833e-16
6338.675 2.4172e-16
6340.2 2.4399e-16
6341.725 2.6254e-16
6343.25 2.6364e-16
6344.775 2.4812e-16
6346.3 2.5306e-16
6347.825 2.6255e-16
6349.35 2.3581e-16
6350.875 2.2477e-16
6352.4 2.3645e-16
6353.925 2.4017e-16
6355.45 2.4422e-16
6356.975 2.4845e-16
6358.5 2.4634e-16
6360.025 2.4773e-16
6361.55 2.5126e-16
6363.075 2.5228e-16
6364.6 2.4859e-16
6366.125 2.4384e-16
6367.65 2.3239e-16
6369.175 2.318e-16
6370.7 2.3292e-16
6372.225 2.3449e-16
6373.75 2.416e-16
6375.275 2.4509e-16
6376.8 2.5206e-16
6378.325 2.4515e-16
6379.85 2.4176e-16
6381.375 2.4352e-16
6382.9 2.3648e-16
6384.425 2.3576e-16
6385.95 2.4468e-16
6387.475 2.4706e-16
6389.0 2.3981e-16
6390.525 2.4002e-16
6392.05 2.385e-16
6393.575 2.3275e-16
6395.1 2.3733e-16
6396.625 2.3283e-16
6398.15 2.2854e-16
6399.675 2.3766e-16
6401.2 2.3169e-16
6402.725 2.2776e-16
6404.25 2.3579e-16
6405.775 2.3799e-16
6407.3 2.3226e-16
6408.825 2.3104e-16
6410.35 2.3982e-16
6411.875 2.3921e-16
6413.4 2.3383e-16
6414.925 2.3365e-16
6416.45 2.3051e-16
6417.975 2.2563e-16
6419.5 2.2781e-16
6421.025 2.3313e-16
6422.55 2.4218e-16
6424.075 2.3071e-16
6425.6 2.201e-16
6427.125 2.2535e-16
6428.65 2.2245e-16
6430.175 2.245e-16
6431.7 2.3076e-16
6433.225 2.2883e-16
6434.75 2.1916e-16
6436.275 2.2292e-16
6437.8 2.2706e-16
6439.325 2.2088e-16
6440.85 2.2196e-16
6442.375 2.2993e-16
6443.9 2.2275e-16
6445.425 2.1863e-16
6446.95 2.2296e-16
6448.475 2.1894e-16
6450.0 2.158e-16
6451.525 2.2628e-16
6453.05 2.4353e-16
6454.575 2.4375e-16
6456.1 2.2851e-16
6457.625 2.2305e-16
6459.15 2.2359e-16
6460.675 2.2327e-16
6462.2 2.1496e-16
6463.725 2.1473e-16
6465.25 2.2289e-16
6466.775 2.2951e-16
6468.3 2.2222e-16
6469.825 2.2412e-16
6471.35 2.268e-16
6472.875 2.1968e-16
6474.4 2.2185e-16
6475.925 2.3307e-16
6477.45 2.3456e-16
6478.975 2.3311e-16
6480.5 2.2999e-16
6482.025 2.1094e-16
6483.55 2.0456e-16
6485.075 2.2047e-16
6486.6 2.2391e-16
6488.125 2.1308e-16
6489.65 2.1679e-16
6491.175 2.2746e-16
6492.7 2.2841e-16
6494.225 2.2562e-16
6495.75 2.2098e-16
6497.275 2.1453e-16
6498.8 2.199e-16
6500.325 2.2525e-16
6501.85 2.3402e-16
6503.375 2.339e-16
6504.9 2.2408e-16
6506.425 2.3081e-16
6507.95 2.3301e-16
6509.475 2.2558e-16
6511.0 2.2101e-16
6512.525 2.1799e-16
6514.05 2.1235e-16
6515.575 2.1523e-16
6517.1 2.2643e-16
6518.625 2.2153e-16
6520.15 2.0848e-16
6521.675 2.048e-16
6523.2 2.1053e-16
6524.725 2.1355e-16
6526.25 2.0778e-16
6527.775 2.0988e-16
6529.3 2.1539e-16
6530.825 2.1271e-16
6532.35 2.1719e-16
6533.875 2.1721e-16
6535.4 2.0947e-16
6536.925 2.1357e-16
6538.45 2.1315e-16
6539.975 2.0341e-16
6541.5 2.0908e-16
6543.025 2.1507e-16
6544.55 2.0941e-16
6546.075 2.0817e-16
6547.6 2.1754e-16
6549.125 2.2456e-16
6550.65 2.2139e-16
6552.175 2.1329e-16
6553.7 2.1299e-16
6555.225 2.175e-16
6556.75 2.2159e-16
6558.275 2.2253e-16
6559.8 2.2429e-16
6561.325 2.2567e-16
6562.85 2.266e-16
6564.375 2.2937e-16
6565.9 2.2864e-16
6567.425 2.1954e-16
6568.95 2.1273e-16
6570.475 2.1695e-16
6572.0 2.0995e-16
6573.525 1.9334e-16
6575.05 1.9737e-16
6576.575 2.1062e-16
6578.1 2.0727e-16
6579.625 2.0153e-16
6581.15 2.0959e-16
6582.675 2.0217e-16
6584.2 1.8904e-16
6585.725 1.9476e-16
6587.25 1.9886e-16
6588.775 1.9876e-16
6590.3 1.9559e-16
6591.825 1.9866e-16
6593.35 2.0029e-16
6594.875 1.962e-16
6596.4 1.9738e-16
6597.925 1.9462e-16
6599.45 1.8889e-16
6600.975 1.9704e-16
6602.5 2.112e-16
6604.025 2.0245e-16
6605.55 1.8776e-16
6607.075 1.9926e-16
6608.6 2.0373e-16
6610.125 1.9859e-16
6611.65 1.9515e-16
6613.175 1.9436e-16
6614.7 1.9718e-16
6616.225 2.0032e-16
6617.75 2.0264e-16
6619.275 2.0363e-16
6620.8 1.9969e-16
6622.325 1.8961e-16
6623.85 1.9398e-16
6625.375 1.9792e-16
6626.9 1.9722e-16
6628.425 2.0391e-16
6629.95 2.0448e-16
6631.475 1.9984e-16
6633.0 1.9928e-16
6634.525 2.0718e-16
6636.05 2.1261e-16
6637.575 2.0443e-16
6639.1 1.9928e-16
6640.625 1.9645e-16
6642.15 1.9849e-16
6643.675 1.9763e-16
6645.2 2.0366e-16
6646.725 2.0579e-16
6648.25 1.9695e-16
6649.775 1.9973e-16
6651.3 1.9548e-16
6652.825 1.9479e-16
6654.35 1.9625e-16
6655.875 1.9725e-16
6657.4 2.0076e-16
6658.925 1.9575e-16
6660.45 1.9831e-16
6661.975 2.0124e-16
6663.5 2.0545e-16
6665.025 2.0904e-16
6666.55 2.0141e-16
6668.075 1.9353e-16
6669.6 1.9596e-16
6671.125 2.0312e-16
6672.65 2.1091e-16
6674.175 2.1316e-16
6675.7 2.0843e-16
6677.225 2.0886e-16
6678.75 2.083e-16
6680.275 2.054e-16
6681.8 2.123e-16
6683.325 2.0689e-16
6684.85 2.0068e-16
6686.375 2.0246e-16
6687.9 2.1537e-16
6689.425 2.2076e-16
6690.95 2.0769e-16
6692.475 2.0844e-16
6694.0 2.1756e-16
6695.525 2.1742e-16
6697.05 2.1518e-16
6698.575 2.148e-16
6700.1 2.2073e-16
6701.625 2.2723e-16
6703.15 2.3116e-16
6704.675 2.2772e-16
6706.2 2.2506e-16
6707.725 2.2226e-16
6709.25 2.1493e-16
6710.775 2.1455e-16
6712.3 2.1952e-16
6713.825 2.1972e-16
6715.35 2.1442e-16
6716.875 2.1935e-16
6718.4 2.2376e-16
6719.925 2.3077e-16
6721.45 2.2774e-16
6722.975 2.1731e-16
6724.5 2.1898e-16
6726.025 2.1655e-16
6727.55 2.1578e-16
6729.075 2.2345e-16
6730.6 2.3617e-16
6732.125 2.3163e-16
6733.65 2.2078e-16
6735.175 2.215e-16
6736.7 2.2132e-16
6738.225 2.1912e-16
6739.75 2.2395e-16
6741.275 2.1614e-16
6742.8 2.143e-16
6744.325 2.1268e-16
6745.85 2.1606e-16
6747.375 2.155e-16
6748.9 2.2092e-16
6750.425 2.2189e-16
6751.95 2.1498e-16
6753.475 2.0895e-16
6755.0 2.0747e-16
6756.525 2.1356e-16
6758.05 2.167e-16
6759.575 2.1751e-16
6761.1 2.1775e-16
6762.625 2.1763e-16
6764.15 2.1953e-16
6765.675 2.2739e-16
6767.2 2.3227e-16
6768.725 2.3067e-16
6770.25 2.2198e-16
6771.775 2.2238e-16
6773.3 2.2564e-16
6774.825 2.1649e-16
6776.35 2.1433e-16
6777.875 2.3008e-16
6779.4 2.23e-16
6780.925 2.1165e-16
6782.45 2.1442e-16
6783.975 2.1928e-16
6785.5 2.145e-16
6787.025 2.1738e-16
6788.55 2.3293e-16
6790.075 2.2926e-16
6791.6 2.1444e-16
6793.125 2.0997e-16
6794.65 2.187e-16
6796.175 2.2062e-16
6797.7 2.1908e-16
6799.225 2.2495e-16
6800.75 2.2713e-16
6802.275 2.2181e-16
6803.8 2.1904e-16
6805.325 2.2637e-16
6806.85 2.2697e-16
6808.375 2.2323e-16
6809.9 2.2349e-16
6811.425 2.2001e-16
6812.95 2.2519e-16
6814.475 2.3495e-16
6816.0 2.2889e-16
6817.525 2.2401e-16
6819.05 2.2144e-16
6820.575 2.214e-16
6822.1 2.2377e-16
6823.625 2.2077e-16
6825.15 2.2544e-16
6826.675 2.3017e-16
6828.2 2.2535e-16
6829.725 2.246e-16
6831.25 2.2895e-16
6832.775 2.2741e-16
6834.3 2.2055e-16
6835.825 2.1973e-16
6837.35 2.232e-16
6838.875 2.2306e-16
6840.4 2.3006e-16
6841.925 2.3067e-16
6843.45 2.1976e-16
6844.975 2.1879e-16
6846.5 2.2521e-16
6848.025 2.2546e-16
6849.55 2.195e-16
6851.075 2.1941e-16
6852.6 2.1697e-16
6854.125 2.1045e-16
6855.65 2.1587e-16
6857.175 2.268e-16
6858.7 2.2514e-16
6860.225 2.3086e-16
6861.75 2.3189e-16
6863.275 2.2315e-16
6864.8 2.2001e-16
6866.325 2.101e-16
6867.85 2.1016e-16
6869.375 2.2175e-16
6870.9 2.1895e-16
6872.425 2.1315e-16
6873.95 2.1644e-16
6875.475 2.188e-16
6877.0 2.1408e-16
6878.525 2.1501e-16
6880.05 2.1819e-16
6881.575 2.2197e-16
6883.1 2.1589e-16
6884.625 2.0839e-16
6886.15 2.0722e-16
6887.675 2.1565e-16
6889.2 2.1819e-16
6890.725 2.288e-16
6892.25 2.3051e-16
6893.775 2.2947e-16
6895.3 2.2908e-16
6896.825 2.276e-16
6898.35 2.1945e-16
6899.875 2.1806e-16
6901.4 2.2065e-16
6902.925 2.1617e-16
6904.45 2.2568e-16
6905.975 2.3731e-16
6907.5 2.2624e-16
6909.025 2.2393e-16
6910.55 2.3675e-16
6912.075 2.4157e-16
6913.6 2.3391e-16
6915.125 2.3154e-16
6916.65 2.3664e-16
6918.175 2.4322e-16
6919.7 2.4158e-16
6921.225 2.3743e-16
6922.75 2.4025e-16
6924.275 2.5258e-16
6925.8 2.4708e-16
6927.325 2.4022e-16
6928.85 2.3068e-16
6930.375 2.3236e-16
6931.9 2.4111e-16
6933.425 2.3509e-16
6934.95 2.3467e-16
6936.475 2.4102e-16
6938.0 2.3444e-16
6939.525 2.2271e-16
6941.05 2.223e-16
6942.575 2.3542e-16
6944.1 2.3629e-16
6945.625 2.315e-16
6947.15 2.3781e-16
6948.675 2.4201e-16
6950.2 2.3877e-16
6951.725 2.276e-16
6953.25 2.3175e-16
6954.775 2.3367e-16
6956.3 2.3225e-16
6957.825 2.4354e-16
6959.35 2.4014e-16
6960.875 2.2358e-16
6962.4 2.2488e-16
6963.925 2.3261e-16
6965.45 2.3059e-16
6966.975 2.3057e-16
6968.5 2.2364e-16
6970.025 2.2258e-16
6971.55 2.2102e-16
6973.075 2.2353e-16
6974.6 2.2856e-16
6976.125 2.2788e-16
6977.65 2.3434e-16
6979.175 2.4309e-16
6980.7 2.4634e-16
6982.225 2.4079e-16
6983.75 2.2919e-16
6985.275 2.2561e-16
6986.8 2.306e-16
6988.325 2.2622e-16
6989.85 2.2246e-16
6991.375 2.2816e-16
6992.9 2.3109e-16
6994.425 2.2522e-16
6995.95 2.2465e-16
6997.475 2.286e-16
6999.0 2.3332e-16
7000.525 2.3527e-16
7002.05 2.3162e-16
7003.575 2.2613e-16
7005.1 2.2335e-16
7006.625 2.2955e-16
7008.15 2.3152e-16
7009.675 2.326e-16
7011.2 2.2691e-16
7012.725 2.223e-16
7014.25 2.2301e-16
7015.775 2.223e-16
7017.3 2.2317e-16
7018.825 2.2227e-16
7020.35 2.2474e-16
7021.875 2.2901e-16
7023.4 2.2258e-16
7024.925 2.1518e-16
7026.45 2.1777e-16
7027.975 2.2348e-16
7029.5 2.3198e-16
7031.025 2.3838e-16
7032.55 2.3151e-16
7034.075 2.2297e-16
7035.6 2.2285e-16
7037.125 2.2449e-16
7038.65 2.301e-16
7040.175 2.3274e-16
7041.7 2.2489e-16
7043.225 2.2533e-16
7044.75 2.3135e-16
7046.275 2.2048e-16
7047.8 2.1411e-16
7049.325 2.1994e-16
7050.85 2.1758e-16
7052.375 2.1862e-16
7053.9 2.1917e-16
7055.425 2.2332e-16
7056.95 2.305e-16
7058.475 2.2616e-16
7060.0 2.1827e-16
7061.525 2.0922e-16
7063.05 2.1356e-16
7064.575 2.198e-16
7066.1 2.2156e-16
7067.625 2.2403e-16
7069.15 2.2245e-16
7070.675 2.2674e-16
7072.2 2.2849e-16
7073.725 2.2357e-16
7075.25 2.1792e-16
7076.775 2.1767e-16
7078.3 2.2384e-16
7079.825 2.2304e-16
7081.35 2.172e-16
7082.875 2.1573e-16
7084.4 2.2e-16
7085.925 2.2274e-16
7087.45 2.2048e-16
7088.975 2.2118e-16
7090.5 2.1988e-16
7092.025 2.1099e-16
7093.55 2.1019e-16
7095.075 2.1752e-16
7096.6 2.1326e-16
7098.125 2.1316e-16
7099.65 2.1841e-16
7101.175 2.084e-16
7102.7 2.0773e-16
7104.225 2.1728e-16
7105.75 2.1471e-16
7107.275 2.136e-16
7108.8 2.1817e-16
7110.325 2.1831e-16
7111.85 2.1386e-16
7113.375 2.2027e-16
7114.9 2.1303e-16
7116.425 2.0636e-16
7117.95 2.0671e-16
7119.475 2.1414e-16
7121.0 2.163e-16
7122.525 2.0958e-16
7124.05 2.1044e-16
7125.575 2.1764e-16
7127.1 2.1597e-16
7128.625 2.1397e-16
7130.15 2.1794e-16
7131.675 2.1184e-16
7133.2 2.0917e-16
7134.725 2.0857e-16
7136.25 2.0609e-16
7137.775 2.0477e-16
7139.3 2.0529e-16
7140.825 2.0982e-16
7142.35 2.1157e-16
7143.875 2.1658e-16
7145.4 2.1768e-16
7146.925 2.0744e-16
7148.45 2.0163e-16
7149.975 2.0453e-16
7151.5 2.1418e-16
7153.025 2.1754e-16
7154.55 2.1353e-16
7156.075 2.1183e-16
7157.6 2.0982e-16
7159.125 2.0461e-16
7160.65 2.0797e-16
7162.175 2.0839e-16
7163.7 2.0332e-16
7165.225 2.0116e-16
7166.75 2.0659e-16
7168.275 2.0889e-16
7169.8 2.0739e-16
7171.325 2.135e-16
7172.85 2.1182e-16
7174.375 2.0979e-16
7175.9 2.1381e-16
7177.425 2.0595e-16
7178.95 2.0769e-16
7180.475 2.098e-16
7182.0 2.0348e-16
7183.525 2.0391e-16
7185.05 2.0914e-16
7186.575 2.0514e-16
7188.1 2.0182e-16
7189.625 2.0596e-16
7191.15 2.0627e-16
7192.675 2.0842e-16
7194.2 2.1121e-16
7195.725 2.0887e-16
7197.25 2.1001e-16
7198.775 2.121e-16
7200.3 2.109e-16
7201.825 2.1037e-16
7203.35 2.097e-16
7204.875 2.0932e-16
7206.4 2.112e-16
7207.925 2.1019e-16
7209.45 2.0941e-16
7210.975 2.0615e-16
7212.5 1.9604e-16
7214.025 1.9549e-16
7215.55 2.0288e-16
7217.075 2.0304e-16
7218.6 2.0293e-16
7220.125 2.049e-16
7221.65 2.0283e-16
7223.175 1.9526e-16
7224.7 1.8702e-16
7226.225 1.9249e-16
7227.75 1.9612e-16
7229.275 1.9066e-16
7230.8 1.9842e-16
7232.325 1.9944e-16
7233.85 1.876e-16
7235.375 1.9667e-16
7236.9 2.0125e-16
7238.425 1.8832e-16
7239.95 1.8744e-16
7241.475 2.0118e-16
7243.0 1.9874e-16
7244.525 1.8894e-16
7246.05 1.8897e-16
7247.575 1.8756e-16
7249.1 1.8384e-16
7250.625 1.8769e-16
7252.15 1.9398e-16
7253.675 1.9299e-16
7255.2 1.955e-16
7256.725 2.005e-16
7258.25 2.0268e-16
7259.775 2.0182e-16
7261.3 1.9565e-16
7262.825 1.9692e-16
7264.35 1.9782e-16
7265.875 1.9578e-16
7267.4 1.9128e-16
7268.925 1.9765e-16
7270.45 1.9524e-16
7271.975 1.964e-16
7273.5 2.0615e-16
7275.025 1.9261e-16
7276.55 1.9627e-16
7278.075 1.9625e-16
7279.6 1.9462e-16
7281.125 1.894e-16
7282.65 1.8505e-16
7284.175 1.7619e-16
7285.7 1.7897e-16
7287.225 1.8293e-16
7288.75 1.7989e-16
7290.275 1.8823e-16
7291.8 1.8691e-16
7293.325 1.8458e-16
7294.85 2.0029e-16
7296.375 1.9675e-16
7297.9 1.8734e-16
7299.425 1.8232e-16
7300.95 1.8388e-16
7302.475 1.8701e-16
7304.0 1.8839e-16
7305.525 1.9079e-16
7307.05 1.8219e-16
7308.575 1.8626e-16
7310.1 1.8158e-16
7311.625 1.823e-16
7313.15 1.9359e-16
7314.675 1.9795e-16
7316.2 2.0335e-16
7317.725 1.9295e-16
7319.25 1.8556e-16
7320.775 1.8594e-16
7322.3 1.8666e-16
7323.825 1.8496e-16
7325.35 1.8209e-16
7326.875 1.9613e-16
7328.4 1.9206e-16
7329.925 1.851e-16
7331.45 1.8857e-16
7332.975 1.8721e-16
7334.5 1.8177e-16
7336.025 1.8562e-16
7337.55 1.954e-16
7339.075 1.807e-16
7340.6 1.7622e-16
7342.125 1.7293e-16
7343.65 1.6861e-16
7345.175 1.734e-16
7346.7 1.7601e-16
7348.225 1.7799e-16
7349.75 1.7491e-16
7351.275 1.7341e-16
7352.8 1.7662e-16
7354.325 1.8415e-16
7355.85 1.8275e-16
7357.375 1.7815e-16
7358.9 1.8016e-16
7360.425 1.7791e-16
7361.95 1.7853e-16
7363.475 1.8507e-16
7365.0 1.9043e-16
7366.525 1.9161e-16
7368.05 1.9229e-16
7369.575 1.9509e-16
7371.1 1.9189e-16
7372.625 1.8698e-16
7374.15 1.8694e-16
7375.675 1.8621e-16
7377.2 1.8594e-16
7378.725 1.7931e-16
7380.25 1.7167e-16
7381.775 1.8193e-16
7383.3 1.8527e-16
7384.825 1.7287e-16
7386.35 1.7409e-16
7387.875 1.8123e-16
7389.4 1.7886e-16
7390.925 1.8041e-16
7392.45 1.8834e-16
7393.975 1.8295e-16
7395.5 1.7884e-16
7397.025 1.8672e-16
7398.55 1.9511e-16
7400.075 1.8775e-16
7401.6 1.8055e-16
7403.125 1.892e-16
7404.65 1.8096e-16
7406.175 1.6854e-16
7407.7 1.8042e-16
7409.225 1.7842e-16
7410.75 1.7788e-16
7412.275 1.8916e-16
7413.8 1.8843e-16
7415.325 1.7552e-16
7416.85 1.7614e-16
7418.375 1.8521e-16
7419.9 1.8397e-16
7421.425 1.8231e-16
7422.95 1.7607e-16
7424.475 1.8639e-16
7426.0 1.8833e-16
7427.525 1.8412e-16
7429.05 1.8097e-16
7430.575 1.8017e-16
7432.1 1.7781e-16
7433.625 1.7799e-16
7435.15 1.75e-16
7436.675 1.7339e-16
7438.2 1.7833e-16
7439.725 1.8464e-16
7441.25 1.8072e-16
7442.775 1.7461e-16
7444.3 1.7827e-16
7445.825 1.7689e-16
7447.35 1.8055e-16
7448.875 1.8307e-16
7450.4 1.8054e-16
7451.925 1.7429e-16
7453.45 1.7997e-16
7454.975 1.8389e-16
7456.5 1.8013e-16
7458.025 1.7635e-16
7459.55 1.7546e-16
7461.075 1.7718e-16
7462.6 1.8404e-16
7464.125 1.8117e-16
7465.65 1.8333e-16
7467.175 2.1371e-16
7468.7 2.2297e-16
7470.225 1.965e-16
7471.75 1.862e-16
7473.275 1.7919e-16
7474.8 1.7883e-16
7476.325 1.9211e-16
7477.85 1.8765e-16
7479.375 1.8304e-16
7480.9 1.7957e-16
7482.425 1.7637e-16
7483.95 1.769e-16
7485.475 1.789e-16
7487.0 1.8136e-16
7488.525 1.8122e-16
7490.05 1.8085e-16
7491.575 1.7475e-16
7493.1 1.7273e-16
7494.625 1.7318e-16
7496.15 1.7538e-16
7497.675 1.7893e-16
7499.2 1.7454e-16
7500.725 1.6922e-16
7502.25 1.7237e-16
7503.775 1.7989e-16
7505.3 1.7799e-16
7506.825 1.7214e-16
7508.35 1.6974e-16
7509.875 1.7024e-16
7511.4 1.7761e-16
7512.925 1.7251e-16
7514.45 1.649e-16
7515.975 1.7118e-16
7517.5 1.7104e-16
7519.025 1.7427e-16
7520.55 1.7826e-16
7522.075 1.6801e-16
7523.6 1.6187e-16
7525.125 1.6868e-16
7526.65 1.7363e-16
7528.175 1.7714e-16
7529.7 1.7514e-16
7531.225 1.7187e-16
7532.75 1.7389e-16
7534.275 1.691e-16
7535.8 1.6457e-16
7537.325 1.6514e-16
7538.85 1.6754e-16
7540.375 1.7696e-16
7541.9 1.7444e-16
7543.425 1.6703e-16
7544.95 1.7209e-16
7546.475 1.8135e-16
7548.0 1.7953e-16
7549.525 1.7247e-16
7551.05 1.763e-16
7552.575 1.8272e-16
7554.1 1.8146e-16
7555.625 1.7297e-16
7557.15 1.6601e-16
7558.675 1.6828e-16
7560.2 1.7374e-16
7561.725 1.7555e-16
7563.25 1.7245e-16
7564.775 1.7131e-16
7566.3 1.6443e-16
7567.825 1.6062e-16
7569.35 1.5758e-16
7570.875 1.6052e-16
7572.4 1.8008e-16
7573.925 1.7364e-16
7575.45 1.6072e-16
7576.975 1.6038e-16
7578.5 1.6383e-16
7580.025 1.7119e-16
7581.55 1.7506e-16
7583.075 1.8085e-16
7584.6 1.7041e-16
7586.125 1.6313e-16
7587.65 1.7242e-16
7589.175 1.7456e-16
7590.7 1.7314e-16
7592.225 1.6382e-16
7593.75 1.5609e-16
7595.275 1.5367e-16
7596.8 1.422e-16
7598.325 1.3278e-16
7599.85 1.2829e-16
7601.375 1.3875e-16
7602.9 1.3971e-16
7604.425 1.4658e-16
7605.95 1.5659e-16
7607.475 1.3303e-16
7609.0 1.3185e-16
7610.525 1.5137e-16
7612.05 1.6976e-16
7613.575 1.7302e-16
7615.1 1.669e-16
7616.625 1.6902e-16
7618.15 1.6197e-16
7619.675 1.5473e-16
7621.2 1.549e-16
7622.725 1.6109e-16
7624.25 1.5301e-16
7625.775 1.4358e-16
7627.3 1.468e-16
7628.825 1.5481e-16
7630.35 1.6081e-16
7631.875 1.6103e-16
7633.4 1.6087e-16
7634.925 1.568e-16
7636.45 1.6104e-16
7637.975 1.7214e-16
7639.5 1.6868e-16
7641.025 1.598e-16
7642.55 1.5825e-16
7644.075 1.6172e-16
7645.6 1.5577e-16
7647.125 1.5011e-16
7648.65 1.5961e-16
7650.175 1.6265e-16
7651.7 1.6235e-16
7653.225 1.6238e-16
7654.75 1.5986e-16
7656.275 1.6168e-16
7657.8 1.6361e-16
7659.325 1.6624e-16
7660.85 1.6523e-16
7662.375 1.6306e-16
7663.9 1.6082e-16
7665.425 1.5944e-16
7666.95 1.6053e-16
7668.475 1.7207e-16
7670.0 1.7137e-16
7671.525 1.6178e-16
7673.05 1.6449e-16
7674.575 1.6413e-16
7676.1 1.6717e-16
7677.625 1.6451e-16
7679.15 1.6393e-16
7680.675 1.742e-16
7682.2 1.7603e-16
7683.725 1.6838e-16
7685.25 1.6312e-16
7686.775 1.677e-16
7688.3 1.728e-16
7689.825 1.7716e-16
7691.35 1.689e-16
7692.875 1.6697e-16
7694.4 1.678e-16
7695.925 1.6716e-16
7697.45 1.6916e-16
7698.975 1.6962e-16
7700.5 1.6212e-16
7702.025 1.6619e-16
7703.55 1.806e-16
7705.075 1.8315e-16
7706.6 1.8297e-16
7708.125 1.9077e-16
7709.65 1.9184e-16
7711.175 1.7983e-16
7712.7 1.8031e-16
7714.225 1.7303e-16
7715.75 1.667e-16
7717.275 1.5793e-16
7718.8 1.5472e-16
7720.325 1.6644e-16
7721.85 1.6747e-16
7723.375 1.6801e-16
7724.9 1.7049e-16
7726.425 1.6787e-16
7727.95 1.6981e-16
7729.475 1.7642e-16
7731.0 1.7466e-16
7732.525 1.7125e-16
7734.05 1.7485e-16
7735.575 1.7914e-16
7737.1 1.7376e-16
7738.625 1.6991e-16
7740.15 1.7712e-16
7741.675 1.7719e-16
7743.2 1.7251e-16
7744.725 1.6973e-16
7746.25 1.7288e-16
7747.775 1.7102e-16
7749.3 1.5929e-16
7750.825 1.6581e-16
7752.35 1.7086e-16
7753.875 1.6306e-16
7755.4 1.6448e-16
7756.925 1.7321e-16
7758.45 1.7239e-16
7759.975 1.7052e-16
7761.5 1.6801e-16
7763.025 1.6251e-16
7764.55 1.6448e-16
7766.075 1.6441e-16
7767.6 1.6026e-16
7769.125 1.6548e-16
7770.65 1.6843e-16
7772.175 1.6582e-16
7773.7 1.6752e-16
7775.225 1.6903e-16
7776.75 1.7199e-16
7778.275 1.715e-16
7779.8 1.7131e-16
7781.325 1.7281e-16
7782.85 1.6427e-16
7784.375 1.55e-16
7785.9 1.5683e-16
7787.425 1.6062e-16
7788.95 1.6787e-16
7790.475 1.6798e-16
7792.0 1.5801e-16
7793.525 1.633e-16
7795.05 1.7013e-16
7796.575 1.608e-16
7798.1 1.5917e-16
7799.625 1.5327e-16
7801.15 1.5685e-16
7802.675 1.6182e-16
7804.2 1.6339e-16
7805.725 1.6492e-16
7807.25 1.6956e-16
7808.775 1.5771e-16
7810.3 1.5808e-16
7811.825 1.615e-16
7813.35 1.56e-16
7814.875 1.5207e-16
7816.4 1.5497e-16
7817.925 1.6601e-16
7819.45 1.6503e-16
7820.975 1.461e-16
7822.5 1.505e-16
7824.025 1.5729e-16
7825.55 1.6078e-16
7827.075 1.5953e-16
7828.6 1.6458e-16
7830.125 1.6664e-16
7831.65 1.5904e-16
7833.175 1.5301e-16
7834.7 1.5204e-16
7836.225 1.5455e-16
7837.75 1.5914e-16
7839.275 1.6103e-16
7840.8 1.5145e-16
7842.325 1.519e-16
7843.85 1.5468e-16
7845.375 1.557e-16
7846.9 1.5899e-16
7848.425 1.5864e-16
7849.95 1.6384e-16
7851.475 1.7095e-16
7853.0 1.6372e-16
7854.525 1.6111e-16
7856.05 1.5817e-16
7857.575 1.6659e-16
7859.1 1.6198e-16
7860.625 1.5032e-16
7862.15 1.5135e-16
7863.675 1.584e-16
7865.2 1.4882e-16
7866.725 1.4879e-16
7868.25 1.6004e-16
7869.775 1.567e-16
7871.3 1.4668e-16
7872.825 1.4356e-16
7874.35 1.4963e-16
7875.875 1.519e-16
7877.4 1.6375e-16
7878.925 1.6754e-16
7880.45 1.5561e-16
7881.975 1.5555e-16
7883.5 1.6186e-16
7885.025 1.6617e-16
7886.55 1.6632e-16
7888.075 1.6846e-16
7889.6 1.8087e-16
7891.125 1.6995e-16
7892.65 1.445e-16
7894.175 1.4902e-16
7895.7 1.5549e-16
7897.225 1.4735e-16
7898.75 1.4273e-16
7900.275 1.4427e-16
7901.8 1.4659e-16
7903.325 1.4504e-16
7904.85 1.4622e-16
7906.375 1.5702e-16
7907.9 1.6595e-16
7909.425 1.577e-16
7910.95 1.5611e-16
7912.475 1.5776e-16
7914.0 1.5928e-16
7915.525 1.5947e-16
7917.05 1.6142e-16
7918.575 1.6404e-16
7920.1 1.658e-16
7921.625 1.7014e-16
7923.15 1.6081e-16
7924.675 1.5069e-16
7926.2 1.5829e-16
7927.725 1.6086e-16
7929.25 1.5133e-16
7930.775 1.4906e-16
7932.3 1.5644e-16
7933.825 1.4764e-16
7935.35 1.4665e-16
7936.875 1.5085e-16
7938.4 1.5747e-16
7939.925 1.598e-16
7941.45 1.5643e-16
7942.975 1.5436e-16
7944.5 1.4912e-16
7946.025 1.4828e-16
7947.55 1.6393e-16
7949.075 1.6508e-16
7950.6 1.5617e-16
7952.125 1.4429e-16
7953.65 1.4303e-16
7955.175 1.5617e-16
7956.7 1.4603e-16
7958.225 1.5018e-16
7959.75 1.6069e-16
7961.275 1.628e-16
7962.8 1.5188e-16
7964.325 1.6105e-16
7965.85 1.7178e-16
7967.375 1.5686e-16
7968.9 1.4808e-16
7970.425 1.5006e-16
7971.95 1.4926e-16
7973.475 1.4308e-16
7975.0 1.4769e-16
7976.525 1.4918e-16
7978.05 1.5362e-16
7979.575 1.5441e-16
7981.1 1.3978e-16
7982.625 1.3184e-16
7984.15 1.3476e-16
7985.675 1.4137e-16
7987.2 1.434e-16
7988.725 1.4605e-16
7990.25 1.5768e-16
7991.775 1.6205e-16
7993.3 1.4626e-16
7994.825 1.3506e-16
7996.35 1.3353e-16
7997.875 1.3018e-16
7999.4 1.3319e-16
8000.925 1.383e-16
8002.45 1.3053e-16
8003.975 1.2626e-16
8005.5 1.3522e-16
8007.025 1.4326e-16
8008.55 1.4757e-16
8010.075 1.4192e-16
8011.6 1.4272e-16
8013.125 1.4849e-16
8014.65 1.4429e-16
8016.175 1.44e-16
8017.7 1.4384e-16
8019.225 1.4206e-16
8020.75 1.3372e-16
8022.275 1.3685e-16
8023.8 1.3978e-16
8025.325 1.3287e-16
8026.85 1.3655e-16
8028.375 1.4029e-16
8029.9 1.434e-16
8031.425 1.3662e-16
8032.95 1.2969e-16
8034.475 1.2904e-16
8036.0 1.3229e-16
8037.525 1.3231e-16
8039.05 1.2763e-16
8040.575 1.2975e-16
8042.1 1.3761e-16
8043.625 1.4548e-16
8045.15 1.4726e-16
8046.675 1.377e-16
8048.2 1.3478e-16
8049.725 1.3885e-16
8051.25 1.4071e-16
8052.775 1.3764e-16
8054.3 1.2629e-16
8055.825 1.3166e-16
8057.35 1.3447e-16
8058.875 1.2994e-16
8060.4 1.3069e-16
8061.925 1.3938e-16
8063.45 1.4234e-16
8064.975 1.3115e-16
8066.5 1.3473e-16
8068.025 1.4028e-16
8069.55 1.3569e-16
8071.075 1.3723e-16
8072.6 1.4151e-16
8074.125 1.3771e-16
8075.65 1.3859e-16
8077.175 1.3986e-16
8078.7 1.3976e-16
8080.225 1.3405e-16
8081.75 1.274e-16
8083.275 1.3558e-16
8084.8 1.3954e-16
8086.325 1.4116e-16
8087.85 1.4085e-16
8089.375 1.4031e-16
8090.9 1.3629e-16
8092.425 1.4223e-16
8093.95 1.472e-16
8095.475 1.4915e-16
8097.0 1.4724e-16
8098.525 1.3928e-16
8100.05 1.3541e-16
8101.575 1.3747e-16
8103.1 1.3335e-16
8104.625 1.2245e-16
8106.15 1.2755e-16
8107.675 1.399e-16
8109.2 1.3589e-16
8110.725 1.343e-16
8112.25 1.3682e-16
8113.775 1.3515e-16
8115.3 1.2954e-16
8116.825 1.2305e-16
8118.35 1.2577e-16
8119.875 1.3153e-16
8121.4 1.3651e-16
8122.925 1.3686e-16
8124.45 1.3475e-16
8125.975 1.4047e-16
8127.5 1.3831e-16
8129.025 1.2761e-16
8130.55 1.2716e-16
8132.075 1.309e-16
8133.6 1.2958e-16
8135.125 1.2837e-16
8136.65 1.3404e-16
8138.175 1.3335e-16
8139.7 1.2799e-16
8141.225 1.3485e-16
8142.75 1.3658e-16
8144.275 1.3529e-16
8145.8 1.3339e-16
8147.325 1.3524e-16
8148.85 1.3912e-16
8150.375 1.3525e-16
8151.9 1.3839e-16
8153.425 1.4197e-16
8154.95 1.3614e-16
8156.475 1.3765e-16
8158.0 1.409e-16
8159.525 1.4047e-16
8161.05 1.2988e-16
8162.575 1.3491e-16
8164.1 1.4655e-16
8165.625 1.4808e-16
8167.15 1.3465e-16
8168.675 1.3329e-16
8170.2 1.3979e-16
8171.725 1.3497e-16
8173.25 1.3783e-16
8174.775 1.3769e-16
8176.3 1.3593e-16
8177.825 1.3931e-16
8179.35 1.4109e-16
8180.875 1.3358e-16
8182.4 1.3724e-16
8183.925 1.4292e-16
8185.45 1.3941e-16
8186.975 1.3201e-16
8188.5 1.332e-16
8190.025 1.4522e-16
8191.55 1.4571e-16
8193.075 1.3693e-16
8194.6 1.3906e-16
8196.125 1.4307e-16
8197.65 1.4622e-16
8199.175 1.4545e-16
8200.7 1.3517e-16
8202.225 1.3376e-16
8203.75 1.3853e-16
8205.275 1.4836e-16
8206.8 1.4563e-16
8208.325 1.3678e-16
8209.85 1.3924e-16
8211.375 1.3855e-16
8212.9 1.3762e-16
8214.425 1.4059e-16
8215.95 1.4601e-16
8217.475 1.4128e-16
8219.0 1.3197e-16
8220.525 1.3438e-16
8222.05 1.4384e-16
8223.575 1.4443e-16
8225.1 1.4003e-16
8226.625 1.4797e-16
8228.15 1.5013e-16
8229.675 1.4053e-16
8231.2 1.4314e-16
8232.725 1.4761e-16
8234.25 1.4542e-16
8235.775 1.4066e-16
8237.3 1.3886e-16
8238.825 1.4532e-16
8240.35 1.4717e-16
8241.875 1.4496e-16
8243.4 1.512e-16
8244.925 1.5732e-16
8246.45 1.5277e-16
8247.975 1.4801e-16
8249.5 1.4151e-16
8251.025 1.3483e-16
8252.55 1.3415e-16
8254.075 1.432e-16
8255.6 1.4548e-16
8257.125 1.4378e-16
8258.65 1.4635e-16
8260.175 1.4179e-16
8261.7 1.4046e-16
8263.225 1.4725e-16
8264.75 1.4781e-16
8266.275 1.4259e-16
8267.8 1.3978e-16
8269.325 1.4287e-16
8270.85 1.4041e-16
8272.375 1.4296e-16
8273.9 1.4481e-16
8275.425 1.4557e-16
8276.95 1.5701e-16
8278.475 1.6377e-16
8280.0 1.5344e-16
8281.525 1.5244e-16
8283.05 1.4969e-16
8284.575 1.415e-16
8286.1 1.3112e-16
8287.625 1.4668e-16
8289.15 1.5037e-16
8290.675 1.4849e-16
8292.2 1.4231e-16
8293.725 1.4206e-16
8295.25 1.5267e-16
8296.775 1.505e-16
8298.3 1.443e-16
8299.825 1.5507e-16
8301.35 1.474e-16
8302.875 1.4282e-16
8304.4 1.421e-16
8305.925 1.455e-16
8307.45 1.4539e-16
8308.975 1.3817e-16
8310.5 1.3343e-16
8312.025 1.3446e-16
8313.55 1.3998e-16
8315.075 1.4492e-16
8316.6 1.3964e-16
8318.125 1.3676e-16
8319.65 1.3903e-16
8321.175 1.3448e-16
8322.7 1.3851e-16
8324.225 1.3961e-16
8325.75 1.3665e-16
8327.275 1.3558e-16
8328.8 1.3581e-16
8330.325 1.3215e-16
8331.85 1.3186e-16
8333.375 1.3652e-16
8334.9 1.3802e-16
8336.425 1.353e-16
8337.95 1.3415e-16
8339.475 1.4056e-16
8341.0 1.4738e-16
8342.525 1.5459e-16
8344.05 1.4423e-16
8345.575 1.2727e-16
8347.1 1.3007e-16
8348.625 1.3667e-16
8350.15 1.4687e-16
8351.675 1.4823e-16
8353.2 1.3577e-16
8354.725 1.3055e-16
8356.25 1.4073e-16
8357.775 1.3959e-16
8359.3 1.3842e-16
8360.825 1.4057e-16
8362.35 1.3387e-16
8363.875 1.411e-16
8365.4 1.4592e-16
8366.925 1.3907e-16
8368.45 1.3066e-16
8369.975 1.2949e-16
8371.5 1.3353e-16
8373.025 1.3319e-16
8374.55 1.3024e-16
8376.075 1.2898e-16
8377.6 1.3858e-16
8379.125 1.4749e-16
8380.65 1.4197e-16
8382.175 1.4085e-16
8383.7 1.3515e-16
8385.225 1.3331e-16
8386.75 1.3345e-16
8388.275 1.3951e-16
8389.8 1.4599e-16
8391.325 1.4402e-16
8392.85 1.3476e-16
8394.375 1.3291e-16
8395.9 1.4745e-16
8397.425 1.5962e-16
8398.95 1.4941e-16
8400.475 1.3911e-16
8402.0 1.2244e-16
8403.525 1.2103e-16
8405.05 1.3335e-16
8406.575 1.3493e-16
8408.1 1.3199e-16
8409.625 1.3251e-16
8411.15 1.31e-16
8412.675 1.394e-16
8414.2 1.3494e-16
8415.725 1.4451e-16
8417.25 1.4037e-16
8418.775 1.2313e-16
8420.3 1.2847e-16
8421.825 1.3772e-16
8423.35 1.3522e-16
8424.875 1.2583e-16
8426.4 1.3142e-16
8427.925 1.452e-16
8429.45 1.5733e-16
8430.975 1.6075e-16
8432.5 1.4289e-16
8434.025 1.2054e-16
8435.55 1.2076e-16
8437.075 1.312e-16
8438.6 1.3024e-16
8440.125 1.3406e-16
8441.65 1.3818e-16
8443.175 1.3235e-16
8444.7 1.3193e-16
8446.225 1.3348e-16
8447.75 1.3574e-16
8449.275 1.4091e-16
8450.8 1.3891e-16
8452.325 1.3271e-16
8453.85 1.3428e-16
8455.375 1.415e-16
8456.9 1.4204e-16
8458.425 1.3814e-16
8459.95 1.3232e-16
8461.475 1.3182e-16
8463.0 1.4604e-16
8464.525 1.4993e-16
8466.05 1.3639e-16
8467.575 1.1564e-16
8469.1 1.1663e-16
8470.625 1.2749e-16
8472.15 1.2291e-16
8473.675 1.2221e-16
8475.2 1.2365e-16
8476.725 1.256e-16
8478.25 1.2958e-16
8479.775 1.2698e-16
8481.3 1.3176e-16
8482.825 1.2959e-16
8484.35 1.2573e-16
8485.875 1.2557e-16
8487.4 1.2633e-16
8488.925 1.2509e-16
8490.45 1.3518e-16
8491.975 1.288e-16
8493.5 1.1779e-16
8495.025 1.3341e-16
8496.55 1.3209e-16
8498.075 1.2489e-16
8499.6 1.2737e-16
8501.125 1.2932e-16
8502.65 1.2796e-16
8504.175 1.374e-16
8505.7 1.3219e-16
8507.225 1.2102e-16
8508.75 1.1601e-16
8510.275 1.2439e-16
8511.8 1.2618e-16
8513.325 1.1609e-16
8514.85 1.1608e-16
8516.375 1.2579e-16
8517.9 1.2285e-16
8519.425 1.109e-16
8520.95 1.1231e-16
8522.475 1.1936e-16
8524.0 1.2445e-16
8525.525 1.1943e-16
8527.05 1.1898e-16
8528.575 1.226e-16
8530.1 1.2087e-16
8531.625 1.1665e-16
8533.15 1.1575e-16
8534.675 1.2061e-16
8536.2 1.2476e-16
8537.725 1.2606e-16
8539.25 1.2728e-16
8540.775 1.2574e-16
8542.3 1.2143e-16
8543.825 1.2232e-16
8545.35 1.2639e-16
8546.875 1.2368e-16
8548.4 1.2054e-16
8549.925 1.229e-16
8551.45 1.2039e-16
8552.975 1.134e-16
8554.5 1.1251e-16
8556.025 1.1708e-16
8557.55 1.1906e-16
8559.075 1.1687e-16
8560.6 1.1802e-16
8562.125 1.2381e-16
8563.65 1.2311e-16
8565.175 1.1552e-16
8566.7 1.1555e-16
8568.225 1.1935e-16
8569.75 1.1917e-16
8571.275 1.2114e-16
8572.8 1.2357e-16
8574.325 1.2208e-16
8575.85 1.2093e-16
8577.375 1.2309e-16
8578.9 1.1822e-16
8580.425 1.2035e-16
8581.95 1.2466e-16
8583.475 1.2395e-16
8585.0 1.1932e-16
8586.525 1.1923e-16
8588.05 1.1583e-16
8589.575 1.179e-16
8591.1 1.2227e-16
8592.625 1.238e-16
8594.15 1.2216e-16
8595.675 1.2221e-16
8597.2 1.3007e-16
8598.725 1.2516e-16
8600.25 1.1591e-16
8601.775 1.1857e-16
8603.3 1.2263e-16
8604.825 1.1926e-16
8606.35 1.1749e-16
8607.875 1.2189e-16
8609.4 1.244e-16
8610.925 1.2457e-16
8612.45 1.17e-16
8613.975 1.1537e-16
8615.5 1.159e-16
8617.025 1.0896e-16
8618.55 1.0397e-16
8620.075 1.1307e-16
8621.6 1.1452e-16
8623.125 1.137e-16
8624.65 1.2174e-16
8626.175 1.2254e-16
8627.7 1.1029e-16
8629.225 1.1339e-16
8630.75 1.0803e-16
8632.275 1.1192e-16
8633.8 1.137e-16
8635.325 1.0049e-16
8636.85 1.0559e-16
8638.375 1.1682e-16
8639.9 1.1001e-16
8641.425 1.0393e-16
8642.95 1.1489e-16
8644.475 1.2512e-16
8646.0 1.2943e-16
8647.525 1.2811e-16
8649.05 1.1828e-16
8650.575 1.0752e-16
8652.1 1.0715e-16
8653.625 1.0517e-16
8655.15 1.075e-16
8656.675 1.2277e-16
8658.2 1.1822e-16
8659.725 1.0466e-16
8661.25 1.1359e-16
8662.775 1.226e-16
8664.3 1.1579e-16
8665.825 1.146e-16
8667.35 1.2051e-16
8668.875 1.2227e-16
8670.4 1.1617e-16
8671.925 1.145e-16
8673.45 1.1589e-16
8674.975 1.1132e-16
8676.5 1.0845e-16
8678.025 1.1033e-16
8679.55 1.1363e-16
8681.075 1.2101e-16
8682.6 1.1797e-16
8684.125 1.1296e-16
8685.65 1.1755e-16
8687.175 1.1618e-16
8688.7 1.1145e-16
8690.225 1.0451e-16
8691.75 1.0988e-16
8693.275 1.0847e-16
8694.8 1.16e-16
8696.325 1.1644e-16
8697.85 1.1082e-16
8699.375 1.1291e-16
8700.9 1.1782e-16
8702.425 1.1914e-16
8703.95 1.1658e-16
8705.475 1.1808e-16
8707.0 1.1592e-16
8708.525 1.0985e-16
8710.05 1.0774e-16
8711.575 1.1413e-16
8713.1 1.1424e-16
8714.625 1.0676e-16
8716.15 1.1029e-16
8717.675 1.2232e-16
8719.2 1.2543e-16
8720.725 1.1641e-16
8722.25 1.1072e-16
8723.775 1.1943e-16
8725.3 1.1618e-16
8726.825 1.1137e-16
8728.35 1.167e-16
8729.875 1.1444e-16
8731.4 1.0937e-16
8732.925 1.1396e-16
8734.45 1.1506e-16
8735.975 1.116e-16
8737.5 1.0892e-16
8739.025 1.1006e-16
8740.55 1.0985e-16
8742.075 1.1211e-16
8743.6 1.1641e-16
8745.125 1.1434e-16
8746.65 1.1187e-16
8748.175 1.1793e-16
8749.7 1.1996e-16
8751.225 1.1313e-16
8752.75 1.1027e-16
8754.275 1.1861e-16
8755.8 1.1823e-16
8757.325 1.1877e-16
8758.85 1.2404e-16
8760.375 9.9024e-17
8761.9 8.4664e-17
8763.425 1.01e-16
8764.95 1.1125e-16
8766.475 1.1352e-16
8768.0 1.1155e-16
8769.525 1.0837e-16
8771.05 1.0598e-16
8772.575 1.0941e-16
8774.1 1.1871e-16
8775.625 1.3714e-16
8777.15 1.3253e-16
8778.675 1.17e-16
8780.2 1.103e-16
8781.725 1.0778e-16
8783.25 1.0189e-16
8784.775 1.0415e-16
8786.3 1.0852e-16
8787.825 1.1075e-16
8789.35 1.0426e-16
8790.875 9.9229e-17
8792.4 1.0346e-16
8793.925 1.0165e-16
8795.45 1.0319e-16
8796.975 1.0632e-16
8798.5 1.0927e-16
8800.025 1.1137e-16
8801.55 1.1101e-16
8803.075 1.0639e-16
8804.6 1.0297e-16
8806.125 1.0524e-16
8807.65 1.1294e-16
8809.175 1.0818e-16
8810.7 1.0653e-16
8812.225 1.0744e-16
8813.75 1.0818e-16
8815.275 1.1095e-16
8816.8 1.0948e-16
8818.325 1.0655e-16
8819.85 1.0282e-16
8821.375 1.048e-16
8822.9 1.0632e-16
8824.425 1.3516e-16
8825.95 1.3026e-16
8827.475 1.1204e-16
8829.0 1.0639e-16
8830.525 1.0397e-16
8832.05 1.1173e-16
8833.575 1.1819e-16
8835.1 1.0705e-16
8836.625 1.1288e-16
8838.15 1.1689e-16
8839.675 1.077e-16
8841.2 1.0475e-16
8842.725 1.0715e-16
8844.25 1.0758e-16
8845.775 1.1268e-16
8847.3 1.1495e-16
8848.825 1.1097e-16
8850.35 1.0828e-16
8851.875 1.0592e-16
8853.4 1.1015e-16
8854.925 1.067e-16
8856.45 1.025e-16
8857.975 1.0667e-16
8859.5 1.0899e-16
8861.025 1.1264e-16
8862.55 1.1478e-16
8864.075 1.1436e-16
8865.6 1.1533e-16
8867.125 1.1483e-16
8868.65 1.056e-16
8870.175 1.0175e-16
8871.7 1.0416e-16
8873.225 1.0932e-16
8874.75 1.1363e-16
8876.275 1.1355e-16
8877.8 1.1236e-16
8879.325 1.0476e-16
8880.85 1.0555e-16
8882.375 1.1666e-16
8883.9 1.0137e-16
8885.425 9.5667e-17
8886.95 9.4638e-17
8888.475 8.8339e-17
8890.0 1.0266e-16
8891.525 1.1332e-16
8893.05 1.141e-16
8894.575 1.1283e-16
8896.1 1.0962e-16
8897.625 1.1193e-16
8899.15 1.1738e-16
8900.675 1.1844e-16
8902.2 1.0997e-16
8903.725 1.0459e-16
8905.25 1.0602e-16
8906.775 1.0546e-16
8908.3 1.0243e-16
8909.825 1.0588e-16
8911.35 1.094e-16
8912.875 1.0232e-16
8914.4 9.4502e-17
8915.925 1.0157e-16
8917.45 9.8071e-17
8918.975 1.0414e-16
8920.5 1.1082e-16
8922.025 1.0487e-16
8923.55 1.0438e-16
8925.075 1.0737e-16
8926.6 1.1053e-16
8928.125 1.0698e-16
8929.65 1.0895e-16
8931.175 1.1286e-16
8932.7 1.1416e-16
8934.225 1.1534e-16
8935.75 1.1126e-16
8937.275 1.098e-16
8938.8 1.1083e-16
8940.325 1.103e-16
8941.85 1.1278e-16
8943.375 1.1667e-16
8944.9 1.1623e-16
8946.425 1.0952e-16
8947.95 1.0736e-16
8949.475 1.0833e-16
8951.0 1.0719e-16
8952.525 1.0575e-16
8954.05 1.1023e-16
8955.575 1.1133e-16
8957.1 1.2114e-16
8958.625 1.3102e-16
8960.15 1.1487e-16
8961.675 1.0401e-16
8963.2 1.1235e-16
8964.725 1.172e-16
8966.25 1.1625e-16
8967.775 1.1552e-16
8969.3 1.1266e-16
8970.825 1.1354e-16
8972.35 1.2041e-16
8973.875 1.1859e-16
8975.4 1.0979e-16
8976.925 1.0985e-16
8978.45 1.1147e-16
8979.975 1.1085e-16
8981.5 1.114e-16
8983.025 1.111e-16
8984.55 1.0893e-16
8986.075 1.111e-16
8987.6 1.1615e-16
8989.125 1.1293e-16
8990.65 1.0885e-16
8992.175 1.1189e-16
8993.7 1.2127e-16
8995.225 1.1946e-16
8996.75 1.1554e-16
8998.275 1.2106e-16
8999.8 1.2893e-16
9001.325 1.324e-16
9002.85 1.349e-16
9004.375 1.2113e-16
9005.9 1.1948e-16
9007.425 1.2336e-16
9008.95 1.227e-16
9010.475 1.1709e-16
9012.0 1.2049e-16
9013.525 1.2917e-16
9015.05 1.2688e-16
9016.575 1.1689e-16
9018.1 1.2147e-16
9019.625 1.2778e-16
9021.15 1.1958e-16
9022.675 1.1232e-16
9024.2 1.1941e-16
9025.725 1.248e-16
9027.25 1.2539e-16
9028.775 1.2286e-16
9030.3 1.193e-16
9031.825 1.138e-16
9033.35 1.1103e-16
9034.875 1.1674e-16
9036.4 1.1932e-16
9037.925 1.2291e-16
9039.45 1.2091e-16
9040.975 1.2106e-16
9042.5 1.2414e-16
9044.025 1.2327e-16
9045.55 1.179e-16
9047.075 1.1708e-16
9048.6 1.2162e-16
9050.125 1.1986e-16
9051.65 1.1239e-16
9053.175 1.135e-16
9054.7 1.2045e-16
9056.225 1.2381e-16
9057.75 1.1705e-16
9059.275 1.0988e-16
9060.8 1.1709e-16
9062.325 1.2592e-16
9063.85 1.2671e-16
9065.375 1.2257e-16
9066.9 1.1866e-16
9068.425 1.1922e-16
9069.95 1.2295e-16
9071.475 1.2836e-16
9073.0 1.2567e-16
9074.525 1.1944e-16
9076.05 1.1948e-16
9077.575 1.1791e-16
9079.1 1.2076e-16
9080.625 1.2727e-16
9082.15 1.2944e-16
9083.675 1.3085e-16
9085.2 1.3079e-16
9086.725 1.2707e-16
9088.25 1.2967e-16
9089.775 1.2196e-16
9091.3 1.1959e-16
9092.825 1.3184e-16
9094.35 1.3046e-16
9095.875 1.1968e-16
9097.4 1.194e-16
9098.925 1.3897e-16
9100.45 1.4154e-16
9101.975 1.335e-16
9103.5 1.3179e-16
9105.025 1.269e-16
9106.55 1.2319e-16
9108.075 1.1836e-16
9109.6 1.2166e-16
9111.125 1.1377e-16
9112.65 1.1201e-16
9114.175 1.2328e-16
9115.7 1.2343e-16
9117.225 1.2467e-16
9118.75 1.2023e-16
9120.275 1.2225e-16
9121.8 1.2091e-16
9123.325 1.1672e-16
9124.85 1.1494e-16
9126.375 1.1602e-16
9127.9 1.1851e-16
9129.425 1.2742e-16
9130.95 1.3273e-16
9132.475 1.2785e-16
9134.0 1.2668e-16
9135.525 1.2292e-16
9137.05 1.2446e-16
9138.575 1.2782e-16
9140.1 1.2247e-16
9141.625 1.1722e-16
9143.15 1.255e-16
9144.675 1.3241e-16
9146.2 1.2943e-16
9147.725 1.2747e-16
9149.25 1.276e-16
9150.775 1.225e-16
9152.3 1.2057e-16
9153.825 1.2347e-16
9155.35 1.2369e-16
9156.875 1.2589e-16
9158.4 1.2892e-16
9159.925 1.2766e-16
9161.45 1.288e-16
9162.975 1.3112e-16
9164.5 1.2623e-16
9166.025 1.2508e-16
9167.55 1.2672e-16
9169.075 1.2673e-16
9170.6 1.3187e-16
9172.125 1.3014e-16
9173.65 1.2553e-16
9175.175 1.3092e-16
9176.7 1.3137e-16
9178.225 1.2699e-16
9179.75 1.3289e-16
9181.275 1.2876e-16
9182.8 1.3167e-16
9184.325 1.4192e-16
9185.85 1.3671e-16
9187.375 1.2868e-16
9188.9 1.2259e-16
9190.425 1.192e-16
9191.95 1.2449e-16
9193.475 1.2861e-16
9195.0 1.3446e-16
9196.525 1.3326e-16
9198.05 1.2969e-16
9199.575 1.2661e-16
9201.1 1.2463e-16
9202.625 1.2534e-16
9204.15 1.2577e-16
9205.675 1.3879e-16
9207.2 1.4148e-16
9208.725 1.3434e-16
9210.25 1.2733e-16
9211.775 1.2676e-16
9213.3 1.2781e-16
9214.825 1.2772e-16
9216.35 1.2583e-16
9217.875 1.2752e-16
9219.4 1.2283e-16
9220.925 1.189e-16
9222.45 1.1986e-16
9223.975 1.2634e-16
9225.5 1.2859e-16
9227.025 1.3492e-16
9228.55 1.2651e-16
9230.075 1.2377e-16
9231.6 1.3595e-16
9233.125 1.3259e-16
9234.65 1.2797e-16
9236.175 1.2896e-16
9237.7 1.3584e-16
9239.225 1.3991e-16
9240.75 1.2919e-16
9242.275 1.2287e-16
9243.8 1.2881e-16
9245.325 1.3011e-16
9246.85 1.2549e-16
9248.375 1.2548e-16
9249.9 1.2437e-16
9251.425 1.2759e-16
9252.95 1.3198e-16
9254.475 1.3216e-16
9256.0 1.349e-16
9257.525 1.2897e-16
9259.05 1.2273e-16
9260.575 1.2175e-16
9262.1 1.1709e-16
9263.625 1.1974e-16
9265.15 1.2459e-16
9266.675 1.2745e-16
9268.2 1.2694e-16
9269.725 1.2537e-16
9271.25 1.2734e-16
9272.775 1.2888e-16
9274.3 1.3581e-16
9275.825 1.3148e-16
9277.35 1.2407e-16
9278.875 1.2901e-16
9280.4 1.3033e-16
9281.925 1.259e-16
9283.45 1.2979e-16
9284.975 1.3392e-16
9286.5 1.3671e-16
9288.025 1.3189e-16
9289.55 1.2727e-16
9291.075 1.2384e-16
9292.6 1.1915e-16
9294.125 1.1875e-16
9295.65 1.195e-16
9297.175 1.2468e-16
9298.7 1.2608e-16
9300.225 1.2556e-16
9301.75 1.3357e-16
9303.275 1.3341e-16
9304.8 1.3261e-16
9306.325 1.3685e-16
9307.85 1.3571e-16
9309.375 1.5366e-16
9310.9 1.4315e-16
9312.425 1.3218e-16
9313.95 1.371e-16
9315.475 1.2307e-16
9317.0 1.0181e-16
9318.525 1.2327e-16
9320.05 1.3589e-16
9321.575 1.5352e-16
9323.1 1.3544e-16
9324.625 1.2568e-16
9326.15 1.291e-16
9327.675 1.2393e-16
9329.2 1.2843e-16
9330.725 1.2781e-16
9332.25 1.3912e-16
9333.775 1.4499e-16
9335.3 1.3327e-16
9336.825 1.391e-16
9338.35 1.487e-16
9339.875 1.4584e-16
9341.4 1.3998e-16
9342.925 1.429e-16
9344.45 1.4248e-16
9345.975 1.3039e-16
9347.5 1.2373e-16
9349.025 1.2356e-16
9350.55 1.3017e-16
9352.075 1.2771e-16
9353.6 1.133e-16
9355.125 1.2445e-16
9356.65 1.4107e-16
9358.175 1.3135e-16
9359.7 1.1786e-16
9361.225 1.309e-16
9362.75 1.3575e-16
9364.275 1.2733e-16
9365.8 1.3728e-16
9367.325 1.3851e-16
9368.85 1.1907e-16
9370.375 9.702e-17
9371.9 1.0504e-16
9373.425 1.4989e-16
9374.95 1.9178e-16
9376.475 1.8154e-16
9378.0 1.2687e-16
9379.525 1.0302e-16
9381.05 1.0564e-16
9382.575 1.1074e-16
9384.1 1.1612e-16
9385.625 1.1566e-16
9387.15 1.078e-16
9388.675 1.1135e-16
9390.2 1.0964e-16
9391.725 1.1645e-16
9393.25 1.2003e-16
9394.775 1.2005e-16
9396.3 1.1256e-16
9397.825 1.1954e-16
9399.35 1.2925e-16
9400.875 1.1584e-16
9402.4 1.1411e-16
9403.925 1.232e-16
9405.45 1.2305e-16
9406.975 1.1134e-16
9408.5 1.0517e-16
9410.025 1.1505e-16
9411.55 1.2809e-16
9413.075 1.2584e-16
9414.6 1.1573e-16
9416.125 1.1715e-16
9417.65 1.1869e-16
9419.175 1.2522e-16
9420.7 1.2558e-16
9422.225 1.1109e-16
9423.75 1.133e-16
9425.275 1.2144e-16
9426.8 1.2847e-16
9428.325 1.2004e-16
9429.85 1.1245e-16
9431.375 1.1548e-16
9432.9 1.0284e-16
9434.425 1.0917e-16
9435.95 1.1952e-16
9437.475 1.1897e-16
9439.0 1.0917e-16
9440.525 1.1704e-16
9442.05 1.0543e-16
9443.575 9.4479e-17
9445.1 1.1267e-16
9446.625 1.188e-16
9448.15 1.1457e-16
9449.675 1.1019e-16
9451.2 9.9336e-17
9452.725 9.9382e-17
9454.25 1.0105e-16
9455.775 1.201e-16
9457.3 1.4168e-16
9458.825 1.2759e-16
9460.35 1.1796e-16
9461.875 1.216e-16
9463.4 1.2039e-16
9464.925 1.2163e-16
9466.45 1.204e-16
9467.975 1.1612e-16
9469.5 1.0991e-16
9471.025 1.0385e-16
9472.55 1.2332e-16
9474.075 1.5242e-16
9475.6 1.3732e-16
9477.125 1.1283e-16
9478.65 1.1982e-16
9480.175 1.1795e-16
9481.7 1.113e-16
9483.225 1.0908e-16
9484.75 1.0575e-16
9486.275 1.1241e-16
9487.8 1.1613e-16
9489.325 1.1734e-16
9490.85 1.1623e-16
9492.375 1.1509e-16
9493.9 1.19e-16
9495.425 1.0982e-16
9496.95 1.132e-16
9498.475 1.3871e-16
9500.0 1.3732e-16
9501.525 1.1227e-16
9503.05 1.0451e-16
9504.575 1.1114e-16
9506.1 1.073e-16
9507.625 1.0692e-16
9509.15 1.1305e-16
9510.675 1.2435e-16
9512.2 1.1797e-16
9513.725 1.1363e-16
9515.25 1.1535e-16
9516.775 1.1086e-16
9518.3 1.4307e-16
9519.825 1.47e-16
9521.35 1.2184e-16
9522.875 1.1529e-16
9524.4 1.1446e-16
9525.925 1.1415e-16
9527.45 1.1791e-16
9528.975 1.1303e-16
9530.5 1.1551e-16
9532.025 1.2135e-16
9533.55 1.1433e-16
9535.075 1.0981e-16
9536.6 1.1486e-16
9538.125 1.1555e-16
9539.65 1.1602e-16
9541.175 1.0967e-16
9542.7 1.1428e-16
9544.225 1.0826e-16
9545.75 9.9658e-17
9547.275 1.1855e-16
9548.8 1.2674e-16
9550.325 1.207e-16
9551.85 1.0442e-16
9553.375 9.1186e-17
9554.9 9.8225e-17
9556.425 1.0199e-16
9557.95 1.0127e-16
9559.475 1.0423e-16
9561.0 1.0687e-16
9562.525 1.0663e-16
9564.05 9.7907e-17
9565.575 1.0079e-16
9567.1 1.1741e-16
9568.625 1.1348e-16
9570.15 1.0152e-16
9571.675 1.0205e-16
9573.2 1.0569e-16
9574.725 1.0765e-16
9576.25 1.0853e-16
9577.775 1.0683e-16
9579.3 1.0624e-16
9580.825 1.0662e-16
9582.35 1.0216e-16
9583.875 9.8348e-17
9585.4 1.0042e-16
9586.925 1.0984e-16
9588.45 1.1103e-16
9589.975 1.0817e-16
9591.5 1.1123e-16
9593.025 1.1513e-16
9594.55 1.1393e-16
9596.075 1.0603e-16
9597.6 1.1367e-16
9599.125 1.1694e-16
9600.65 1.1286e-16
9602.175 1.1511e-16
9603.7 1.2031e-16
9605.225 1.2593e-16
9606.75 1.1741e-16
9608.275 1.1267e-16
9609.8 1.112e-16
9611.325 1.1114e-16
9612.85 1.1361e-16
9614.375 1.1113e-16
9615.9 1.1484e-16
9617.425 1.2647e-16
9618.95 1.2971e-16
9620.475 1.1403e-16
9622.0 1.0611e-16
9623.525 1.0138e-16
9625.05 1.0493e-16
9626.575 1.1195e-16
9628.1 1.0898e-16
9629.625 1.0729e-16
9631.15 1.1058e-16
9632.675 1.0609e-16
9634.2 1.0049e-16
9635.725 9.3705e-17
9637.25 9.982e-17
9638.775 1.0618e-16
9640.3 9.8479e-17
9641.825 1.0379e-16
9643.35 1.1532e-16
9644.875 1.1058e-16
9646.4 1.0463e-16
9647.925 1.0119e-16
9649.45 1.0477e-16
9650.975 1.1802e-16
9652.5 1.3386e-16
9654.025 1.276e-16
9655.55 1.1648e-16
9657.075 1.095e-16
9658.6 9.9472e-17
9660.125 9.6811e-17
9661.65 9.3298e-17
9663.175 9.7719e-17
9664.7 1.1623e-16
9666.225 1.1961e-16
9667.75 1.0472e-16
9669.275 9.5328e-17
9670.8 1.0267e-16
9672.325 1.0774e-16
9673.85 1.0385e-16
9675.375 1.0195e-16
9676.9 1.0711e-16
9678.425 1.1399e-16
9679.95 1.0095e-16
9681.475 8.8266e-17
9683.0 9.4487e-17
9684.525 9.4387e-17
9686.05 1.0015e-16
9687.575 1.0922e-16
9689.1 1.0351e-16
9690.625 9.9991e-17
9692.15 9.4941e-17
9693.675 8.96e-17
9695.2 9.8556e-17
9696.725 1.0955e-16
9698.25 1.153e-16
9699.775 1.1305e-16
9701.3 1.0114e-16
9702.825 9.1707e-17
9704.35 9.9439e-17
9705.875 1.0241e-16
9707.4 9.5356e-17
9708.925 9.4502e-17
9710.45 1.1062e-16
9711.975 1.0796e-16
9713.5 9.7445e-17
9715.025 9.0051e-17
9716.55 1.2332e-16
9718.075 1.3541e-16
9719.6 1.1768e-16
9721.125 1.0597e-16
9722.65 9.5678e-17
9724.175 1.0393e-16
9725.7 9.2772e-17
9727.225 9.8486e-17
9728.75 1.1041e-16
9730.275 9.7961e-17
9731.8 9.3632e-17
9733.325 9.0074e-17
9734.85 8.1833e-17
9736.375 1.0181e-16
9737.9 9.9693e-17
9739.425 9.3416e-17
9740.95 9.385e-17
9742.475 1.0659e-16
9744.0 1.1557e-16
9745.525 1.1467e-16
9747.05 1.1652e-16
9748.575 1.1081e-16
9750.1 1.0417e-16
9751.625 9.7543e-17
9753.15 1.0115e-16
9754.675 1.0451e-16
9756.2 1.0993e-16
9757.725 1.0018e-16
9759.25 9.2223e-17
9760.775 9.7868e-17
9762.3 9.7123e-17
9763.825 1.0181e-16
9765.35 1.0395e-16
9766.875 1.0111e-16
9768.4 1.0231e-16
9769.925 1.0359e-16
9771.45 9.9592e-17
9772.975 9.3793e-17
9774.5 9.4352e-17
9776.025 9.6659e-17
9777.55 9.4813e-17
9779.075 9.1627e-17
9780.6 9.1949e-17
9782.125 9.4713e-17
9783.65 9.3332e-17
9785.175 1.0146e-16
9786.7 1.2397e-16
9788.225 1.1972e-16
9789.75 1.0049e-16
9791.275 1.1001e-16
9792.8 1.0089e-16
9794.325 7.5946e-17
9795.85 9.4009e-17
9797.375 1.1162e-16
9798.9 1.0265e-16
9800.425 9.8883e-17
9801.95 9.6493e-17
9803.475 1.0045e-16
9805.0 1.0657e-16
9806.525 9.9636e-17
9808.05 1.0081e-16
9809.575 9.8831e-17
9811.1 8.7647e-17
9812.625 9.1858e-17
9814.15 9.8543e-17
9815.675 8.6857e-17
9817.2 8.6981e-17
9818.725 9.5626e-17
9820.25 1.0676e-16
9821.775 1.0231e-16
9823.3 8.9415e-17
9824.825 8.9879e-17
9826.35 9.9532e-17
9827.875 9.9278e-17
9829.4 9.191e-17
9830.925 9.1497e-17
9832.45 9.9407e-17
9833.975 1.0863e-16
9835.5 1.0893e-16
9837.025 1.0795e-16
9838.55 1.1581e-16
9840.075 1.2169e-16
9841.6 1.0464e-16
9843.125 9.5496e-17
9844.65 9.6249e-17
9846.175 1.0741e-16
9847.7 1.1798e-16
9849.225 1.0896e-16
9850.75 9.6819e-17
9852.275 9.3723e-17
9853.8 1.0476e-16
9855.325 1.0401e-16
9856.85 9.6324e-17
9858.375 9.6773e-17
9859.9 9.7154e-17
9861.425 1.0569e-16
9862.95 9.8696e-17
9864.475 9.4771e-17
9866.0 1.0275e-16
9867.525 9.9949e-17
9869.05 1.152e-16
9870.575 1.285e-16
9872.1 1.1546e-16
9873.625 1.3262e-16
9875.15 1.1316e-16
9876.675 8.0885e-17
9878.2 1.014e-16
9879.725 1.218e-16
9881.25 1.0329e-16
9882.775 8.4599e-17
9884.3 9.2925e-17
9885.825 1.0672e-16
9887.35 1.1449e-16
9888.875 1.1188e-16
9890.4 1.0361e-16
9891.925 1.2605e-16
9893.45 1.3387e-16
9894.975 1.1233e-16
9896.5 1.127e-16
9898.025 9.8435e-17
9899.55 1.0275e-16
9901.075 1.0659e-16
9902.6 1.043e-16
9904.125 1.1361e-16
9905.65 1.16e-16
9907.175 1.0734e-16
9908.7 1.0633e-16
9910.225 1.173e-16
9911.75 1.1847e-16
9913.275 1.2315e-16
9914.8 1.0854e-16
9916.325 9.0924e-17
9917.85 8.5187e-17
9919.375 9.313e-17
9920.9 9.4649e-17
9922.425 1.0481e-16
9923.95 1.1284e-16
9925.475 1.1432e-16
9927.0 1.1713e-16
9928.525 1.1715e-16
9930.05 1.1997e-16
9931.575 1.1351e-16
9933.1 1.0591e-16
9934.625 1.0805e-16
9936.15 1.0254e-16
9937.675 1.0618e-16
9939.2 1.2021e-16
9940.725 1.3716e-16
9942.25 1.1536e-16
9943.775 1.176e-16
9945.3 1.2705e-16
9946.825 9.3044e-17
9948.35 8.1855e-17
9949.875 6.4708e-17
9951.4 8.9177e-17
9952.925 1.1592e-16
9954.45 8.9224e-17
9955.975 9.8157e-17
9957.5 1.4592e-16
9959.025 1.4438e-16
9960.55 1.0034e-16
9962.075 1.0558e-16
9963.6 1.2202e-16
9965.125 9.0923e-17
9966.65 9.0376e-17
9968.175 9.7592e-17
9969.7 1.0092e-16
9971.225 9.6804e-17
9972.75 7.4691e-17
9974.275 9.3585e-17
9975.8 1.0934e-16
9977.325 1.0182e-16
9978.85 9.5627e-17
9980.375 9.313e-17
9981.9 9.4706e-17
9983.425 9.0576e-17
9984.95 8.0217e-17
9986.475 7.8598e-17
9988.0 8.5489e-17
9989.525 9.4006e-17
9991.05 9.6387e-17
9992.575 9.308e-17
9994.1 9.3968e-17
9995.625 1.0036e-16
9997.15 9.6765e-17
9998.675 9.2604e-17
10000.2 1.0314e-16
