 texplosion  fnickel    Pspin  log(Bfield)      Mns  thetaPB   mejecta    kappa  kappagamma     vejecta  temperature    alpha  cutoff_wavelength  log(nhhost)      A_V         MJD0  kenergy  mnickel             TSD   log(L0)  Peak_mag     Peak_MJD  log(E_rad)  log(Peak_lum)  Rise_Time     E_fold  tau_1  delta_m15     r_peak     frac 
  -18.48529  0.01088  5.05228     13.69228  1.43706  1.36629   8.33887  0.16698     0.01199  5136.43954   3945.97617  0.60797         2379.89017     19.31567  0.01149  59093.85455  1.31238  0.09075  14050624.97537  43.87165  19.21298  59184.38449    50.64128        43.6364   67.38134   74.86816   64.0    0.09383  -20.22098  0.98245 
  -14.95358  0.00611  5.42749     14.04217  1.59204  1.20451  13.16406  0.11577      0.2325  4400.01563   5103.31406  0.38396         4467.86898     18.78974  0.00342  59097.38626  1.52029  0.08038   3586093.82488  44.44698  19.23446    59182.938    50.70395         43.644   59.89452   79.85937   73.0    0.07945  -20.15513  0.98561 
  -13.17686  0.00411  5.24025     14.04798  1.56096  0.85405  31.95121  0.03897     0.01036    4654.636   3893.57476  4.62389         2058.51593     20.38074   0.1335  59099.16298  4.12939   0.1313   3191182.01085  44.51958  19.23143    59184.125    50.69946       43.64558   61.55762   80.69187   74.5    0.08338  -20.26532  0.97738 
  -17.69325  0.00111  5.29634     13.81013  1.60451  1.46023   7.17647  0.19529     0.01016  4651.84325   4717.59071  0.25907         3412.41864     16.32831    1e-05   59094.6466  0.92638  0.00794  10019531.82867  44.02539  19.23278    59184.125    50.66241       43.67315   60.70032   74.06236   61.5    0.09302  -20.23158  0.99858 
  -15.97839   0.0049  5.93787     14.38779  1.90532  0.60501  21.14352  0.07798     0.16912  4580.72619   3184.03634    0.087         2676.88798     18.65804  0.00253  59096.36145  2.64651   0.1035   1045838.79541  44.98209  19.21671    59182.938    50.65495       43.68543   63.07762   69.18946   70.0     0.0829  -20.14522  0.98316 
  -14.92601  0.00297  6.57608     14.07688  1.89129  0.67668   7.93903  0.14673     0.01014  4530.59673   4359.93215  4.42886         3146.01484     18.63166  0.00238  59097.41383  0.97209  0.02358   5330189.03799  44.18293  19.22231    59184.125    50.69738       43.65684   57.39892   77.36376   67.0    0.09047  -20.17364  0.99478 
    -19.574  0.00284  5.97251      14.0417  1.77059  0.68706   8.40941  0.14324     0.01017  4452.91679      5187.27  0.51888         3421.40235     18.53824  0.00192  59092.76584  0.99468  0.02386   4840080.93289   44.2798  19.21228    59182.938    50.82015       43.92671   53.01767   58.96977   70.0    0.08216  -20.16879  0.99526 
  -13.04131  0.00262  5.57378     14.18265   1.8639   1.3289  15.58631   0.1012     0.01128  4521.38645   3712.24197  0.02511         3890.23824     18.12244  0.00074  59099.29854   1.9007   0.0409    2318638.3952  44.68173  19.23152    59182.938    50.70116       43.64216   59.10433   80.76409   62.0     0.0896  -20.13831  0.99393 
  -13.70577  0.00113  5.66609     14.22313   1.7557  0.82924  11.69786  0.14907     0.22065  4560.33574   3948.66678  3.76037         2206.55467     17.58366  0.00021  59098.63407   1.4512  0.01323   1873134.70568  44.73416  19.24061    59182.938    50.70377       43.64474   58.98602   79.17188   71.0     0.0767  -20.12275  0.99775 
  -15.95682  0.00213  4.31551     14.01357    1.113  0.52973  12.29928   0.1198     0.18291  4907.41205   4826.21213  0.22006         2880.59783     17.77369  0.00033  59096.38302   1.7669  0.02626   1808196.67552  44.78803  19.22839    59182.938    50.69924        43.6621   55.80293   77.36376   73.0    0.08671  -20.16441  0.99481 
  -15.32676  0.00211  6.20562     14.17518  1.87202  0.84335  10.33248  0.15278     0.01003  4361.70406   4005.39771  1.67615         3067.89458     16.90711    4e-05  59097.01308  1.17258  0.02178   2987634.20648  44.48026  19.28613  59182.17188    50.68408       43.64605   57.39892   79.85937   65.0    0.07985  -20.16048  0.99591 
  -14.52736  0.07704  5.54373     13.95548  1.63692  1.33789   5.91104  0.20269     0.02229  4734.17406     3148.646  0.10631         2539.03838      20.3327  0.11952  59097.81248  0.79028   0.4554   5734511.42465  44.23677  19.21856    59182.938    50.70985       43.64782    58.9135    82.5509   66.0    0.08699   -20.2784  0.92251 
  -12.06726   0.0044  6.36946     14.27184  2.09728  1.21784  12.01194  0.15083     0.12479  4848.82231   5072.24382  1.85751         2083.13338     17.45181  0.00016  59100.27259  1.68466  0.05286   2259404.72517   44.6283   19.2553    59184.125     50.7915       43.76575   54.73434   74.51995   67.5    0.08675  -20.13196  0.99141 
  -16.33448  0.00806  5.41965     14.45037  1.74324  0.32202   8.78583  0.14648     0.01028  4247.88528   5614.66593  0.64564         3066.62587     20.42831  0.14895  59096.00536   0.9457  0.07083    597561.72257  45.26588  19.22732    59182.125    50.63691       43.64994   60.70032   74.06236   67.0    0.08359  -20.27814  0.98876 
  -15.76632  0.01019    5.485     13.98043  1.59285  1.50534    11.442  0.15694     0.01609  4957.24836   3343.55429  1.32269         2345.84436     18.14814  0.00078  59096.57352   1.6773  0.11661   4869590.45883  44.30517     19.25    59182.938    50.62148       43.61732   64.88573   76.57867   65.5    0.08181  -20.17439  0.97873 
  -14.62391  0.03854  6.42976     13.93235  1.79125  1.55705    6.0842  0.17964     0.01272  4300.44268   4379.36097   2.2044         2783.81684     17.80331  0.00035  59097.71594  0.67121  0.23451   9390080.33565  43.93294  19.20826    59184.125    50.64389       43.66712   60.58201   71.68506   66.5     0.0869  -20.13091  0.95033 
   -13.3349  0.01104  6.23311     14.20344  1.95561   1.1713  15.11137   0.0999     0.12622  4625.74481   3950.73409  0.21646          3047.4463      18.7673  0.00325  59099.00494  1.92883  0.16687   2764519.68573   44.5291  19.24732    59184.125    50.74599       43.70302   57.39892   77.36376   68.0    0.08784  -20.14807  0.97159 
   -7.38174  0.27515  6.50366     14.77942  1.77883  0.68237   15.2491  0.13371     0.01044  5918.39712   4815.48641   2.9787         3152.35738     20.44376  0.15434  59104.95811  3.18625  4.19573     192937.5631  45.60725   19.2728    59182.938    50.70218       43.68692   53.01767   74.25819   69.0    0.06615  -20.33286  0.52697 
   -15.0241   0.0048   6.6167     14.12398  1.98214   1.1159    8.3639  0.16881     0.04309  4883.54528   3077.21398  0.64679         2360.38889     18.57061  0.00207  59097.31575  1.18989  0.04013   4552704.17724  44.26643  19.22015    59182.938    50.72198       43.65811    58.9135   80.84039   72.0    0.08631  -20.18463  0.99214 
  -15.77662  0.00578  6.08816     14.08322  1.75449  0.68444   8.66272  0.14154     0.01217  4969.46833   4947.59821  2.47836         2199.77409     18.27265  0.00104  59096.56322  1.27615  0.05006   4116206.32834  44.32953  19.24895    59182.938        50.7       43.63966   58.98602   79.17188   65.0    0.08911  -20.20132  0.98972 
  -13.92274  0.02246  6.32395     14.31947  2.03491  0.81905  19.35862  0.08282     0.29339  4834.82619   4475.10842  0.04981         3788.23207     20.05933  0.06369   59098.4171  2.69938  0.43484   1735414.13329  44.73601     19.18  59186.21484    50.63531       43.63666   67.38134   74.08306   69.5    0.08565  -20.22774  0.93116 
  -15.35075  0.00435  6.86929     14.02518  2.07961  1.53934   8.26204  0.17305     0.01146  4632.94491   5187.69822  1.99323         2944.80468     17.50272  0.00018  59096.98909  1.05786  0.03594    8114555.3048  44.00374  19.23523    59182.938    50.71096         43.665   57.39892   82.35497   67.0    0.08309   -20.1919  0.99278 
  -15.15222  0.01263  5.63288     14.13684  1.73909  1.11948  20.79158  0.08028     0.18919  4597.68853   3609.46161  0.19368         2150.21537     16.13865    1e-05  59097.18763  2.62176  0.26269   2728531.06082  44.57178  19.26514    59182.938    50.73449       43.69996   54.90331   76.89734   71.0    0.08115   -20.1419  0.95713 
  -15.92041  0.00385  5.63294     14.05353  1.73324   1.1916  10.25861  0.18315      0.0115  4764.80436   4540.31324  0.15496         5178.47576     16.54851    2e-05  59096.41944  1.38933  0.03945   3991080.24862  44.40514  19.16448  59185.84762    50.64536       43.65703   67.38134   72.37255   62.5    0.08421  -20.20021  0.99321 
  -14.95374  0.09285  6.27946     13.90768  1.76434  1.26013   6.86136  0.16349     0.01124  4659.67579   5578.26948  0.04273         4033.82529     18.85209  0.00395   59097.3861  0.88869   0.6371   9883035.83922  43.92469  19.23839  59185.34242     50.6743       43.67136   62.39013   77.36376   66.5    0.09434  -20.18547  0.87716 
  -15.51045    0.006  5.70335     14.10101  1.66819   1.0141  17.71068  0.10239     0.10392  5040.57049   3271.30452  0.07256         3257.37298     17.79932  0.00035   59096.8294  2.68424  0.10618   3164410.11692  44.47854  19.28477    59182.125    50.72728       43.72122   51.28044   73.49982   70.0    0.08223  -20.15551  0.98047 
   -16.2427  0.01056  5.99037     14.06508   1.8878  1.53139   9.62289   0.1489     0.01094  4462.22144   3556.00426  0.12003         2625.98957     17.88091  0.00042  59096.09714  1.14297  0.10157   4661333.83658  44.32138  19.25488    59182.125    50.69853       43.69657   53.10749   71.63857   63.0    0.08271  -20.18681  0.98277 
  -11.70724  0.00454  6.50473     14.29164  1.70116  0.54659  12.47633   0.1187     0.04801  4513.34292   4802.62309  3.30736         3781.19932     16.67192    3e-05  59100.63261  1.51604  0.05666   1744781.80065  44.63139  19.24809  59185.34242    50.62034       43.62496   63.13838   76.61551   74.5    0.08206  -20.16784  0.98655 
  -13.60077   0.0236  5.31045     14.04264  1.64655  1.32781  14.13831  0.10443     0.42294  4769.67013   5223.91578   0.3989          2197.6069     20.25585  0.10013  59098.73907  1.91867  0.33361   3543001.70842  44.48579   19.2452  59182.32437    50.71975       43.71494    58.9135   78.34478   72.0    0.08482  -20.24775  0.94784 
   -16.7086    0.001  5.67796     13.89715  1.63919  1.09557   6.79834  0.14531     0.01086  4304.92252   4699.09122  0.31253         3174.89179     19.48854  0.01711  59095.63125  0.75155  0.00681   7880013.22021  44.07856  19.25979    59182.125    50.60985       43.60764   61.55762   78.19627   65.0    0.08971  -20.15238  0.99865 
  -14.48132  0.02397  5.64899     14.18191   1.6309  0.50197   6.96644  0.14054     0.01026  4451.02486   5372.64596  0.43042         2213.48759     19.74791  0.03109  59097.85852   0.8233  0.16698   2091002.61319  44.65698  19.26401    59182.125    50.69484       43.65411    55.6373    76.9284   65.0    0.09918  -20.18387  0.96817 
  -16.85618  0.00844   5.8166     13.96296   1.7313  1.54134  11.24511  0.14778     0.01141  4824.54247   5058.87294  0.04429         4009.77154     18.74153  0.00306  59095.48366  1.56136  0.09485   6450597.93681  44.16828  19.24845  59182.17188     50.7107        43.6851   54.90331   75.08591   65.5    0.08018  -20.19648  0.98251 
  -16.04418  0.00708  5.14361     14.13491  1.74741  0.85843  11.05984  0.12071     0.01011  4217.93224   4869.47601  0.34898         3330.46076     20.48786  0.17084  59096.29567  1.17375  0.07833   2306353.08616  44.72578  19.22886  59184.38449    50.61122       43.63978   59.96163   71.86913   66.0    0.08002  -20.29022  0.98901 
  -12.28151  0.00191  5.83597     14.05366  1.69841  1.52894  17.79294  0.09339     0.21033  4390.34224   5183.23659  1.78066         3634.74484     19.39455  0.01378  59100.05834  2.04584  0.03395   4195384.43411  44.34389   19.1946  59185.34242    50.66519       43.66331   64.88573   74.86816   74.5    0.07581  -20.16591  0.99356 
  -15.50041  0.00252  5.59483     14.19366  1.66873  0.76299  19.52783  0.07629     0.31954  4543.07933    4345.6053  0.11525          3896.5364     17.05454    6e-05  59096.83943  2.40426  0.04922   1988202.63072   44.6972  19.17413  59185.34242    50.65248       43.65868   62.39013   74.86816   70.5    0.08578  -20.13846  0.99122 
  -16.03211  0.00367  4.66792     14.23843  1.74876  0.65354   7.32889  0.18677     0.41847  4384.91421   5835.41741  0.44297         2081.07698      20.6724  0.26129  59096.30773   0.8406  0.02689   1180159.78891  45.10139  19.25924    59182.125    50.73398       43.69058    55.6373   75.21299   76.0    0.08266  -20.38089  0.99689 
  -10.59412  0.16903   6.6048       14.431  1.85289  1.03956  13.52749  0.12786     0.11923  5475.37587   4503.43945  0.88241         2365.36526     18.82002  0.00367  59101.74572   2.4192   2.2865   1031318.43435  44.88358   19.2271  59184.38449    50.64704       43.66395   64.05323   71.86913   73.0    0.08457  -20.21056  0.67571 
  -15.64607  0.00417  6.41596     14.16023  1.94707   1.2689  21.10066  0.08144     0.26643  4483.39695   3613.95616  1.50149         3210.30088     18.52908  0.00188  59096.69377   2.5301  0.08792   3558428.49949  44.39245  19.21903  59180.02837    50.70305       43.64639    58.9135   78.34478   73.0    0.07785  -20.13166  0.98374 
  -15.84578  0.01177  5.85254     13.99682  1.63805  0.71304   8.48834  0.13406     0.01014  4489.26656   3159.81474  2.74292         2841.50114     17.09488    7e-05  59096.49406  1.02047  0.09995   5286684.08809   44.2253  19.24381  59184.38449    50.72626       43.68345   57.39892   79.85937   68.0    0.08613  -20.16743  0.97897 
    -10.958  0.01128  5.98224     14.08493  1.70853  1.30204  18.83377  0.09478     0.01458  4903.61505   4240.71106  3.28372          2890.7793        18.28  0.00106  59101.38184  2.70145  0.21248   3839695.37474  44.36344  19.22721    59184.125    50.66951       43.72367   57.39892   67.38134   69.5    0.08194  -20.16687   0.9595 
   -7.56973  0.22844  6.02216     14.64541  1.87456  0.98918   14.3869  0.15703     0.07549    6937.127   3551.72111   2.6883         2410.26556     19.34792  0.01238  59104.77011  4.13004  3.28649    323147.08817  45.47284  19.25221    59182.938    50.70137       43.62137   60.70143   84.94328   74.0    0.07617  -20.28374   0.6422 
  -15.22748  0.00586  5.33594     14.03532  1.57961  1.16326  15.70792  0.10266     0.11669  4722.81809    3025.9596  0.12056          4102.2288     17.84643  0.00039  59097.11236  2.09001  0.09202   3549376.15343  44.46282  19.24085    59182.938    50.67673       43.68719   63.07762   74.18067   70.0    0.08317  -20.16958  0.98391 
  -16.60992  0.00623  5.83891     14.18614  1.85613  0.72331  13.63692  0.13069     0.01189  5108.62359   4049.97024  0.99218         2747.67574     20.39611  0.13831  59095.72992  2.12301  0.08497   2493435.59169  44.60799  19.23507    59184.125    50.65692       43.69117   61.40911   68.36236   65.0    0.07746  -20.31383  0.98581 
  -14.63605  0.00298  6.14436     14.19768  1.77019  0.74005  19.64426  0.06057     0.02363  4435.03958   5039.94786  2.34931         2075.42791      17.1538    8e-05  59097.70379  2.30493  0.05864   2497030.41601  44.54249   19.2052    59184.125    50.64194       43.64935   64.88573   72.37255   77.0    0.08522  -20.12186  0.98837 
  -14.68708  0.02824   6.7682     14.33811  1.86037  0.59351  17.14856  0.09243     0.20139   4769.2081   4978.73241  1.11611         3559.16345     17.35833  0.00013  59097.65277  2.32674   0.4843   1667757.97558  44.65536  19.21316  59184.38449    50.63927       43.64495   64.14011   73.11817   78.5    0.08154  -20.16465  0.90123 
  -13.81734  0.02992   6.3412     14.51802  1.84255  0.32151  11.61648  0.13746     0.01085  5075.69321   4966.89603  1.27102         2926.83924     17.45732  0.00016   59098.5225  1.78522  0.34762    633205.81292  45.12838   19.2126  59185.34242     50.6409       43.66766   64.05323   69.29266   63.0    0.08818  -20.24519  0.93406 
  -16.37418  0.00656  5.79835     14.15572  1.77552  0.97578  26.06317  0.05152      0.0387  4267.94709    4679.0601  0.06515         3501.37178     18.61554  0.00229  59095.96567    2.832  0.17085   2705841.94955  44.55926  19.23491    59184.125    50.67562       43.64973   58.29853   77.36376   72.0    0.08137  -20.12449  0.97078 
  -15.59181  0.00767  6.27297     13.90014  1.82186  1.19459   7.76037   0.1574     0.01231   4771.9666   5785.81098  2.58003         2821.17117      17.6317  0.00024  59096.74803  1.05415  0.05955  10543814.81985  43.91142  19.24759    59182.938    50.73608       43.68124   57.39892   77.36376   72.0    0.08465  -20.19254  0.98757 
  -13.68108  0.00942  6.26293     14.03755  1.84351  1.15137  13.20847  0.12781     0.01004  5145.78431   4630.70411  3.31199         2633.74248     17.48326  0.00017  59098.65877  2.08633  0.12441   5648282.61562  44.18902  19.22317  59184.38449    50.68295       43.68651   64.05323   75.70066   63.0    0.08382  -20.24101  0.97588 
  -13.50183  0.00362  5.99966     14.22121  1.76664  0.78633  10.00335  0.16008      0.1273  4658.33695   5401.92734  4.64736         2273.12383     18.25542    0.001  59098.83801  1.29489  0.03621   2132032.74551  44.63095  19.24284  59187.37588     50.6355       43.64753   64.88573   72.37255   76.0    0.08126  -20.12588  0.99315 
  -16.16873  0.01904  4.88349     14.15678  1.38414  0.43136   8.72849  0.14276     0.01278  4752.46663   4921.72452  0.13606         3010.21825     20.15671   0.0797  59096.17111  1.17599  0.16617   1488994.66643  44.85967  19.26293    59182.938    50.70741       43.64948    58.9135   78.34478   64.0    0.08924  -20.25668  0.96993 
  -14.15942  0.01717  6.23499     14.04366  1.80499  1.44227   8.78967  0.16696     0.04652  4865.00203   4779.65999  2.19424         2015.47868     17.28722  0.00011  59098.18043  1.24098  0.15094   5328895.56341  44.20901  19.23537  59184.38449    50.69881       43.66624   57.39892   79.85937   73.0    0.08431  -20.16713  0.97056 
  -13.46072  0.00185  5.02929     14.03341   1.5761  1.50631   8.70982  0.14606     0.03248  3597.61547   4151.08272  0.42704         5570.23107     18.20953   0.0009  59098.87912  0.67246  0.01612   3173907.72039  44.56182  19.24762    59184.125    50.71469       43.65302    58.9135   80.84039   73.5    0.08013  -20.14255  0.99747 
  -12.69683  0.01888  6.40592     14.19812  1.93913  1.07041   9.08079  0.17473     0.13081  4995.55749   4871.30419   1.6803         2001.98162     19.02807  0.00593  59099.64301  1.35182  0.17146   2967176.53591  44.47095  19.26973    59182.125    50.70417       43.65985   57.39892   77.36376   68.0    0.08986  -20.17435  0.96872 
   -13.0982  0.01091  4.98869     14.19143   1.5061  0.81577  34.46733  0.04094      0.0447  4227.81818   7342.08161  0.14955         5042.07138     18.31329  0.00114  59099.24164  3.67509  0.37617   1441399.01872  44.89194  19.22173  59185.34242    50.64824       43.64435   64.79303   77.45647   68.5     0.0854  -20.11007  0.94162 
  -13.44732  0.01893  6.82138     14.34238   2.1725  0.92915  11.96036  0.12275     0.36595  4653.76771   3318.93004  0.08356         3240.88084     18.66373  0.00256  59098.89253  1.54519  0.22637   1939773.04782  44.65031  19.21255    59184.125    50.67138       43.68684   61.40911   73.65219   69.0    0.09079  -20.13853  0.96102 
  -13.47836  0.00592  5.43029     14.07329  1.66965  1.48486  24.82147  0.07337     0.01742   4737.2496   5225.75969  1.72309         2250.84758      17.5388  0.00019  59098.86149  3.32282  0.14693   3262233.71895  44.50831  19.23398  59182.32437    50.72806       43.67863   57.31751   78.34478   72.5    0.08078  -20.14376  0.97587 
  -12.35636  0.07829  4.98411     14.33811  1.96897  1.14258  15.41182  0.08216     0.07385  4004.67068    3962.6727  0.08097         4713.49073     20.29048  0.10845  59099.98348   1.4744  1.20663    957211.75356   45.1869  19.22784  59184.38449    50.63423       43.62208   64.03629    78.2132   72.5    0.08161  -20.20026  0.88385 
  -15.28225  0.01251  5.86154      14.0026  1.65762  1.21803  12.74044  0.12475     0.03332  5026.05259   3433.20446   4.3588         2234.07732     19.33845  0.01211   59097.0576  1.91984  0.15943   5225552.01995  44.23417  19.24991    59182.938    50.66143       43.63074   59.89452   81.56988   72.5    0.08326  -20.19324  0.96877 
  -16.54337  0.11647  6.36302      14.1454  1.72413  1.18375   9.71438  0.16221     0.01631  4892.78422   4056.94466  1.38335         2047.77347     17.33789  0.00012  59095.79647  1.38725  1.13147   3318255.24966  44.37718   19.2071  59180.02837    50.81096        43.7851   54.90331   72.37255   65.5    0.08352  -20.16864  0.79975 
  -13.60217  0.00293  4.67343     13.90238  1.34145  1.22612  13.06835  0.12552     0.01164  4896.61841   4331.53831  2.04844         2062.68717     18.54943  0.00197  59098.73767  1.86913  0.03833   4264734.05868  44.42726   19.2328    59182.938    50.76509         43.712   57.39892   77.36376   61.5    0.08673  -20.20395  0.99336 
  -13.99304  0.02288  5.41444     13.97466  1.34354  0.84205  19.39507  0.06946     0.06015  4983.44302   3547.15791  0.98513         2918.47894     16.13031    1e-05   59098.3468  2.87328   0.4437   4110030.84673  44.31614  19.23743    59182.125    50.71144       43.60464    62.4403   88.19563   75.0    0.08413  -20.15462  0.90456 
    -8.0263  0.30278  6.50039     14.80341  1.77019  0.58281  15.63923  0.14274     0.01114  6490.15253   4332.00344  3.92179         2643.94718     20.56213   0.2027  59104.31354  3.92964   4.7353    171745.90614   45.6561  19.27014  59182.17188    50.66284        43.6211   58.98602   79.17188   64.5    0.06901  -20.42846  0.49474 
  -15.44758  0.02578  4.92907      13.9075  1.40696  1.33861  10.90782  0.16626     0.01246   4875.6477     4828.415   0.5169         2675.80723     18.30943  0.00113  59096.89227  1.54678   0.2812   4859987.37722  44.34496   19.2266    59182.125    50.71438       43.66011   57.39892   79.85937   62.0    0.07974  -20.19902  0.95151 
  -14.44744  0.00636  5.73169     14.14798  1.83696  1.31124  14.03801  0.11336     0.09402   4438.1073   5205.19789  0.96636         2299.77749     18.02934  0.00059  59097.89241  1.64941  0.08931   2834730.76554  44.56387  19.22595    59182.125    50.67537       43.63641   58.29853   77.36376   72.0    0.07946  -20.12896  0.98571 
  -14.97154  0.00389   6.3164     14.11754  1.92466  1.24658  21.92404  0.07103     0.34176  4850.68478   4697.17967  0.14223         2274.99133     18.33886  0.00121   59097.3683  3.07719  0.08523   4149747.37966  44.33424  19.26038  59180.02837    50.72598       43.66569   56.33033   78.43235   71.0    0.08385   -20.1787  0.98436 
  -12.41406  0.00948  5.96615     14.06295  1.67978  1.15237  21.98216  0.06048     0.06079   4833.7745   4154.66183  0.62768          2507.4611     18.67843  0.00265  59099.92578  3.06387  0.20847   4154958.38397  44.32414  19.25428    59184.125    50.70374       43.64123   59.89452   81.56988   70.5     0.0931  -20.16115  0.95923 
  -15.55668  0.00256  5.36197     13.80084  1.50824  1.34706   9.25985  0.14147     0.01033  4846.65553   4767.07749  2.75442         2357.66567     18.00614  0.00056  59096.78316  1.29752  0.02371   10075173.6587  43.98541  19.32267  59186.21484    50.76339       43.65428   51.28044   110.9339   64.0    0.08753  -20.20359  0.99526 
  -11.42073  0.04827  4.73001     14.57196  1.21773  0.19843   7.62728  0.21854     0.16877  4913.50207   5476.99171  2.97748         3027.19865     19.67569  0.02633  59100.91911  1.09845  0.36817    181622.74512   45.7455  19.22973  59180.02837    50.67347       43.62013   58.29853   79.85937   74.5    0.08254  -20.18576  0.92947 
  -16.55023  0.00116  6.30258       14.082  1.88582  0.93026  11.48315  0.11785     0.01173  4923.21115   5153.59432    0.025         2295.68825     19.73462  0.03015  59095.78962  1.66029  0.01335   4768225.35364  44.26695  19.25183    59184.125    50.72728       43.68266   56.33033   77.09642   67.5    0.08606  -20.21113   0.9974 
  -13.69935  0.00199  5.17757      14.0203  1.55863  1.45702  24.33878  0.06917     0.15575  4627.77073   5272.76721  0.19571         4431.47926     18.59788   0.0022   59098.6405  3.10935   0.0484   3533497.16927  44.48513  19.24626  59180.02837    50.67078       43.60677   56.34482   96.62436   71.5    0.08588  -20.15411  0.99184 
  -14.34456  0.00121  5.70136     14.04423  1.68904  1.22954    8.4901  0.19269     0.35943  4896.37667   3670.88383  2.80814         2106.97512     16.23146    1e-05  59097.99529   1.2142  0.01029   4158648.41754  44.36558  19.24786  59184.38449     50.6833       43.67808   57.39892   77.36376   70.0    0.08092   -20.1774  0.99811 
  -14.55714  0.00964  5.80164     14.02339  1.68705  1.20853  10.45643  0.12669     0.01115   4623.3112   3970.84244  0.14213         5039.90625     17.79655  0.00035   59097.7827  1.33327  0.10078   4734422.30163  44.29361  19.23733    59184.125    50.68251       43.65531   57.31751   78.34478   63.0     0.0908  -20.19252  0.98099 
  -14.63359   0.0044  5.94306     14.19304  1.67277  0.67104  11.78998  0.13362     0.07318  5238.53178   3325.49114  3.02926         2284.59097     17.28422  0.00011  59097.70625  1.93001  0.05192    2255286.1774  44.59106   19.2747    59184.125    50.69189       43.62978   59.10433   81.54918   70.0    0.08895  -20.19302  0.98948 
  -16.09426   0.0385  7.11319     14.05486  2.09291  1.48275   10.3219  0.12773     0.01041  4846.02551   3534.19664  0.83025         2106.74873     18.53775  0.00192  59096.24558  1.44597  0.39741   7637892.35079  44.00249  19.21892  59184.38449    50.64262       43.65365   62.29742   72.46526   63.5    0.08997  -20.19101  0.92155 
  -13.25217   0.0073  6.33638     14.24871  1.84081  0.75817  16.61111  0.09236     0.10465  4744.05441   3286.02505  3.87502         2167.24937     17.89495  0.00044  59099.08768   2.2301  0.12121   2183160.66594  44.59109  19.22127  59180.02837    50.68947       43.63405   60.58201   81.66748   71.5    0.08049  -20.12791  0.97628 
   -16.8688  0.00488  6.59625      14.0432  1.98215  1.51885   12.7325  0.11838      0.0113  4889.90565   4766.44129  0.06282         4245.75362     16.02397    1e-05  59095.47104  1.81611  0.06217   6563744.56819  44.11023  19.23371    59184.125    50.74803       43.69871   57.39892   79.85937   65.0    0.08318  -20.19044  0.98786 
  -13.46571  0.00927  5.95598     14.06418   1.7253  1.30692  13.08097  0.12127     0.19563  4891.27456   5103.62809   3.8599          2116.7923     16.90168    4e-05  59098.87413  1.86686  0.12132   4228934.81262  44.32957  19.21183  59185.34242    50.62186       43.62513   67.38134   72.37255   72.0    0.08483  -20.15506  0.97693 
  -14.96354  0.03337  5.96923     13.99039  1.74512  1.37468  12.62073   0.1583     0.01068  5379.36419   3918.17094  0.68036         3178.81547     19.46706  0.01628   59097.3763  2.17858  0.42112   6035360.19579  44.17813  19.25622  59184.38449    50.71628       43.66281   57.39892   79.85937   62.0    0.08636   -20.2638  0.92414 
  -16.31675  0.00797  5.34894     13.95198  1.52361  1.46866  27.81257  0.05357     0.02512  4714.66675   5238.22145  0.01865         2687.02862     16.38375    1e-05   59096.0231  3.68782  0.22153   5049785.59304  44.29191  19.20924  59185.84762    50.62955       43.64088   63.13838   74.11991   76.0    0.08152  -20.16545  0.95966 
  -15.35117  0.01685  5.15203     14.51068   1.5791  0.33694  19.09563  0.07332      0.1091  4222.48874   5423.29463  0.15357          3798.8007     19.74779  0.03108  59096.98867  2.03095  0.32181    370535.55888  45.47447  19.21862  59185.84762    50.64444       43.66693   63.13838   70.28838   74.0    0.08348  -20.14498  0.94967 
  -17.00896  0.02593   5.3785     13.80105  1.57333  1.57029   8.40094  0.18097     0.01046  4928.25012   4075.13978  0.26882          3607.4147     18.33112  0.00119  59095.33089  1.21714  0.21782  10564742.56859  43.98048  19.26083    59182.938     50.6942       43.62914   60.58201   81.66748   63.0    0.09564  -20.24817  0.96022 
  -18.69408  0.01841  5.10976     13.84899  1.41156   0.9594   9.19619   0.1183     0.01065  4251.85883   3471.77716   0.1977         3424.49302     18.93873  0.00482  59093.64576  0.99173  0.16928   6860101.80799  44.16541   19.2029  59184.38449    50.66595       43.69442    58.9135   70.85797   69.0    0.08003   -20.1554  0.96713 
  -14.30945  0.00528  4.13568     14.13576  1.50216  1.05885  32.56307  0.05156     0.18387  4150.78677   5405.09372  0.20436         4130.55162     20.06786  0.06495  59098.03039  3.34667  0.17191   1276776.63042  45.10635  19.22801  59180.02837    50.62543       43.54755   64.88573   87.34618   69.0    0.07889  -20.15167  0.98097 
  -10.84869  0.00122  5.65386     14.51634   1.9206  0.50632  15.34811   0.0478     0.03878  2136.45689    9973.4473  1.11349         5814.52845     18.25231  0.00099  59101.49115   0.4179  0.01871    528768.28104  45.32433  19.24334    59182.938    50.76426       43.72407   54.73434   77.09642   70.0    0.07173  -20.11788  0.99726 
  -14.97662  0.00171  5.31566     14.13397   1.5995  0.80562  13.36832  0.14786     0.01016  4812.85579   5338.41849  2.74726         2372.90694     17.91481  0.00046  59097.36323  1.84718  0.02281    2264555.2569  44.66673   19.2488    59182.938    50.64884       43.67929   61.40911   70.85797   66.0    0.07735   -20.1627  0.99605 
  -14.49516  0.00458  4.91973     13.92311  1.49414  1.40166  20.54616  0.07086     0.01136  4601.91673   3568.26329  1.61912         2736.10926     20.40083  0.13982  59097.84468  2.59559  0.09406   4784779.02871  44.37949  19.22968    59182.938    50.65795       43.70801    58.9135   65.86676   71.0    0.07893  -20.28005  0.98472 
  -14.00096  0.00367  6.30365     14.05608  1.76693  1.33566   12.2359  0.10432     0.01057  4030.04962   5112.90161  0.97945         4361.70112     19.56471  0.02039  59098.33888  1.18545  0.04493   5035628.08783  44.21483  19.21915  59187.37588     50.6494       43.64728   65.63398   76.61551   69.5    0.08129  -20.13851  0.99058 
  -15.43937   0.0039  5.65807     14.55388  1.75701  0.36902  19.12448  0.06777     0.39121  3628.99348   4318.09377  0.50222         5046.30282     17.50386  0.00018  59096.90048  1.50241  0.07459    407545.25508  45.39811  19.25162    59184.125    50.74061       43.77375    55.6373   71.63857   73.5    0.07635  -20.09847  0.98754 
  -14.76864   0.0025  5.05208     14.14057  1.65431  1.08825  28.64593  0.04727     0.08158  3629.13932    3224.5066  0.49404         4994.33216     19.68715  0.02703  59097.57121  2.25059  0.07163   2052291.86753  44.76828  19.23663  59182.32437    50.67828       43.60303    62.4403   83.20442   71.5    0.07912  -20.13605  0.98959 
  -11.97576  0.01945  5.65254     14.12072  1.77481  1.47792  12.09107  0.16934     0.01095  5092.91005   4631.01207  0.57261         2850.80503     17.29077  0.00011  59100.36409  1.87078   0.2352   3020070.46595  44.53349  19.25508    59182.938    50.71579         43.662   57.39892   77.36376   58.5      0.083  -20.18188  0.96239 
  -17.82553   0.0715  6.31563     13.90829  1.78247  1.29635   9.67795  0.12771     0.01042  4825.49496   3893.13441  0.22929         2222.05013     18.71846  0.00291  59094.51431  1.34429  0.69199  10071185.87887  43.91595  19.20876    59182.938    50.63548       43.64755   62.39013   72.37255   65.0    0.08491  -20.21713  0.86839 
  -15.30772  0.00131  5.98922     14.10586  1.85848  1.33158  16.26159  0.10061     0.36863  4703.61267   4248.79193   0.1674         4342.73511     18.49693  0.00174  59097.03212  2.14612  0.02131   3801857.66136  44.40327  19.24805    59182.938    50.86589       43.84899   52.40771   72.37255   70.0    0.08475  -20.18112  0.99627 
  -14.42493  0.00112  5.85771     14.78287  2.16688   0.3311  25.89317  0.06061     0.28569  3949.41114   3147.39175  0.22383         4878.07234     18.81235  0.00361  59097.91491  2.40922  0.02898    187659.55611  45.79585  19.22266    59182.938    50.69002       43.65766   59.89452   82.35497   68.5    0.07981  -20.10004  0.99621 
  -14.38491  0.00498  5.06699       14.121  1.59889  0.91364  30.81238  0.05304     0.16409  4705.90499   3942.34004  0.79722         2003.42748     20.09848   0.0697  59097.95493  4.07042  0.15355   2183417.91969  44.72403   19.2467    59182.938    50.70509         43.673   55.80293   76.02784   69.5     0.0815  -20.21609  0.97655 
  -12.92214  0.00846  6.16126     14.15867  1.79126  0.92035  12.60692  0.12274     0.13386  4930.35347    5133.6702  1.94447         2453.07003      17.6812  0.00027   59099.4177  1.82807  0.10662   3040757.41017  44.45968  19.23696  59182.32437    50.70205       43.64569    58.9135   78.34478   74.0    0.08758  -20.17246  0.97937 
  -14.05129  0.00382  6.17987     14.48424  1.92764  0.46698  15.15613  0.11993     0.30309  5016.65067   5060.38401  0.26566         3254.02073     18.89462  0.00436  59098.28856  2.27532   0.0579    735044.18665   45.1056   19.2521  59182.32437    50.73985       43.72805   57.31751   75.84918   70.0    0.08713  -20.17952  0.98988 
  -14.19011  0.00127  6.54935     14.12446  2.01323  1.47161  18.33758  0.08864     0.04461  4865.95767   4790.18027  2.66716         2154.01577     16.33067    1e-05  59098.14973  2.59004  0.02322   4520453.58575  44.28516  19.16701  59185.34242    50.65012        43.6745   65.63398   69.42732   71.0    0.08222  -20.17468  0.99566 
  -16.10304  0.04761  6.56489     13.96747  1.96347   0.9935   7.58308  0.12245     0.01024  4548.07801   4019.40877  1.70021         2081.98547     19.53336  0.01897   59096.2368  0.93568    0.361   9127691.37523  43.96706  19.25225    59182.938    50.71644       43.66903   56.33033   78.43235   68.0    0.08945  -20.18104  0.92986 
  -17.04975  0.02226  5.68243     13.87462  1.69368  1.04526    5.9359  0.16375     0.01016  4270.27559   5396.84532  0.49652         2991.70618     19.17971   0.0084  59095.29009  0.64569  0.13216   9046563.93991  44.03213  19.23059    59182.938    50.59184        43.5819   67.38134   77.36376   67.0    0.09639  -20.17395  0.97517 
  -11.91154  0.00723  6.61124     14.46508  2.11267   0.5818  10.69057  0.15906     0.15366  4939.17096   4820.95446  0.63892         2688.17048     17.13664    8e-05  59100.42831  1.55574  0.07734   1007039.89642  44.95006  19.23363  59184.38449    50.64486       43.63516   65.63398   76.61551   67.0      0.088  -20.18005  0.98659 
  -14.42934  0.00112  4.38812     14.32327  1.60618  0.33734   3.99389  0.22493     0.01117  3999.98564   5535.79527  0.03714         4291.69646     20.66899  0.25925  59097.91051  0.38119  0.00446    648076.65298  45.37845  19.24759    59182.938    50.65593       43.69321   53.30732   72.37255   61.5      0.106   -20.3901  0.99947 
  -12.86335  0.00385  6.41156     14.13707  1.90222  1.24146   34.4583  0.04399     0.08593  4772.74305   3071.37588  2.62304         2388.79435     17.08912    7e-05  59099.47649  4.68228  0.13264    3862395.5804  44.34732  19.27381    59184.125    50.69191       43.63752   58.29853   79.85937   70.0    0.08354  -20.15711   0.9748 
  -15.05395  0.00374  5.00722     13.90939  1.36446  0.84886   7.65854  0.15571     0.01329   4580.3049   5023.38986  0.33472         3550.07954       17.209    9e-05  59097.28589  0.95843  0.02867   4821643.78425  44.32142  19.24333  59182.32437    50.71854       43.64515    58.9135    82.5509   64.5    0.08753  -20.18516  0.99429 
  -13.01801  0.02506  6.29108     14.16763  1.92041  1.37437  10.52867  0.13254     0.14532   4291.5591   3125.34822  0.39548         4448.07446     16.92321    5e-05  59099.32183  1.15673  0.26389   3261434.66104  44.44138  19.23299  59185.34242    50.62258       43.62794   64.03629   73.22199   70.5    0.08481  -20.15152  0.95379 
  -15.34226  0.01197  6.82596     14.28052  1.95741  0.78349  29.69421  0.04413     0.01789  4504.78392   3237.17723  0.21301         3981.34766     19.35096  0.01246  59096.99758  3.59457  0.35539   2326962.25992  44.52541    19.231    59184.125    50.71315        43.7401   57.39892   72.59031   73.0    0.08543  -20.11995  0.92982 
  -15.44866  0.01887  5.56716     14.03028  1.59616  1.18214  12.68457  0.12031     0.11626  4557.07302   3052.37634  0.27019         4760.17379     16.12538    1e-05  59096.89118  1.57136   0.2393   3995795.16877  44.37905  19.26877    59182.938    50.67232       43.64571   57.31751   75.84918   72.5    0.08019   -20.1769  0.95626 
  -13.08441  0.00628  4.81567     14.08587  1.65728  1.08866  16.59962  0.09785     0.24745  4785.45212   5322.60427  0.32157          2533.5432     20.53202  0.18912  59099.25543  2.26763  0.10417   2403196.28068  44.74214  19.24856  59185.34242    50.71438       43.73894   59.89452   70.95576   71.0    0.08217  -20.32051  0.98627 
  -15.24007  0.09192  7.07267     13.94915  1.96951  1.22502   8.15767  0.11667     0.01013  4763.84068   3928.47427  1.79843         2393.42046     17.93815  0.00048  59097.09977  1.10435  0.74982  11562106.09156    43.801  19.23913    59184.125    50.63963       43.63425   61.55762   78.19627   65.5    0.09094  -20.17343  0.84664 
  -15.19278  0.19747  6.27398     13.82609  1.60286  1.14942   5.53167  0.17691     0.01109  4119.00772   4582.39744  1.71122         3762.65315     20.08376  0.06737  59097.14706  0.55985  1.09235   13050147.6648  43.76304  19.25724    59184.125    50.61459       43.63127   63.13838    71.6243   69.0    0.08393  -20.20162  0.77811 
  -15.55048  0.10095  6.58214     14.12211  1.92548  1.41039    8.9002  0.20576     0.01562  5185.02189   4370.26863  1.28549         2129.30829     18.43172   0.0015  59096.78937  1.42734  0.89845    4414417.7833  44.27178  19.24959    59184.125    50.67229       43.63884   58.22532   87.34618   63.0    0.08388  -20.24431  0.84633 
   -13.8561  0.00692  5.65861     14.00095  1.58106  1.22238  25.73811  0.04135     0.21538  4292.36393     5235.303  0.38747          2932.6593     16.75618    3e-05  59098.48375  2.82876  0.17809   4680415.80631  44.29209  19.21564  59184.38449    50.64497       43.65191   65.63398   74.11991   78.0    0.09138  -20.11728  0.96541 
  -17.16305   0.0071  5.86912     13.88146  1.72894  1.25358   7.50647  0.15033     0.01049  4480.75733   3952.29652  2.27497         2012.63038     17.17549    8e-05  59095.17679  0.89901  0.05332   9546020.34348  43.98966  19.20399  59180.02837    50.71777       43.66359   51.38335    89.1078   66.0    0.09153  -20.16768  0.98959 
  -13.85543  0.00435  6.74498     14.15579  2.05182  1.56615   8.84886  0.17438     0.33162  4913.98057   4801.23323   1.0728         2902.98589     16.50972    2e-05  59098.48441  1.27462  0.03848     4230027.002  44.29668  19.23048    59184.125    50.62386       43.62056   64.88573   76.57867   70.0     0.0859  -20.18143  0.99264 
  -16.36449  0.00226  6.46502     14.18071  1.89477  0.72888  10.31444  0.14573     0.01332  4758.08595   4735.33708  1.30223          3015.5378     17.25143   0.0001  59095.97535  1.39296  0.02333   3199605.27567  44.42016  19.22998  59182.32437     50.6829       43.63699   61.55762   85.68308   67.5    0.07929  -20.18107  0.99527 
  -14.20285  0.01084  6.13447     14.21474   1.8846  1.02047  17.27628   0.1019     0.02617  4679.07998   4551.95162  0.47864         3768.53864     17.15837    8e-05  59098.13699  2.25631  0.18725   2449713.10597   44.5794  19.23623    59182.125    50.64764       43.65198   57.39892   77.36376   70.0    0.08104  -20.15041  0.96748 
  -14.19351  0.00713  5.94788      14.1591  2.02666   1.1685    18.301  0.07214      0.3445  4919.72615   5101.07912  0.27295         2649.09578     20.49933  0.17541  59098.14634  2.64231  0.13044   3199835.84763  44.52177  19.19895    59184.125     50.6485       43.67144   58.29853   72.67117   70.5    0.09259  -20.35139  0.98055 
  -13.89125  0.01007    6.189      14.1637  1.98067  1.13477  18.55526  0.07578     0.47844  4610.79366   3738.68439  0.69555         2883.16752     20.20727  0.08954  59098.44859  2.35313  0.18677   3314818.10024  44.46196  19.25403    59182.125    50.69727       43.62303   60.70032   86.54039   72.0    0.08556  -20.24309   0.9691 
  -13.12155  0.02496   6.5138     14.46504  1.72183  0.33476  13.44158  0.10787     0.24878  5196.16846   3195.92887  3.25574         2740.04113     17.83254  0.00038  59099.21829  2.16493  0.33546    796869.70287  44.97578  19.21322  59185.34242     50.7115       43.68602   59.89452   84.85058   75.0    0.08602  -20.17901  0.92584 
   -13.3637  0.00301  5.20187     13.96351  1.41793  1.17878  19.11699  0.07856     0.03583  4553.65519   3960.38764  0.94275           3360.147     17.77806  0.00033  59098.97615  2.36465  0.05758   4214673.59729  44.36342  19.21216  59185.84762    50.64362       43.65012   62.39013   74.86816   71.0    0.08605  -20.12426  0.98866 
  -15.36706  0.02475  4.96447     13.96333  1.37432  1.14407  14.26244  0.11232     0.19307  4914.15237    4786.0917  0.04323         4388.43739     16.89126    4e-05  59096.97278  2.05456  0.35306   3723768.27695  44.44421  19.25981    59182.938    50.70196       43.67086   56.33033   77.09642   69.0    0.08449  -20.17755   0.9373 
  -12.62095  0.00214  5.94358     14.19516  1.93543  1.34214  12.62603  0.16216     0.14595  5126.59047   3472.79811  1.50227         2706.84576      18.3878  0.00136  59099.71889  1.97948  0.02702   2584502.66088  44.59515  19.22797  59184.38449    50.73283       43.66052   59.89452   81.56988   67.0     0.0804    -20.183  0.99567 
  -15.24691  0.00387  6.44746     14.22148  1.85983  0.75814  19.24847  0.05987      0.1969  4459.54613   3007.85821  0.21388         3750.96993     18.14529  0.00078  59097.09293  2.28352  0.07442   2588825.43313  44.50644  19.23784  59182.32437    50.70542       43.66436   57.31751   78.34478   74.0    0.09106  -20.12757  0.98491 
  -14.20597  0.01922  6.05744     14.19192   1.8108  0.92642   9.70022  0.17835     0.33716  4967.73581   4311.08133  0.14622         2787.07749     18.76263  0.00322  59098.13388  1.42799  0.18643    2549324.3145  44.55571  19.20322    59184.125    50.63214       43.64569   64.03629   73.22199   69.0    0.08634  -20.15955  0.96637 
  -14.05673  0.08824  8.05281     14.80017  1.78749  0.96374  48.00231  0.01962     0.18589  4111.18742    9106.3785  0.15943         4743.22765     17.68864  0.00027  59098.28311  4.83976  4.23578    270153.15145  45.27758  19.23847  59180.02837    50.66717       43.61637   59.06202   80.69187   88.0    0.06411  -20.06599  0.42093 
  -13.68333  0.00386  5.61052     14.10701  1.56179  0.88761  26.28381  0.05274     0.04101  4184.56685    5258.7879  1.06464          4044.1832      17.8365  0.00038  59098.65651  2.74547  0.10155   2788845.27722  44.51904  19.22787    59184.125    50.65974       43.66574   60.70032   74.06236   74.0     0.0827  -20.14953  0.98007 
  -16.10897  0.00243  5.65853     14.13045  1.86055  1.48121  19.30594  0.06867     0.40487  3608.99075   8885.61127  0.32682         5898.65867     16.99742    6e-05  59096.23088  1.49999  0.04683   3033571.97357  44.55113  19.24424    59184.125    50.69923       43.65148   57.31751   78.34478   65.5    0.07378  -20.13465  0.99277 
   -8.90108  0.12626   6.6288     14.55564  1.81082  0.84466  21.00812  0.09693     0.02234  5650.94169   5091.54286  2.14864         3045.09771     19.66727  0.02582  59103.43876   4.0018  2.65243    571852.21084  45.12657  19.22768    59182.938    50.71552       43.64979   60.58201   80.88239   84.0    0.07193   -20.2011  0.63356 
  -14.66253  0.02049  6.24265      14.1432  1.90051  1.34544  20.44862  0.07013     0.01136  4458.01386   4790.89186  0.14817         3132.90792     19.05314  0.00628  59097.67732  2.42423  0.41891   3556487.57076  44.40596  19.19998    59182.938    50.64242       43.67446    58.9135   70.85797   71.0     0.0839    -20.149  0.92837 
  -13.33352  0.00745  6.26604      14.1444  1.93059  1.14864  13.15043  0.11617     0.13424  4959.90975   4450.79803  1.03815          2535.1035     20.03152  0.05974  59099.00633  1.92981  0.09801   3619876.72686  44.40186  19.26332  59182.32437    50.79864       43.81497   46.10367   72.08939   70.5    0.08646  -20.22583  0.98247 
  -13.34125  0.00418  5.15061     14.04569  1.56916  1.29756  28.61801  0.06208     0.02281  4768.06569   5254.46514  1.40462          2355.8595      16.3196    1e-05  59098.99859  3.88107  0.11953   3131985.01276  44.54498  19.26644    59182.125    50.68946       43.61018   60.70032   84.04478   71.5    0.08249  -20.16182  0.98051 
  -17.44321  0.01862  6.01214     13.89197  1.79219  1.22184   6.63764  0.14655      0.0123  4449.89488   5341.57203  0.23177         2412.54791      18.7636  0.00322  59094.89663  0.78404  0.12359   9892812.71154  43.96885  19.25808  59184.38449    50.66767       43.64404   58.29853   79.85937   70.5    0.08723  -20.18143  0.97618 
  -14.21888  0.00725  6.31701     14.12399  1.82882  1.22394  32.15378  0.04066     0.06306  4522.74756   5110.75831  0.50435         3031.61362      19.1591  0.00801  59098.12096  3.92341   0.2331     3828571.621  44.34696  19.26802  59182.32437    50.69586       43.68141   53.30732   74.86816   73.5    0.08706  -20.12691  0.95533 
  -14.35063  0.00896   5.4332       14.156  1.85471  1.43224  17.16352  0.11193     0.28549  4783.24234   5278.06801  0.06625         2096.40956     19.84008  0.03844  59097.98921  2.34249  0.15384   2478636.04156   44.6728  19.23783    59182.938    50.62613       43.60671   61.54069   80.70881   70.5    0.08082  -20.19503  0.97845 
  -14.53781  0.11319  6.14576     14.04216  1.75716  0.81593   5.26124  0.15325     0.01047  4072.27744   4343.25951  0.05519         4503.36692     17.70563  0.00028  59097.80203  0.52046  0.59552   5075152.49149  44.23106  19.17296  59177.11874    50.71632       43.63463    50.7385  102.31981   66.5    0.09675  -20.14231  0.88898 
  -13.34443  0.01386   5.9517      14.0378  1.66939  1.48957   24.1904  0.07138     0.27882  5023.94255    4245.5747  4.31759         2274.51294     18.06476  0.00064  59098.99541  3.64216  0.33537   4613703.06307  44.27807  19.23031    59182.938    50.71121       43.66003    58.9135   78.34478   71.5    0.07862  -20.16034  0.93588 
  -17.07444  0.01333  5.60582     14.12328  1.65338  0.65248  10.21306  0.12532     0.01058  4510.41747   4819.17335  1.24759         2724.05586     20.17312  0.08276   59095.2654  1.23941  0.13613   2734713.24271  44.55303  19.23676  59184.38449    50.69204       43.68678   63.13838   76.61551   66.5    0.08424  -20.23224  0.97508 
   -17.7544  0.00123  6.17339     13.91801  1.90963  1.45226   4.05558  0.24285     0.01475  4150.51057   7116.54586  0.81541         2165.19313     17.06977    7e-05  59094.58545  0.41676  0.00499   9858102.06699  43.97495  19.26483    59182.125    50.69607       43.66673   57.39892   79.85937   64.5     0.0933  -20.14406  0.99906 
  -15.42142  0.00486  5.73245      13.8023   1.6875   1.4756   6.82018  0.16152     0.01111  4495.31166   5219.60194  2.10643         2948.23366     19.71369  0.02874  59096.91842  0.82213  0.03318  12798030.67547  43.87227  19.24267    59182.938    50.70089       43.60327   63.13838   89.09354   68.5    0.09055  -20.21655  0.99347 
  -15.03974  0.00144  6.62863     14.13514  2.00312  0.68996   7.55815  0.15117     0.01184   4655.7881   3831.51037  4.08311         2367.73614     18.81471  0.00363   59097.3001   0.9773  0.01092   4386209.75777  44.28561  19.16532  59184.38449    50.63771       43.64939   64.14011   73.11817   67.5    0.08661  -20.19053  0.99779 
  -18.16596  0.00663  5.97049     14.01972  1.87042  1.38349   8.46526  0.19123     0.01003  4602.24964   4268.09962  0.09717         2178.64197     16.23374    1e-05  59094.17389  1.06957  0.05612   5653634.33983  44.23644  19.26027    59182.938    50.72327       43.68766    55.6373    76.9284   61.5    0.08831  -20.18543  0.99025 
  -12.17016  0.00764   5.1191      14.0845  1.61708  1.34328  14.43359  0.13907     0.05842  5042.70473   4086.99712  1.67836         2104.41479     17.08389    7e-05  59100.16968  2.18942  0.11027    2666423.8951  44.63326  19.21554    59184.125    50.62519       43.61959   64.88573   76.57867   67.0    0.08138   -20.1724  0.98306 
  -16.04643  0.00746  6.20998     14.33095  1.97402  0.70622  22.51592   0.0674     0.26632   4529.5564   3547.80417  0.10806          4310.4828     19.77887  0.03339  59096.29341  2.75568  0.16798   1539767.96162  44.79056  19.17441  59184.38449    50.63004       43.63401   65.78535   72.37255   70.5    0.08345  -20.17699   0.9719 
  -18.29733  0.00271  5.92207     13.98253  1.84556  1.15898   7.49978  0.19732     0.01595  4907.95553   4060.52954  1.33703         2064.71563     20.20094  0.08824  59094.04252  1.07765  0.02035   6513588.15893  44.17621   19.2733    59182.938    50.68178       43.62834   59.10433   80.76409   63.5    0.08661  -20.27185  0.99638 
  -16.73325  0.01074  5.77366     14.06409  1.83048  1.48109  10.33193  0.18479     0.01036  4641.95462   5027.30817  0.16521         2172.61265     16.58645    2e-05   59095.6066  1.32804  0.11101   4218040.53838   44.3834  19.22019    59184.125    50.68642       43.70568   59.89452   72.37255   61.0     0.0834  -20.16305  0.98178 
  -14.02884  0.00462  5.73602     14.17307  1.66334  0.77297   8.71401  0.16273     0.30485  4495.38898   3309.41893  1.36266         2565.31352     16.91981    5e-05    59098.311  1.05046  0.04023   2290191.07073  44.61273  19.23871    59184.125    50.68446       43.64856   60.70032   81.54918   72.0    0.08061  -20.12811  0.99237 
  -14.42681   0.0166  5.19436     14.06509  1.59045  1.26803  18.23315    0.097     0.04203  4767.85049    3794.9137  0.02792          3375.5508     18.30525  0.00112  59097.91303  2.47249  0.30259    2952655.6723  44.56909  19.23442    59184.125    50.68717       43.68195   55.80293   74.86816   69.0     0.0832  -20.16731  0.95231 
  -15.46716  0.00431  5.29896     14.10179  1.65474  1.09186   21.8456  0.08646     0.37196  4805.56326   3782.61768    0.288         2963.73688     19.44812  0.01559  59096.87268   3.0094  0.09405   2699867.98974  44.60785  19.23538    59182.938    50.69481       43.65774   57.31751   78.34478   69.5    0.07756  -20.17294  0.98492 
  -17.41263  0.00214  6.26486     13.94061  1.88738  1.33141   8.46923  0.15157      0.0109  4657.64831   3849.34393  1.21557         2412.99887     18.50103  0.00176  59094.92721  1.09598  0.01814   9042132.24496  43.99461  19.25557  59182.32437      50.706       43.67413   54.73434   75.37766   65.5     0.0876  -20.18919  0.99645 
  -14.58565  0.02216  5.92798     14.26672  1.65262  0.38869    8.8783  0.13733      0.0121  4929.55135   4431.68532  3.54123         2457.32415     19.16929   0.0082  59097.75419  1.28698  0.19673   1578962.14026  44.74283  19.20645    59184.125    50.63535       43.63959   64.14011   75.61378   66.0    0.08594  -20.20938  0.95929 
