 texplosion  fnickel    Pspin  log(Bfield)      Mns  thetaPB   mejecta    kappa  kappagamma      vejecta  temperature    alpha  cutoff_wavelength  log(nhhost)      A_V         MJD0   kenergy  mnickel            TSD   log(L0)  Peak_mag     Peak_MJD  log(E_rad)  log(Peak_lum)  Rise_Time    E_fold  tau_1  delta_m15     r_peak     frac 
   -6.43266  0.00275  0.83642     14.35653  1.14308  0.51529   5.28902  0.26785     0.20029  11658.18348   5166.25457  0.34131         2693.24747     18.01486  0.00057  55460.86734   4.28809  0.01454    14377.37147   48.3244  21.47081  55510.94758    51.13225       44.51505   16.34186  36.25812   33.0    0.28222   -21.4651  0.99992 
  -15.82396  0.22835   3.6794     13.85289  1.91026  0.88409    5.0186  0.05751     0.01754  10262.73165   7295.77406  0.24729         4776.00065      16.9577    5e-05  55451.47604   3.15308    1.146   4728075.9956   44.7437  21.35916      55510.2    51.15188       44.42513   26.26364  39.80539   46.5    0.22024  -21.56861  0.93003 
    -7.0218   0.0054   1.0386     14.40431  1.88738  1.20828   5.66226  0.29759      0.4497  12790.42057   7725.63232  0.02667         2294.99385     16.15244    1e-05   55460.2782   5.52569  0.03059    29373.88136  48.04385  21.44195  55510.94758    51.15387        44.5407   25.04716   31.2209   31.0    0.23133  -21.62173   0.9999 
  -10.56932  0.02748  4.14996     14.18862  1.95109   0.7787   3.66937  0.12589     0.04728  11028.11498   4263.04055  2.06278         2044.95153      17.0017    6e-05  55456.73068   2.66208  0.10083   1309009.9363  45.20609  21.32174  55516.37362    51.15361       44.43579   27.71947  39.09672   43.0    0.26663  -21.45862  0.99224 
   -4.35516  0.31287  1.17334     14.67934  1.89285  0.59828   7.29862  0.15377     0.03807  10541.66592   8519.31411  0.68469         3225.46459     17.01503    6e-05  55462.94484   4.83823  2.28353    10595.01866  48.38201  21.41428  55510.94758    51.39397       44.74953   15.63783  31.27566   33.0    0.26802  -21.44737  0.99075 
   -9.16811  0.00895  3.84697     13.86711  1.61831  1.29859   3.94262  0.06968     0.05091   9607.25279   7855.08627  2.13422         2611.59315     17.57193  0.00021  55458.13189   2.17075   0.0353  4100989.96894  44.69478  21.38268  55510.94758    51.03648       44.39482   21.32432  35.54053   54.0    0.23282  -21.38695  0.99686 
  -10.19919  0.22789  3.05613     14.17308  1.82384  1.20727   4.65425  0.20022     0.14436  10999.50063   6276.82134   0.3464          3494.2402     16.39877    1e-05  55457.10081    3.3591  1.06068   712818.66448  45.70651  21.33833   55513.6606     51.1831       44.52398   23.00348  33.86137   43.0    0.25974  -21.53968  0.95372 
   -5.22074  0.04083  2.32972      14.2605  1.78774  1.19816   5.41625  0.16317     0.28959   9072.04361   3259.63477  1.34321         2972.90867     18.31362  0.00114  55462.07926   2.65911  0.22112   271468.66747  46.35282   21.3596      55512.3    51.21174       44.54415   24.85112  34.85697   39.5    0.24147   -21.4405  0.99405 
   -6.12901  0.08081  1.58319     14.21889  1.62619  1.49064  12.14971  0.08509      0.0368   7574.80577     5988.792   1.4578         3077.55074     16.41008    1e-05  55461.17099   4.15849  0.98184    138122.8174  46.94068  21.39315      55512.3    51.20837       44.55515   17.05945  35.54053   45.0    0.18622  -21.34401  0.98663 
   -6.29191  0.26573  1.16109     14.39981  2.06856  1.38892  11.25804  0.08931     0.01966   9941.22081   9233.15346  0.45586         3512.42281     20.34008  0.12157  55461.00809   6.63696  2.99164    41076.31575  47.84119  21.38299   55513.6606    51.17194       44.58302   19.43346   31.7449   33.5    0.23255  -21.63314   0.9881 
   -6.44364    0.043  0.94477     14.40239  1.64126  0.85536  11.24385   0.1593     0.06156  13110.72995   4484.18247  0.42475         2386.62149     20.13858  0.07644  55460.85636  11.52912  0.48347    21323.94307   48.2045  21.46577  55510.94758    51.09473       44.49588   17.05945  34.11891   34.0    0.25161  -21.69741  0.99838 
    -7.6241  0.01014  1.85404     14.31959    1.698  0.85176   8.08571  0.17634     0.08323  11084.27666   9828.21066  0.77937         2980.91216     17.88254  0.00042   55459.6759   5.92598  0.08202    124395.7958  46.86774  21.43234      55512.3    51.24656       44.48273   27.31164  41.22701   30.0    0.22757  -21.57018   0.9985 
   -6.62886   0.0426  1.70656     14.44994  1.85858  0.74115   7.44647  0.20344     0.06879  12248.82053   9677.35164  0.21977         3782.43219     18.36318  0.00128  55460.67114   6.66448   0.3172    63292.38621  47.27243  21.46378      55510.2    51.17582       44.60128   12.79459  32.69729   27.5    0.25394  -21.63932  0.99583 
  -10.42442  0.16866  3.22842     13.91207  1.82497  1.44837   6.13041  0.03113     0.05465   8800.26832   7636.74322  0.45756         2998.39227      20.5031  0.17694  55456.87558    2.8321  1.03395  2647991.46022   45.0892  21.37383  55516.37362    51.16058       44.47003   24.16756  38.38377   71.0    0.17349  -21.46932  0.94911 
   -6.15135  0.03117  0.93652     14.28805  1.62188  1.07599  12.21203  0.15175     0.02639  11326.56264    9813.9352  0.41832         5710.70216     18.59794   0.0022  55461.14865   9.34569  0.38062    35056.54662  47.99106  21.44421      55512.3    51.14398        44.5031   19.43346  36.00976   30.5     0.2098  -21.77482   0.9986 
   -9.38079  0.00805  2.84855     14.43461  1.73725  0.49932   5.90668   0.1295     0.16714  10253.63263   6147.22679  0.58285         2892.01377     17.75369  0.00032  55457.91921   3.70447  0.04754   176891.91377  46.35175  21.45264      55512.3    51.17119       44.54482   15.63783  38.38377   40.5    0.26645  -21.47675  0.99797 
   -12.8158  0.00354  3.74552     14.17406  1.79999  0.47864   4.23381  0.08246     0.03143   9496.85709   4443.37338  0.77371         3039.49122     19.52567  0.01864   55454.4842   2.27781  0.01498  1051926.72795   45.3551  21.45122   55513.6606    51.13975       44.44197   22.74594  38.38377   52.0    0.20028  -21.46592  0.99891 
    -9.1942  0.01397  2.19824     14.29093   1.7498  0.92056   4.67802  0.20425     0.21301  10319.49943   4059.30337  0.33819         2941.27499     19.46823  0.01633   55458.1058   2.97171  0.06537   205638.03628  46.51458  21.39859      55512.3     51.1319       44.53848   17.05945  34.11891   37.0    0.26777  -21.44737  0.99838 
   -8.35652   0.3616  2.70751     14.51006  1.98685  0.44494   4.67746   0.0982     0.12659   10598.8104   6910.72716  0.24023         3108.24132     20.58311  0.21274  55458.94348   3.13438  1.69136   129125.07654  46.59086  21.37823      55510.2    51.23997       44.64887   14.21621  32.69729   51.0    0.30221  -21.66472  0.94934 
   -6.96265   0.0027  2.52056     14.12694  1.69937  1.28305    7.9284  0.14805     0.11025   8704.10897   6971.76882  2.54139         2591.84775     16.21567    1e-05  55460.33735   3.58312  0.02137   558746.78353  45.94892  21.44263      55512.3    51.22143       44.61367   22.00788  32.01372   45.0    0.18059  -21.44965  0.99926 
  -10.59558  0.14405  2.38858     14.14444  1.38983  0.52721   2.22332   0.2042     0.29547   9644.73394   5859.35695  0.21315         4690.66083     20.24956  0.09869  55456.70442    1.2337  0.32026   378598.61704  46.07735   21.3415  55516.37362    51.17248       44.53035   19.95746  36.90739   54.0    0.26094    -21.596  0.98666 
   -5.33115  0.18978  1.35363     14.91145  1.76875  0.27178   6.74109  0.12274     0.05362   8909.98142   8297.36091  0.54609           5178.754      17.2523   0.0001  55461.96885   3.19235  1.27929     4524.61578  48.59793  21.40467  55508.23456    51.14699       44.48894   24.16756  32.69729   33.5    0.27521  -21.50461  0.99018 
  -10.67322  0.04567  3.41108     14.20501  1.86843  0.91221   2.94056  0.22131     0.02939   9742.99446   4643.19303  0.89773         2897.72237     19.11212  0.00719  55456.62678   1.66511  0.13429   785349.83508  45.57947  21.44066   55513.6606    51.14686       44.44885   27.19556  36.03023   34.5    0.32621   -21.4554  0.99264 
   -7.79389  0.00775  1.95208     14.11091  1.62249  1.54426   8.19807  0.19652     0.30964  11058.41245   5186.28315  1.07986         2786.03252     17.33065  0.00012  55459.50611   5.98032  0.06353   344477.91504  46.36087  21.49614   55513.6606    51.17246       44.45597   18.48107  45.49188   40.5    0.20179  -21.62196   0.9986 
   -9.46218  0.00175  2.44383     14.34182  1.80558  0.76088   5.06853  0.16316     0.03586   8612.86805   6546.35409  0.75437         3076.78724     17.24174   0.0001  55457.83782   2.24287  0.00887   207456.36822  46.43239  21.43793   55513.6606    51.12716       44.47847   22.74594  34.11891   39.0    0.24117  -21.37978  0.99974 
  -11.23052  0.00739  2.93067     13.80736  1.31927  1.24387   7.03892  0.07798     0.01993   8436.86081   7312.79112  1.59852         2740.12354     16.56125    2e-05  55456.06948   2.98879  0.05201  2554864.74102  45.04788   21.4878      55512.3    51.15786       44.45444   18.48107  44.07025   46.0    0.21222   -21.3919   0.9964 
   -4.64052  0.12529  1.05027     14.12075  1.47093  1.38068  12.31242  0.11407     0.42271  12105.99597   7595.61484  1.13062         2336.32644      20.5479  0.19617  55462.65948  10.76395  1.54262    86398.83416  47.45732  21.38773   55513.6606    51.19467       44.54486   22.74594  35.54053   36.0     0.2446  -21.81314  0.98996 
   -8.14762  0.01994  1.28602     14.12566  1.54097  1.46064   12.5538   0.0775     0.01163  11798.19844    5459.4095  0.09408          4734.2925     20.43602  0.15162  55459.15238  10.42399  0.25034   132671.44442  47.11537  21.50322  55510.94758    51.11821       44.51845   15.63783  35.54053   29.0    0.35391  -21.73081  0.99755 
   -8.72177  0.03846  1.17417     14.16073  1.47171  1.16247  13.63996  0.07418     0.06546   9225.43507   8749.84549  0.50731         3426.77106     20.23129  0.09463  55458.57823   6.92491  0.52459    89875.60386  47.34356  21.39895      55512.3    51.10552       44.47935   18.01184  36.00976   34.0    0.24006  -21.49586  0.99557 
    -6.5313  0.00119  1.24957     14.51509  1.45335  0.49344   8.79189  0.15943     0.40493  13808.00037   4971.62527  0.07723         2033.01117     18.98576  0.00538   55460.7687   9.99933  0.01043     19657.1617  47.94418  21.40404  55510.94758    51.16348       44.56909   14.92024  33.41488   30.0    0.34828  -21.60836   0.9999 
   -8.17849  0.16437  2.44027     14.51406  1.77582  0.49252    5.2413  0.14615     0.20038   10190.1339   9036.81479   0.2806         4879.58523     18.56507  0.00204  55459.12151   3.24658  0.86153    92039.34018  46.77939  21.36678  55510.94758      51.102       44.46288   26.52109  33.18699   32.5    0.29143  -21.55193   0.9747 
   -9.01577  0.10263  3.76953     14.31733  2.15238  0.81181   6.00332  0.07796     0.41478   9370.40797   9973.13538  0.46911         4549.61949      19.4632  0.01614  55458.28423   3.14438  0.61614   658628.95971  45.63055   21.3534      55507.3    51.20887       44.50722   21.32432  35.54053   38.0    0.27463   -21.5598  0.96746 
    -4.8415  0.04697  1.62816     14.37475  1.67913  0.92979    7.7513  0.17131     0.02591  12981.09432   6478.92487  0.71568         2404.70771     18.88797  0.00429   55462.4585   7.79156  0.36405    73585.04272  47.20374  21.34833      55512.3    51.26824       44.65023   20.85508  28.90166   29.0    0.31297  -21.54366  0.99506 
   -6.26412  0.01229   0.9078     14.43148  1.96999  1.19006  58.34423  0.02297     0.01615   9645.01023   4114.94948  0.52399         2852.64587     16.39175    1e-05  55461.03588  32.37654  0.71689    20667.77234  48.33204   21.3614   55513.6606    51.12191       44.55745   20.58626  29.17048   37.5    0.21501  -21.44291  0.99864 
  -12.64781  0.20606   3.3081     13.92115  1.54096   0.6382   3.50921  0.10283     0.29762  12408.73574   8984.00639  0.41714         2358.65784     17.76327  0.00032  55454.65219   3.22323   0.7231  2251435.71048  45.06502  21.42438   55513.6606    51.17646       44.51944   20.85508  36.00976   59.5    0.18342  -21.63277  0.95053 
    -5.8355  0.16128  2.04323     14.55152  1.74001  0.57462   6.27256  0.17085     0.03157  11348.14589   6291.74974  0.76699          3005.0513     18.39083  0.00137   55461.4645   4.81861  1.01166    53206.91236  47.16279  21.49746  55516.37362    51.11789       44.41174   22.74594  36.96215   33.0     0.2805  -21.47885  0.97898 
   -7.32554  0.00526  1.17985     14.37823  2.17651  1.22938   6.02753  0.29402     0.01844  14092.80344   6514.54283  0.01657         2693.57677     20.50301   0.1769  55459.97446   7.14103  0.03172     49292.0687  47.77017  21.38933  55510.94758    51.22105       44.64707   15.63783  31.27566   27.0    0.36768  -21.86115  0.99986 
   -8.55342  0.00914   1.6513     14.33118   1.7712  1.12882   9.48632  0.13449     0.06518  12523.23544   5919.92487  0.02858         4945.41524     17.33021  0.00012  55458.74658   8.87479  0.08669    97583.73849  47.09209  21.35139   55513.6606    51.16195       44.53168   22.74594  32.69729   32.0    0.30654  -21.52462  0.99887 
   -8.20644  0.00345  2.35957     14.46655    1.888  0.57282   7.70895  0.16088     0.03603   10559.6591   4995.63232  0.47012         3208.24964     18.19742  0.00088  55459.09356    5.1277   0.0266   113862.29236   46.7428  21.44964      55512.3    51.19528       44.59724   16.34186   34.8365   37.5    0.22956  -21.56923  0.99932 
   -5.89279  0.02506  1.52147     14.32548  1.34544  0.55097    10.242  0.10585      0.0443  10142.73947   5573.03359  1.10346         2889.61812     20.03548  0.06028  55461.40721   6.28525   0.2567    64603.66869  47.22292  21.43984   55513.6606    51.18073       44.52528   18.48107  38.38377   37.5    0.25061  -21.56936  0.99554 
  -11.94784  0.37079   3.7682     14.03621  1.70512   0.8283   2.82563   0.1774     0.10477  11301.83505   8771.17932  0.67863         3249.93382     19.60587  0.02242  55455.35216   2.15298  1.04773  1902871.89058  45.06892  21.43796  55510.94758    51.13115       44.53221   18.48107  31.27566   44.5    0.23645  -21.58555  0.92385 
   -6.22883  0.04576  1.80363     14.35843  1.58744  0.69613  17.83107  0.05945      0.0156   8279.76923   6089.99615  1.30506         3080.81127     16.17305    1e-05  55461.07117   7.29191  0.81598    92031.69867  46.99331  21.39634      55512.3    51.12847       44.48235   18.01184  36.00976   43.0    0.20281  -21.40864  0.98462 
   -4.89332  0.00672  1.30796     14.42168   2.1524  1.45202  15.88713  0.08101     0.02354  13677.60596   3387.73559   0.0612         3738.47074     20.32831  0.11831  55462.40668  17.72935  0.10668    49040.46891  47.67803  21.30345   55513.6606    51.10575         44.471   25.09947  33.18699   29.0    0.32947  -21.73643  0.99945 
   -7.69998  0.01052  2.86511     14.13955  1.85651  1.43389   3.95787  0.22764     0.22648  10353.50502   6873.26725  1.68601         2431.30702     20.15503  0.07939  55459.60002   2.53083  0.04165   744209.95183  45.75157  21.49405   55513.6606    51.09122       44.41962   26.52109  36.03023   41.5    0.23273  -21.58282  0.99837 
   -5.77928  0.41379  2.75478     14.23926  1.55351  1.07498  14.61258  0.03442       0.111   6764.99442    9162.1339  1.56774         3180.07864     17.78111  0.00034  55461.52072   3.98923  6.04649   363738.10906   46.0192  21.36622  55516.37362    51.21322       44.58846   18.48107  35.54053   69.5    0.19719  -21.33634  0.77881 
   -6.04657   0.0019   2.1971     14.31053  1.70725  0.86075   6.80563  0.18226     0.09978   9506.44014   7794.01939  2.24253         2575.37171      16.7537    3e-05  55461.25343   3.66886  0.01295   183131.51326  46.55468  21.40724  55516.37362    51.30896       44.63148   25.58918  35.54053   39.0    0.19501  -21.43387  0.99967 
   -7.31967  0.26972  1.87464     14.06263  1.43693  0.96855     4.899  0.17876     0.02709   10354.1415   4216.31465  1.52028          2279.8764     20.55245  0.19823  55459.98033   3.13302  1.32134   351428.12205  46.33461  21.46192   55513.6606    51.13612       44.45216   20.58626  40.54345   37.0    0.25434  -21.70419  0.96868 
   -8.27379  0.01475  1.42471     14.27759  1.79358  1.14034   9.70257  0.19339     0.18558  11952.10536   4311.74507  0.19324         2354.68157     18.27057  0.00104  55459.02621   8.26804   0.1431    94149.21926   47.2413  21.44951   55513.6606    51.09726        44.4291   21.58185  38.12623   37.5    0.22623   -21.6289  0.99864 
   -6.82664  0.15405  1.13843     14.44216  1.60422   0.6106    16.076  0.05475     0.01437  11222.08273   7108.51926  0.37272         3008.65705     20.63387  0.23911  55460.47336  12.07681  2.47648    25198.15775  47.96013  21.40104  55510.94758    51.33443       44.62032   15.63783  35.54053   34.5    0.29303  -21.70049   0.9839 
   -7.23702  0.00584  2.76157      14.3609  1.89285  0.85981   3.79985  0.18172     0.35891   9234.67407   5254.72868  0.89195         3080.28835     19.37998  0.01333  55460.06298   1.93302  0.02219   254355.40694  46.25821  21.42059   55513.6606    51.12512       44.42733   22.74594  39.80539   38.5     0.2803  -21.41023  0.99922 
   -5.02105  0.48635  1.44144     14.48042  1.75543  0.88852  10.07838  0.15378     0.05786  12540.65661   6543.61675   0.7625         3025.88148     19.21446   0.0091  55462.27895   9.45493  4.90165    37064.46206  47.62668  21.41291  55510.94758    51.06818       44.45602   25.58918  31.27566   47.0    0.20421    -21.624  0.95855 
   -9.32311   0.0188  1.84061     14.31798  1.74583  0.89146   5.62927  0.22902     0.03922   11483.7602   3913.64262  0.26427          3151.4005      19.9837  0.05351  55457.97689   4.42841  0.10582   126991.30542  46.87715  21.43876  55510.94758    51.13439       44.57013   20.85508  28.90166   32.5    0.27206  -21.54364  0.99818 
    -9.4167  0.02145  2.90385     14.56821  1.78838   0.3433   4.73164   0.2455     0.02939  11495.28842   7690.51877   2.0723         2179.67163     16.00933    1e-05   55457.8833   3.72974  0.10149    102285.5135  46.58554  21.43706  55516.37362    51.16283       44.56196   20.85508  33.16652   32.0    0.28438  -21.59694   0.9957 
   -8.98892  0.00303  3.73749     13.88997  1.70344   1.1288   1.97416  0.14606     0.10106  10625.12323   9019.23328  1.04201          2726.1796     16.41628    1e-05  55458.31108   1.32946  0.00598  3667475.49399  44.79065  21.36035      55507.3    51.19693       44.53704    19.9027  41.22701   46.0     0.2209   -21.4824  0.99953 
   -8.58244  0.01958  2.26043     14.53689  1.89913  0.56242   6.01964  0.19461     0.14303  12540.55345   3538.05245  0.02379         2600.17578     18.31963  0.00116  55458.71756   5.64717  0.11789     76028.9109  46.95804  21.34292   55513.6606     51.1454       44.57806   21.37908  29.79928   33.5    0.30555  -21.57351  0.99727 
  -11.95873  0.03701  2.95173     14.30566  1.52852   0.3816   3.07231  0.15696     0.01455   8123.42506    9818.0449  0.83189         3131.10592     19.48142  0.01683  55455.34127    1.2094  0.11371   302638.16396  46.03204  21.46476  55510.94758     51.1352       44.51437    19.9027  34.11891   31.0    0.31339  -21.39048  0.99365 
   -6.89307  0.23866  3.07742     14.57728  1.96662  0.40555   2.59187  0.24604     0.18503   9307.78602     6387.659  0.63853         3307.36233     17.76738  0.00033  55460.40693   1.33947  0.61859   121157.66575  46.50284   21.3798      55510.2    51.18957       44.52895    22.8007  32.64252   45.5    0.26965  -21.51532  0.97501 
    -6.0298  0.00646  1.42226     14.32607   1.4497  0.71191  11.75995  0.08428     0.07657  10984.03668   5748.70331  0.19239         5469.13438     16.43044    1e-05   55461.2702   8.46363  0.07595    60660.41654  47.34126  21.45863   55513.6606    51.18248       44.55186   16.34186  37.67974   32.0      0.321  -21.56679    0.999 
   -8.62003  0.10899  2.57434     14.24029  1.61386  0.71592   5.51798  0.15242     0.19577  11191.73239   8467.39956  0.89968         2435.58049     20.00039  0.05561  55458.67997   4.12289  0.60143   328418.22473  46.13895  21.40884  55510.94758    51.07845       44.44435   25.09947  33.18699   36.0    0.26956  -21.60688  0.97711 
   -6.05946  0.01276  1.40417     14.84691  2.06636  0.35416   13.0301  0.11594     0.04369  12683.87282   7747.47989  0.20398         4623.91954     19.40878  0.01424  55461.24054  12.50485   0.1663     7656.65181  48.40517  21.38609  55508.23456    51.14431       44.43332   23.00348  38.12623   31.0    0.27635   -21.7154  0.99887 
   -6.65591  0.17553  1.33689     14.27813  1.71719   1.1881   11.9157   0.0956     0.02296   10435.3511   8065.13399  0.59982         3393.22205     20.25215  0.09928  55460.64409   7.74035  2.09158     79171.9727   47.3529  21.41628      55512.3    51.10669       44.53506   21.37908  29.79928   35.0    0.24301  -21.65457   0.9823 
   -10.1262  0.28511  2.79403     14.20079  1.32085  0.45071   2.83829  0.14974     0.03984   7622.51426   8806.71642  1.48595         2886.11962     19.39015  0.01364   55457.1738   0.98374  0.80923   379796.62678  45.91768  21.38322  55510.94758    51.09194       44.45867   19.63623  34.38537   44.5    0.23402  -21.37687  0.95181 
  -10.03314  0.00471   2.7168       14.264  2.07939  1.42415   6.13978  0.19592     0.19794  10842.68203   9947.03858  0.24268         4148.98307      17.9191  0.00046  55457.26686   4.30579   0.0289   422538.65166   46.0928  21.47661   55513.6606    51.17772       44.43316   20.16023  48.07758   30.0    0.23878  -21.53803  0.99915 
  -10.00718  0.01477  2.97648     14.09772  1.80382  1.38721   4.02604   0.2514     0.13008   10731.4228   8519.53449  2.28212         2116.03268     16.21958    1e-05  55457.29282    2.7658  0.05948   946159.83455  45.60167  21.40632      55512.3    51.19334       44.55202   17.05945  35.54053   37.5     0.2294  -21.55685  0.99738 
  -11.82408  0.13716  4.25583     14.12791  2.11573  1.44742   4.30594  0.12384     0.05346   8688.42171   5592.17072  1.79934         2618.51772     17.81397  0.00036  55455.47592     1.939  0.59059  1974348.11839  45.04091  21.45962  55510.94758    51.13082       44.47582   25.84672  35.28299   53.5    0.22474  -21.38124  0.95927 
  -10.42482  0.12574  2.92366     13.97248  1.79234  1.33925    6.4544  0.06463     0.05064    9633.9308   6892.78219   0.4261         2892.68423     20.42237  0.14693  55456.87518   3.57347  0.81156  1614862.40854  45.38228  21.44968      55512.3    51.12324       44.49375   18.48107  36.96215   57.0    0.23904  -21.62051  0.96602 
   -8.17207  0.20883  1.61699     14.58109  1.93807  0.64685   9.39712  0.11015     0.05608  11211.82762   9516.94515   0.0676         3945.19443     18.13253  0.00075  55459.12793   7.04652  1.96244    32391.19352  47.62838  21.42923  55510.94758    51.07416       44.40597   22.74594  35.54053   29.0    0.28491  -21.51065  0.97969 
   -5.41323  0.04664  2.20799     14.20433  1.71539  1.24262   7.25294  0.17252     0.21436  10320.50906   6135.13196  1.59833         2464.56142     17.41662  0.00014  55461.88677   4.60833  0.33826    303050.8578   46.3337  21.40774   55513.6606    51.29403       44.74329   17.05945  29.85404   40.5    0.22013  -21.49102  0.99132 
   -9.60311  0.14108  3.43203     13.95044  1.61957  1.22346   2.93211  0.15715     0.06442  11156.19166   6559.17825  0.55107         2991.24666     17.25369   0.0001  55457.69689    2.1769  0.41365  2225496.30042  45.05972  21.38307   55513.6606    51.33441       44.77575   17.05945  29.85404   43.0     0.2801  -21.54548  0.97189 
  -12.00571  0.01215  3.63567     13.91276  1.69114  1.07015   3.24153  0.14692     0.08458  10859.22719   7596.42536   1.2921         2491.12015      19.0681   0.0065  55455.29429   2.28021  0.03938  3101940.30261  44.88422  21.42401  55508.23456    51.10114       44.52911   17.05945  31.27566   50.0    0.21947  -21.53604  0.99708 
  -12.11432  0.01795  3.81032     14.56515  1.96115  0.35729   4.58228  0.13877     0.03018  11673.23759   8566.76819  0.34995         2941.46205     18.29373  0.00109  55455.18568    3.7247  0.08226   195865.10135  46.10748  21.44619  55519.08664    51.11847       44.40007    27.0108  42.64863   29.5    0.34677  -21.51164  0.99474 
   -8.94727  0.07169  2.17916     14.17331  1.50162  0.91025   5.98494  0.17288     0.15238  10904.35162    5472.2705  0.82002         2684.66051     19.68652  0.02699  55458.35273   4.24509  0.42903   298078.73425   46.2945  21.45285      55512.3    51.15883       44.49818   20.85508  36.00976   39.0     0.2497   -21.5365   0.9869 
  -11.75353  0.01819  3.69328     14.11915  2.13827  1.36644   3.49687    0.156     0.38479   11005.2648   7221.75948  0.05404         3050.91753     19.81371  0.03618  55455.54647   2.52643  0.06361  1564623.69833  45.26967   21.4234      55512.3    51.20012       44.42498   19.63623  44.33672   49.5    0.26447    -21.562  0.99663 
   -7.17848  0.02217   1.6265     14.97056  2.09924  0.27727   7.97921  0.13465     0.18394  10479.25382    8819.4582  0.25588         4976.87394     16.53975    2e-05  55460.12152   5.22694  0.17689      5905.5408  48.39714  21.42092  55510.94758    51.10408       44.49763   19.43346  33.16652   29.5    0.29807  -21.52635  0.99835 
  -11.35614  0.00158  3.48339     14.17387  2.01772  1.46749   3.73573  0.20181     0.30226   9671.16781   8581.10656  0.73511         3022.99193     16.80391    4e-05  55455.94386    2.0843   0.0059  1020789.47471  45.48077    21.418      55512.3     51.1409       44.46927    24.4251  33.86137   38.0    0.24772  -21.43687   0.9997 
   -6.74155  0.39929  2.08299     14.28675  1.44607  0.75262   4.18443  0.25034     0.06117  12409.57225   7866.79094  0.32897         3385.66092     16.38846    1e-05  55460.55845   3.84395  1.67079   155554.05882  46.59978  21.44715      55512.3    51.16946       44.56626   16.34186  33.41488   31.5     0.3071  -21.57015  0.95272 
   -9.30806  0.06836  2.70921     14.24008  1.72309  0.78874   3.37008  0.22661     0.03472  10958.98819   5045.52247   0.1818         2973.98424     18.74575  0.00309  55457.99194   2.41439  0.23038    388727.2738  46.04982  21.38279      55512.3     51.3056       44.69878    19.9027  28.43242   32.0    0.33427  -21.53542  0.99107 
   -9.74248  0.00135  2.41533     14.57613  1.98579  0.42037    5.4997  0.21038     0.04187  12422.17495    7266.1594  0.62033         2425.96744     20.48632  0.17023  55457.55752   5.06246  0.00742    75760.36484  46.92138  21.48096  55510.94758    51.16554       44.56999   16.34186  31.99325   32.0    0.28778  -21.76036  0.99981 
   -6.60133  0.14258  1.79376     14.32275  1.72176  0.91439  11.75058  0.09074     0.01481   9502.18002   9133.94421  0.71436         3136.77066     18.53976  0.00193  55460.69867   6.32897  1.67541   116366.04401  46.93146  21.37033  55510.94758    51.07637       44.49248    24.4251   29.5965   33.0    0.21761  -21.50445  0.97287 
  -11.46025  0.04317  3.27219      14.0844   1.5921  0.83111   3.42623  0.15494     0.15595   9706.65648   6857.71284  1.93278          2342.5542     19.77876  0.03338  55455.83975   1.92568  0.14792  1073177.13517  45.41047   21.3803  55516.37362    51.16723       44.45189   23.67785  41.71672   51.5    0.25421  -21.44697  0.99049 
  -12.03414  0.21369  3.64566     14.12977  1.84408  1.02484   4.86319  0.13884     0.09697   9658.36702   7970.55427  0.91155         2959.44608     19.44818  0.01559  55455.26586   2.70618   1.0392  1252002.39378  45.31347   21.3852   55513.6606    51.14005       44.51635   22.00788  33.43535   48.0    0.22419  -21.46754   0.9371 
   -6.84761  0.07011  0.74864     14.43582  1.70659  0.83848  13.78828  0.16688     0.06942  12040.25109   8142.60289  0.52072         2708.41277     18.73885  0.00304  55460.45239  11.92363  0.96669    11935.50443  48.67559  21.42312   55513.6606    51.09401       44.42386   28.04069  35.93226   36.5    0.18907  -21.55557  0.99863 
   -7.60883   0.0368  2.94641     14.43659  1.98843   0.6634   5.49277  0.16643     0.06921   9738.94769   6473.03005  1.00443         2727.70697     19.60344  0.02229  55459.69117   3.10773  0.20214   214649.14378  46.29704  21.39146   55513.6606    51.32041       44.66365   17.05945  36.96215   41.0    0.23561  -21.46557  0.99253 
   -6.44849  0.09162  0.80835     14.43728  1.69137  0.87382  18.99044  0.11969     0.03183  13297.75777   9071.35149   0.5401         2515.54901     18.14833  0.00078  55460.85151  20.03176  1.73993    13699.09556  48.54519  21.38054  55510.94758    51.28237       44.74459   17.05945  28.94759   31.5    0.23651  -21.78133  0.99694 
  -10.46165   0.0218  2.40345     14.18827  1.79124  1.03939   6.75214  0.16684     0.05053  10995.10596   4580.76613  0.40416         3069.88199     19.97655  0.05264  55456.83835   4.86931  0.14719   403732.51274  46.15423  21.42362   55513.6606    51.25478       44.62974   17.76348   34.8365   38.5    0.23612  -21.61471  0.99576 
   -5.28705   0.0151  0.74135     14.53023  1.94583  1.00419  14.62828  0.11056       0.016  12262.00516   3119.94738  0.15671         4299.45475     18.40335  0.00141  55462.01295  13.12029  0.22089      8639.6231  48.88141  21.43852      55510.2    51.13208       44.53587   16.34186  33.41488   31.0    0.25586  -21.49423  0.99983 
    -4.5592  0.00696  1.55724      14.5029  1.83466  0.71418  13.89127  0.09022     0.01762  10071.77082   3062.92062  0.92272         3055.03623     16.62501    2e-05   55462.7408   8.40584  0.09664    40763.98456  47.53742  21.39448      55512.3    51.19548       44.57923    19.9027  31.27566   35.5    0.25011  -21.46886  0.99897 
    -4.9526  0.01834  1.03263     14.36595  1.60629  0.93551  10.47917  0.13411     0.09115  12968.31176   3580.90098  0.16642         4145.78232      19.5269  0.01869   55462.3474  10.51286  0.19218    29487.55562  47.97714  21.38562  55510.94758    51.22373        44.5808   22.00788  29.17048   31.5    0.31935  -21.67717  0.99913 
  -10.69663  0.00135  3.35808     13.93761  1.54034   0.7925   2.28345  0.17082      0.0416   9049.85102   7819.15427  1.98976          2672.7415     19.84732  0.03909  55456.60337   1.11558  0.00309  2149759.95667  45.07189  21.44248      55510.2    51.07358       44.49268   17.05945  32.69729   44.0    0.24583  -21.48561  0.99977 
  -10.45592  0.05734   3.9059     13.96464   1.7889  1.04792   7.51933  0.03094      0.0932   8186.27189   7410.30005  1.08441         3070.42005     17.54664   0.0002  55456.84408   3.00593  0.43117  2982338.80743  44.86343  21.40379  55516.37362    51.20897       44.55743   16.34186  39.10136   76.5    0.20202  -21.33626  0.96706 
    -8.8709  0.21436  3.09192     14.49899   1.9408  0.45368   5.77571  0.08199     0.16771   8928.92125   7804.68546  0.48315         3861.79794     20.00985  0.05683   55458.4291   2.74682   1.2381   173087.16956   46.3381  21.39663      55510.2    51.26313        44.5022   24.10396  44.80831   48.5    0.27838  -21.52811  0.94977 
   -7.34371  0.14309   1.5416      14.0638  1.26174  0.90259   6.15863  0.21048     0.01111   11705.1141   3901.61601  0.30354         2187.35432     17.25898   0.0001  55459.95629   5.03341  0.88127   207555.20768  46.67674  21.41228  55516.37362    51.12291       44.39943   26.29785  40.51834   29.0    0.35948  -21.55494  0.98274 
    -5.1523  0.08847  1.17584     14.35865  1.90671  1.52412  11.24638  0.10179      0.0748  11815.23389   5898.90948  0.43056         3415.03961     20.31016  0.11347   55462.1477   9.36536  0.99498    46934.67187  47.73694  21.42532      55510.2    51.07029       44.47232   19.43346   31.7449   34.0    0.29507  -21.68897  0.99526 
     -5.377  0.11144  1.16967     14.67417  1.86893  0.51363   4.24633  0.32651     0.03682   11584.8331   4222.72492  0.45313         3097.27146     19.44326  0.01542    55461.923   3.39955  0.47321    10646.32263  48.37711  21.38615      55510.2    51.36611       44.81062   18.48107  25.58918   30.0     0.2859   -21.5312  0.99777 
    -7.6034   0.0032   2.4441     14.35569  2.19179  1.31286  12.07803  0.09957     0.42911   8902.98272   7731.23859  1.29319         2917.93533     19.66986  0.02598   55459.6966   5.71077  0.03865   236303.67623  46.45993  21.43683      55512.3     51.1394       44.46962   26.26364  36.96215   40.0     0.1971  -21.44056  0.99916 
  -13.83001  0.36276  3.07202     14.66266  1.54913  0.18515    5.6299  0.08691     0.04042   8488.91501   4424.48317  0.57314         3092.30023     17.00859    6e-05  55453.46999   2.42009  2.04231      64185.907  46.67664  21.46221      55510.2    51.16449       44.50292   25.04716  36.90739   58.5    0.21568  -21.40166  0.89153 
  -12.50822  0.09634  3.54765      14.4344  1.57002  0.25791   2.93396  0.15663     0.20941   9695.03606   8642.69518  1.58314         2925.41657     18.63227  0.00238  55454.79178   1.64505  0.28267   248200.48063  45.97007  21.46205      55512.3    51.15941       44.52843   15.63783  36.96215   53.5    0.23093   -21.5005  0.97815 
  -15.24528  0.07654  3.87311     14.03565  2.05211  1.21574   3.31988  0.15126     0.03978  11038.67711   4923.25794  0.06452         4698.60147     19.69178  0.02732  55452.05472   2.41315  0.25411  2425727.13353  45.02008  21.44032  55508.23456    51.07931       44.46449   23.00348  32.43975   40.0    0.28852  -21.55883  0.98431 
   -9.96051  0.03866  3.09746     14.05375  1.67563  1.04893   7.76069  0.10367     0.05567   8659.52636   7681.66927  1.56832         3013.71501     17.90842  0.00045  55457.33949   3.47149  0.30001  1165493.68444   45.4445  21.39446  55510.94758    51.14489       44.51904   15.63783  35.54053   48.5    0.20632   -21.5211  0.98414 
   -7.12698  0.34955  1.26605     14.14047  1.44321  1.55421   15.9225   0.0448     0.23997  10059.15082   5587.11052  0.49274         2729.32685     20.51062  0.18003  55460.17302   9.61083  5.56568   112484.99201  47.17218  21.37611  55505.52154     51.0874       44.43787   22.00788  36.27859   60.5    0.25284  -21.60775  0.94621 
   -4.41456  0.01128  2.66967     14.39675  1.97987  0.98492   9.90537  0.09182     0.01982   8241.06455   7947.13662  2.35835         2856.32561     16.37472    1e-05  55462.88544   4.01296  0.11177   210797.14759   46.3887  21.44451   55513.6606    51.15195       44.47867   23.00348  35.28299   38.0    0.21926  -21.34658   0.9966 
   -9.44135   0.0044  3.30427     14.18922  2.06679  1.39639   5.11436  0.15611     0.25574   10431.6219   6517.43707  0.53515         3117.51315     18.96336  0.00511  55457.85865   3.31988   0.0225   876635.23041  45.60317  21.32307      55512.3    51.12491       44.48337   21.32432  34.11891   42.5    0.26631  -21.55696    0.999 
    -7.2983  0.11128  1.48777     14.28793  1.74555  1.38574  14.53471    0.074     0.11683  10038.08645    5566.1664  0.45436         3547.93182     19.12231  0.00736   55460.0017   8.73646  1.61738    95271.60424  47.18674  21.39491   55513.6606    51.13626       44.44804   21.05786  40.07185   39.5    0.24578  -21.50573  0.98323 
   -8.13127  0.01255  0.84904      14.4799  1.96152  1.03931   13.1875   0.1296     0.04779   12431.2678   9075.80952  0.00121         3820.78443      16.7813    3e-05  55459.16873  12.15683  0.16551    14403.01504  48.54513  21.37242   55513.6606    51.30225        44.6894   15.63783  34.11891   28.0    0.24662  -21.58342  0.99976 
   -6.01165  0.20958  1.38779     14.46208  1.81559  0.67284   5.86854  0.25222     0.01421  11621.03256   3836.22297  0.50651          2993.7237     20.20074   0.0882  55461.28835   4.72767  1.22994    38665.73926  47.65589  21.53738  55510.94758    51.16158       44.52021   17.05945  38.38377   30.5    0.32403  -21.66208  0.98943 
   -5.86886  0.04953   1.1273     14.55181  2.02273   0.8652   7.59321  0.25124      0.0233  14168.18805   6260.44628  0.21396         2142.81262     17.49444  0.00017  55461.43114   9.09246  0.37609    18802.30225  48.19649  21.39095      55512.3    51.13576       44.47072   21.05786  37.22861   28.0    0.33501  -21.59733  0.99871 
  -14.19796  0.01027  3.64893     14.05523  1.81596  0.71429   4.02913  0.10871     0.35516   9447.09265   8718.17719  1.83779         2001.94769     16.17135    1e-05  55453.10204   2.14504  0.04137  1741005.52189  45.16282  21.41472   55513.6606    51.15855        44.5147    19.9027  36.96215   60.0     0.1827  -21.45067  0.99722 
   -3.90445  0.00955   0.9141     14.62514  1.78987  0.61892  45.06019  0.01828      0.2287   8600.56482    3490.5268  0.75872         3695.57357     19.98401  0.05355  55463.39555  19.88264  0.43033     7804.30649  48.70735  21.44503  55505.52154    51.36538       44.77409   17.05945  28.43242   34.0    0.28878  -21.35288   0.9991 
   -8.31516   0.0181  2.14162     14.36453  1.69651  0.63657  10.00355  0.11921     0.06828   9330.12633   8562.10551  1.27691         2755.21516     18.96239  0.00509  55458.98484   5.19465  0.18108   134832.92283  46.70712  21.45875   55513.6606    51.17815       44.50893   18.48107  41.22701   37.5    0.20004  -21.50036  0.99553 
   -6.28329  0.00259   1.7154     14.38902  1.82634  0.90793   7.06002  0.17476     0.37077  10529.76961   8807.74487  0.53078         3895.09885     18.13565  0.00076  55461.01671   4.66951  0.01827    83194.52072   47.1416  21.37629      55512.3    51.15289       44.51892   22.00788  32.01372   31.5    0.25406  -21.54817  0.99975 
  -10.24649  0.33229  1.87253     14.33681   1.4648  0.66382  10.85439  0.08285     0.01403   9089.45418    7233.5144  0.66962         2981.05047     19.46651  0.01626  55457.05351   5.34944  3.60677   101117.84438  46.88494  21.43921      55512.3    51.16366       44.53984    19.9027  32.69729   42.5    0.21029   -21.3758  0.92217 
   -7.77144  0.03894  2.66837     14.18613  1.67051   1.2725  36.32107   0.0216     0.02855   7650.17107   7509.05183  1.20731           3205.183     18.46551  0.00162  55459.52856  12.68026  1.41442    468710.3721   45.9683  21.48068  55510.94758     51.1364       44.50814   17.05945  35.54053   46.5    0.21573   -21.2975  0.94698 
   -6.11997   0.1127  1.56011     14.40077  1.91144  1.06292  13.40031  0.06283     0.02006  10171.31237   7718.18799  0.32597         3962.18687     19.91553  0.04574  55461.18003   8.26982  1.51016     68224.9245  47.32995  21.38125      55512.3    51.26416       44.69967   17.05945  29.85404   33.5    0.29193  -21.53344  0.98508 
     -8.502  0.01092  2.87774     14.24792  1.88513  0.97954   4.82696  0.18953     0.14077  11495.39652   4719.77241  0.50657         2556.29883     17.74394  0.00031    55458.798   3.80495   0.0527   462834.12673  45.96066  21.39519  55516.37362    51.14986       44.49451   24.16756  36.96215   38.5    0.28613  -21.58179  0.99797 
   -6.74754  0.01733  0.92099     14.27817  1.63618  1.27225   15.6828  0.10354     0.02167  11852.75094   5805.80381  0.07443         4176.85201      19.5571  0.02004  55460.55246  13.14283  0.27182    35794.58011  48.00035  21.36518      55512.3    51.19896       44.55724   22.47948  31.54213   33.0    0.25208  -21.59081  0.99911 
   -8.66768  0.22178  3.36822     14.10909  1.56226  0.84796   4.58968  0.12617     0.03533   9634.81796   5998.75222  1.90781         2529.38765     19.27175  0.01039  55458.63232   2.54154  1.01791      995844.62   45.4096  21.37122      55512.3     51.1841       44.56683   17.05945  35.54053   44.0    0.24943  -21.43814  0.93291 
  -10.41845  0.23881  3.78332     14.52658  1.61189  0.22509   2.79482  0.14229     0.25971  10363.46019   7870.66317  1.27738         2946.65844     18.14081  0.00077  55456.88155   1.79057  0.66743   189558.00092  46.04269  21.37375      55512.3    51.24333       44.61089   18.48107  35.54053   58.0    0.23558  -21.48377  0.94547 
   -8.87902  0.00939  1.86946     14.35298  1.52369  0.57126   6.60343  0.18301     0.01215  11312.78449   4699.92976  0.52804         2172.08834     19.38392  0.01345  55458.42098   5.04122  0.06198    97314.04127  46.92014  21.30241  55510.94758    51.13808          44.51   23.00348  32.43975   29.0    0.35149  -21.50696  0.99863 
   -5.15465  0.05236  2.17627     14.40974  1.83834  0.83124   5.73035  0.19774     0.06747  10499.64154   7421.60531  1.39817         2734.65472     17.71047  0.00029  55462.14535    3.7684  0.30005   122516.70084  46.76965  21.48225  55516.37362    51.15759       44.48277   23.00348  36.70461   35.5    0.23964  -21.48309  0.99331 
   -4.34815  0.13462  1.10869     14.81267  1.81066  0.33015  17.57078  0.13989     0.04778  13394.84601   3298.18775  0.75288         2960.81151     19.67593  0.02634  55462.95185  18.80588  2.36545     4896.97715  48.74713  21.37884   55513.6606    51.15028        44.4711   25.57107  35.55864   41.5    0.18802  -21.69476  0.98939 
   -5.72561  0.34781  1.06046     14.32373  1.42444  0.95005    12.292  0.10561     0.02882  13267.07878   8429.81596  0.01732         4714.17564     16.70248    3e-05  55461.57439  12.90626  4.27531    33495.35786  47.84652  21.41664      55512.3    51.10974        44.4314   26.52109  36.03023   32.5     0.2824  -21.62628  0.97559 
  -13.53879  0.00283  3.75682     14.32639  1.86174  0.48844   3.78716  0.15578     0.07774   11198.0732   6396.97364  0.25404         3190.86987     18.70823  0.00284  55453.76121   2.83287  0.01071   542740.35747  45.65453  21.33981      55512.3    51.33314       44.72233   20.85508  30.32328   46.0    0.25536  -21.52195  0.99927 
   -5.79425   0.1029  1.70779     14.61363  2.03896  0.64331   7.39678  0.21683     0.05854  13553.52382   8972.42056  0.18782         2992.14209     18.90946  0.00451  55461.50575    8.1054  0.76111     32721.0121  47.59856  21.40533      55512.3    51.20668       44.59269   17.05945  32.69729   28.0    0.26822  -21.62374   0.9917 
   -6.90905  0.04945  2.59264     14.18242  1.60942  1.11777   6.10745  0.14791     0.11826   8960.98586   7447.82309  2.12261         2677.55399     16.76258    3e-05  55460.39095   2.92549    0.302   433643.87489   46.0109   21.4285  55516.37362    51.13193       44.44587   23.67785  37.45186   40.5    0.22245  -21.37593   0.9882 
   -8.07064  0.00144  1.19839     14.32812  2.03148  1.37938   3.90362  0.29194      0.0279  11327.02122   3059.83086  0.07297         2573.85786     20.44304  0.15409  55459.22936   2.98762  0.00564    59784.03854  47.64288  21.33367      55510.2    51.12745       44.52267   22.47948  31.54213   28.5    0.34493  -21.68694  0.99997 
   -7.08601  0.36482  1.21946     14.54758  1.78471  0.46653   9.69097  0.14206     0.01131  13884.63332   9266.71959  0.14331         2113.76814     20.67053  0.26017  55460.21399  11.14457  3.53544    19794.91495  48.05153   21.4175  55510.94758    51.13801       44.45282   26.26364  38.38377   24.5    0.38544  -21.94684  0.97633 
   -6.47646  0.01035  1.71505     14.54804  1.52723  0.44935   5.21855  0.23022     0.06802  13500.10754   8636.54694  0.12103         4522.32777     17.41853  0.00015  55460.82354   5.67351    0.054     33434.9231     47.46  21.42491      55510.2    51.07157       44.48985   24.10396  29.17048   26.5    0.36415   -21.6152  0.99902 
   -9.76791  0.00621  1.46966     14.45908  1.41555  0.36644   8.39423  0.22807     0.01227   8771.93471   4563.02812  1.24243          3112.9279     18.27819  0.00105  55457.53209     3.853  0.05215     34278.3556  47.55031  21.40793      55512.3    51.15351       44.50421   22.00788  34.85697   40.0    0.18075  -21.44715  0.99921 
   -9.42881  0.16705   1.8983      14.5519  1.59726  0.42004   5.70521  0.25307     0.19772  13139.52046   3709.39443  0.01402          2980.6368     17.86857  0.00041  55457.87119   5.87567  0.95308    42083.94179  47.29137  21.38595      55512.3    51.24646       44.59567    22.8007   31.2209   36.0    0.27867  -21.59226  0.98027 
  -10.96676  0.34005   3.5141     13.97695  1.64727  1.22732   3.51728  0.11718     0.16233    9923.8354   8119.83481  0.49989         3324.78875     18.88611  0.00427  55456.33324    2.0663  1.19606  2100409.33643  45.07168  21.39803      55512.3    51.17536       44.59197   17.05945  31.27566   54.0    0.25181  -21.46456  0.92133 
   -2.57032   0.2469  1.29891     14.60217  2.00186  0.90952  20.46922  0.06314     0.10949  10224.10117   5151.98654  1.45246         2905.50912      18.6382  0.00242  55464.72968  12.76376  5.05381    19591.51189  48.05105  21.46017      55510.2    51.13143       44.53189   17.76348  33.41488   55.0    0.19339  -21.50227  0.97764 
   -9.64838  0.25323  2.39695     14.27951  1.79641  1.09378   4.57304  0.22348     0.06765  11413.08238   9096.75262  0.19672         5210.99367     17.82532  0.00037  55457.65162   3.55335  1.15804   264555.52553  46.34142  21.27645   55513.6606    51.19991       44.57218   21.58185  31.01813   30.0    0.28414  -21.54879  0.96808 
    -9.1832  0.00206  3.39325     13.69911  1.72013  1.18171   2.83831   0.0378     0.02017   7176.12573    8670.9995  1.13579         3128.33454     16.92915    5e-05   55458.1168    0.8719  0.00583  7351793.79077  44.57678   21.4247      55512.3     51.1494       44.53445    19.9027  32.69729   54.0    0.11054  -21.30756  0.99962 
   -7.48432  0.00123  1.26872     14.57639  1.97168  0.63366  11.54175  0.12553     0.02027  12217.29625   8208.52267  0.09888          4562.2692     20.09965  0.06988  55459.81568  10.27659  0.01418    20730.03025  48.04035  21.33931      55512.3    51.17289       44.54352   19.95746  35.48577   28.5    0.30185  -21.68043  0.99992 
   -6.98713  0.19131  0.99959     14.46434  1.85863  0.89071  16.16438   0.1242      0.0117  13528.28362    5015.3056  0.14754         2377.52198     19.75848  0.03186  55460.31287  17.64703  3.09244    20322.60463  48.23042  21.42842      55510.2    51.13863       44.45907   26.26364  36.96215   32.5    0.29308  -21.75998  0.99067 
    -7.2626   0.0418  2.30834     14.63374  2.16396  0.61267   3.67707  0.25982     0.20836  10565.92922   6516.76417  0.35648         3114.88051     16.35643    1e-05   55460.0374   2.44875  0.15372    57832.97612  47.11532  21.37749   55513.6606    51.13147        44.4563   21.58185  39.54785   34.0    0.29605  -21.43235  0.99699 
   -4.76962  0.00944  1.37325     14.46195  1.68222  0.69141   5.43701  0.21341     0.33855   9055.25599   3729.43447   1.0624         3217.63522     19.13862  0.00764  55462.53038   2.65943  0.05133    35098.68583  47.67394  21.38996  55510.94758    51.23272       44.67476   14.21621  31.27566   38.5    0.21519   -21.4273  0.99953 
   -8.85292  0.00185  3.43122      14.2743  1.95017  0.80711   5.39176  0.12583     0.02643   8771.33788   7191.98642  1.41094         2969.90955     18.16741  0.00082  55458.44708   2.47451     0.01   602803.47141  45.70785  21.40737   55513.6606    51.17504       44.51533   22.74594  34.11891   40.5    0.24595  -21.47951  0.99948 
  -10.63551  0.01676  2.81559     14.16152  1.59066  0.85133   4.13138  0.25545     0.08305   10743.8104   7049.55511  1.08476         2536.48202     16.74127    3e-05  55456.66449   2.84472  0.06925   556526.60124   45.8258  21.30233   55513.6606    51.24698       44.48837   22.74594  36.96215   39.0    0.23151   -21.4823  0.99671 
   -7.28232  0.02049  1.31596     14.16586  1.57214  1.37671  15.71235  0.07764     0.01551  10212.63159   6150.52388  0.35701         3369.95435     19.75161  0.03136  55460.01768   9.77561  0.32194   117779.78198  47.15578   21.4362      55512.3     51.0892       44.40605   23.67785  38.87348   35.0    0.24802  -21.57056  0.99683 
  -10.74704  0.01924  2.21187     13.90113  1.47745  1.27412   8.35659  0.10197     0.07564   9884.68979   6560.50956  1.37569         2471.09511     20.57784  0.21017  55456.55296    4.8706  0.16077  1058242.41717  45.72425  21.39574      55512.3    51.25564       44.65852   21.05786  31.54213   49.0    0.21685  -21.73317  0.99473 
   -5.25095  0.00478  1.37114     14.39295  1.83394  0.95825  14.91005  0.11363     0.11798  10803.49707   3222.59662  0.78226         3626.24049     18.84215  0.00386  55462.04905   10.3809  0.07129    52415.19056  47.53861  21.43634  55516.37362    51.19966       44.50616   21.37908  41.17225   38.0    0.21766  -21.58719  0.99943 
   -7.56857  0.01988  2.16133     14.28441  1.66323  0.88646  11.11042  0.10559     0.03573   9625.79064   5438.13804  0.98398         3304.11702     17.30258  0.00011  55459.73143   6.14088   0.2209   194709.94254  46.53096  21.45592      55510.2     51.3227       44.76333   14.21621  30.36921   39.5    0.21005  -21.47573   0.9943 
   -4.03751  0.25071  1.06533      14.4541  1.87842  1.24642  25.80936  0.04136     0.31194  11780.09353   4849.63957  0.75264         2983.04684     20.42537  0.14794  55463.26249  21.36495  6.47064    24455.06716   48.0993  21.36467      55510.2    51.13003       44.52444   19.43346  30.32328   54.0    0.27757  -21.73342  0.98089 
   -6.30272  0.00297  1.68328     14.14762  1.55657  1.54365  11.16324  0.12481     0.19387   9459.25871   6114.77627  1.30952         2939.01337     17.47717  0.00017  55460.99728   5.95843   0.0331   207513.51005  46.69166  21.45331      55512.3    51.17078       44.43977   19.16464  43.38669   41.0    0.19994  -21.46462  0.99943 
  -11.86714  0.03265  3.82699     14.05614  1.85604  1.12894   3.37436  0.16129     0.03244  10114.83989   4020.47543   0.9615         2826.83666     18.68153  0.00267  55455.43286   2.05938  0.11017  1949137.27305  45.08187  21.47072      55512.3    51.15088       44.53382    19.9027  35.54053   38.5    0.29634  -21.46703  0.99225 
   -9.72719  0.08173  2.27972     14.46212  1.46673  0.37253   5.71206  0.15345     0.02241  11818.29209   5125.51177  0.44169         2006.39228     20.02294  0.05857  55457.57281   4.75915  0.46685    84272.02172  46.79375  21.38696   55513.6606    51.08804       44.45826   25.58918  32.69729   30.5    0.35543  -21.55995  0.98384 
   -9.68095  0.00898  1.99156     14.32413  1.86323  0.88508   5.76761  0.17796     0.01404   9156.70572   6365.37759  0.31289         4521.34918     19.23012  0.00944  55457.61905   2.88471   0.0518   154246.92309  46.75251  21.35003      55508.2    51.13697       44.49831   22.00788  34.85697   32.0    0.29888   -21.4659  0.99904 
   -7.79641  0.01369  1.58101     14.68858  1.70927  0.38492   8.25324  0.17214     0.41552  12765.83032   5404.81791  0.03391         3562.71296     18.21129   0.0009  55459.50359   8.02324  0.11303    16647.09084  47.88245  21.34735   55513.6606    51.10788        44.5329   25.09956  28.17488   32.5    0.28078  -21.55736  0.99858 
  -11.81257  0.30133  3.01789     13.75922  1.57882  1.27422   2.59485  0.11779     0.12166   9546.74558   9667.06188  0.63762         2702.82935     20.30956  0.11331  55455.48743   1.41075   0.7819  4046766.89087  44.90066  21.39099      55512.3    51.31459       44.62889    23.4295  37.70021   55.0    0.16414  -21.58215  0.95735 
