 texplosion  fnickel     Pspin  log(Bfield)      Mns  thetaPB   mejecta    kappa  kappagamma      vejecta  temperature    alpha  cutoff_wavelength  log(nhhost)      A_V         MJD0   kenergy  mnickel            TSD   log(L0)  Peak_mag     Peak_MJD  log(E_rad)  log(Peak_lum)  Rise_Time    E_fold  tau_1  delta_m15     r_peak     frac 
   -8.18777  0.03486   7.30226     14.32031   1.3445  1.38384   4.39428  0.02055     0.12567   7743.60406    5348.0359   2.7833         2281.25039     17.44315  0.00015  56002.11223   1.57181  0.15319  1522902.50721  44.48782  21.98162  56027.36177    50.45757       44.02497   11.98234  17.30782   41.0     0.5638  -20.04548  0.94024 
   -5.11057    0.003   6.53991     14.54102  1.39711  1.55144    1.1896  0.14594     0.23776   8726.08186   7031.22462  4.88009         2271.37872      18.2607  0.00101  56005.18943   0.54034  0.00357   459348.82564  45.12079  22.09267      56029.4    50.41939       44.05003    7.98822  19.97056   23.0    0.78896  -20.07661  0.99889 
   -4.30066  0.04846   1.55872     14.97601  1.34074  0.65704   2.95659  0.09503     0.29776   9386.88601    7988.6917  1.12675         3040.06074     16.91793    5e-05  56005.99934   1.55403  0.14328     3378.09049  48.48198  22.00548      56028.3     50.3322       44.00892    9.31959  15.97645   18.0    0.83336   -20.8592  0.99946 
   -9.14628  0.04159   5.31385     14.79487  1.88823  1.01745   3.93463  0.03614     0.02513   8708.34039      5806.07  0.04723         2581.81556     17.05093    6e-05  56001.15372   1.77993  0.16365   127332.35458  45.98914  22.03309      56028.3    50.45452       44.13122    9.31959  16.04127   25.5    0.81727  -19.96859  0.97962 
   -4.26628  0.02978    3.8579     14.84911  1.37194  0.70964   6.05729  0.03434     0.01896   9275.99979   9268.35401  3.90591         2020.42419     16.67399    3e-05  56006.03372   3.10904  0.18041    37986.54174  46.65385  22.02276      56028.3      50.405       44.11229    7.98822  15.97645   18.0    0.84748  -20.04637  0.98268 
   -5.11549  0.02358   2.26912     15.06757  1.30067  0.39545   4.60934  0.04164     0.22247     9807.308   6829.60582  0.91073         2134.62989     16.92354    5e-05  56005.18451   2.64463  0.10869     4555.78414  48.01274  22.06162      56029.4    50.37692       43.96849   13.31371  18.63919   18.0    1.12254  -20.09257  0.99753 
   -4.31276  0.00379   0.92739     15.02499  1.80318  1.11604   4.10821  0.07487     0.04349  11153.49898   5210.43379  0.98809         2059.21571     19.33112  0.01191  56005.98724   3.04861  0.01556     1283.48223  49.48197  22.01586      56027.4    50.29509       43.93444   11.98234  15.97645   17.5    0.79413  -21.41686      1.0 
   -3.28874  0.02476   4.81157     14.82529  1.69011  1.53733   4.26341  0.06267     0.04839  10261.56625   3680.32207  3.22801          2427.6494      16.0467    1e-05  56007.01126   2.67801  0.10556    81230.40923  46.22247  22.02304      56027.4     50.4662        43.9227   10.65097  19.97056   20.0    0.84509  -20.09483  0.98838 
   -8.63974  0.00167   6.71568      14.6864  1.89558  1.47941   3.00918  0.04569     0.03226   8084.62676   8559.24478  1.39129         2086.51015     16.03766    1e-05  56001.66026   1.17326  0.00503   336464.06059  45.36547   22.0085      56028.3    50.42581       44.04172   10.65097  15.97645   23.0    0.75395  -19.98519  0.99896 
    -8.6558  0.09013   5.60125     14.51556   1.5244  1.30745   1.54873   0.1004      0.0193   8831.40039   7652.99896  1.06972         2120.83708     20.23031  0.09441   56001.6442   0.72055  0.13959   413394.64786  45.33901  21.99647      56028.3     50.6399       44.34682    9.36846  14.93429   21.0    0.79768  -20.14746   0.9729 
   -6.08463  0.06634   7.36642     15.10448  1.71594  0.41508    3.4851  0.06063     0.19168   8247.79958   7129.57938  3.62664         2585.13702     16.90353    4e-05  56004.21537   1.41423   0.2312    53440.87642  46.04096  21.97649      56027.4    50.62458       44.35135    7.43972  13.14217   25.0    0.68024  -20.07381   0.9376 
   -8.40809   0.1793   3.16985     15.15009  1.81625  0.48665   5.06885  0.02512     0.07163   7469.02476    6774.9898  0.23478         4814.59934     18.55916  0.00201  56001.89191    1.6868  0.90885     8489.67175  47.59705  22.00137      56028.3    50.30642       43.89082   10.65097  18.63919   42.5    0.67132  -19.92087  0.97005 
   -6.91743  0.17101   2.59044     14.98339  1.88532  1.05398   2.90949  0.07363     0.25563   8768.49408   9781.10656  0.57447         3125.43416     16.56491    2e-05  56003.38257   1.33442  0.49757    12681.22605  47.61432  22.05794      56028.3    50.45684       44.08179   10.65097  17.30782   17.5    0.84445   -20.1472  0.99384 
   -7.02141  0.31736   8.95719     14.62427  1.37626  0.74518   2.60841  0.04108      0.0741    8555.3013   6529.23659  4.73331         2238.29526     18.71799   0.0029  56003.27859   1.13887  0.82779   578512.05897  44.74089  22.06315      56028.3    50.39062       44.01759   11.98234  17.30782   45.0    0.60095   -20.0754  0.66765 
   -6.12019  0.02766   7.01173     14.80354  1.69755  0.94883   8.57915  0.02271     0.02927   7394.95332   5208.57996  3.83799          2680.1088     19.55922  0.02013  56004.17981   2.79861  0.23733   191515.61129  45.52481  22.06717      56031.3    50.43903       44.07888    7.98822  19.97056   26.0    0.66018  -20.06579    0.941 
   -7.97727  0.00735   7.64317     14.57863  1.71963  1.55224   3.76262  0.03618     0.03013   7325.86223   4810.13903  2.58758         2281.93472     18.73867  0.00304  56002.32273   1.20458  0.02766   649441.01073  44.92519  21.97721      56028.3    50.49332       44.15583   10.65097   14.7099   30.5    0.65136  -19.98406  0.99145 
   -7.38506   0.0956   9.06389     14.66557  1.73682  1.20871   8.35525  0.01408     0.03768   8552.11043   3875.06575  2.75158         2136.37464     17.10604    7e-05  56002.91494    3.6453  0.79873   618110.13758   44.8029  21.99472  56027.36177    50.41857       43.97683   11.98234  19.97056   43.0    0.59505  -20.05646  0.74329 
   -7.53171  0.07877   6.46968      15.0913  1.64594  0.39959   8.62422  0.01725     0.37629   7694.87086    7740.2502  1.73218         2473.33001     19.75107  0.03132  56002.76829   3.04614  0.67937    42013.32023  46.24011  22.03242      56028.3     50.3606       43.90441   11.98234  18.63919   32.0    0.65093  -20.01885  0.86221 
   -6.92597  0.00236   8.13051     14.93457   1.9073  0.70396   2.22125  0.07897     0.08846    7647.3889   3301.26842  3.20881          2674.2409     16.19404    1e-05  56003.37403   0.77491  0.00524   158243.70503   45.5297  22.02749  56027.36177    50.45767       43.97926   10.65097  19.97056   24.0    0.75693  -20.05406  0.99843 
   -7.89318   0.0084   3.83018      14.7051  1.65488  1.17523   7.07924   0.0267     0.01088   7431.11577   8869.70756  1.41959         2557.86537     20.35667   0.1263  56002.40682   2.33196   0.0595    87664.31072  46.37835  22.02295      56028.3    50.32274       44.02839    6.65685  18.63919   20.5    0.71423   -20.0634  0.99551 
   -7.40425  0.01902    3.1274     14.76987  1.61636  1.23463  10.31596  0.01883     0.04028   7747.68471    9680.8267  0.74077         3291.04837     19.44799  0.01559  56002.89575   3.69386  0.19618    42362.47971  46.86004  21.99879      56028.3    50.44137        44.1739    6.65685  16.04127   18.0    0.78352  -20.01209  0.99181 
  -12.15064  0.02233   8.81662     14.62385  1.74006  0.72125   8.64158  0.01567     0.01038    7503.5944    6626.5069  3.69305         2207.93843     16.94417    5e-05  55998.14936   2.90241  0.19297   710035.53051  44.76752  22.02382      56028.3    50.46312       44.14441    9.31959   14.7099   39.0    0.48807  -20.01884  0.92641 
   -6.29346  0.03777   1.77612     14.96538  1.80525  1.03956   4.69586  0.04717     0.25471   9346.46272   8537.73426  0.60989         2102.17088     17.52375  0.00019  56004.00654   2.44702  0.17738     6202.15544  48.23389  22.03999      56028.3    50.35825       43.88599    9.31959  19.97056   16.5    0.92958  -19.96281  0.99941 
   -8.83488  0.00514   2.30246       14.731   1.6529  1.52731   9.17292   0.0169     0.31905   8091.37297    6305.4783  0.08659         2599.19183      18.0934  0.00069  56001.46512   3.58244  0.04717    28082.61089  47.31427  22.01596      56028.3    50.66662       44.37446   10.65097  14.24916   21.0    0.93326  -19.79518  0.99921 
   -6.33656  0.00255   1.87594     15.00519  1.83058  0.87985   7.97322  0.02742     0.04855   8566.87815   8809.47586  0.63718         2610.98751     16.06192    1e-05  56003.96344   3.49065  0.02034     5840.52071  48.21854  21.99925  56027.36177    50.26478       43.87998   10.65097  15.97645   16.0    0.95507  -20.34816  0.99991 
   -8.12437    0.031   6.50981     14.68985  1.28065  0.59243    4.1906  0.03188     0.23933   7600.46017   7913.82254  1.88175         2817.62298      16.6368    2e-05  56002.17563   1.44405  0.12992   210225.64257  45.42645  22.00493      56027.4     50.2962       43.92262   10.65097  17.30782   26.0    0.73288  -20.01962  0.95633 
   -2.85275  0.04355    1.6774     14.88848  1.31741  0.89598    3.9374  0.05565      0.3319   8926.83261   7220.02483  1.64824         2777.95588     18.94824  0.00493  56007.44725   1.87168  0.17145     5752.44258  48.17944  22.05297      56027.4    50.27891        43.8867   10.65097  18.63919   17.0    1.00055  -20.37921  0.99921 
    -9.1988  0.00382   9.18855     14.43953  1.65282   1.5367   1.62609  0.06768     0.02709   7661.47191   5788.99692  4.08616         2448.62285     17.14731    8e-05   56001.1012   0.56937   0.0062  1711846.88441  44.32711  21.97442  56027.36177    50.32756       43.93183   13.31371  17.30782   31.5    0.57783  -20.02535  0.99701 
   -7.96015  0.00367   9.60033     14.37173   1.6951  1.32421   4.05002   0.0164     0.03235   6845.92627   8356.86035  4.46465         2629.81952     16.11411    1e-05  56002.33985   1.13227  0.01488  2618929.73738  44.11534  22.02753      56029.4    50.36698       43.94752    9.31959  18.63919   41.0    0.51233  -20.04964  0.99244 
   -3.91725  0.01083   1.38502     15.03495  1.68492  0.85145  12.86127  0.02214     0.12016   9522.85477   7271.55836  2.23316         2162.74425     18.95861  0.00505  56006.38275   6.95737  0.13928     2555.06082  48.80511  22.00204      56028.3    50.34825       43.98841   11.98234  15.97645   19.0    0.78055  -20.24963  0.99983 
   -7.52867  0.04346   3.07331     15.04803   1.9007  0.72595   3.95461  0.06026     0.01112   9101.00708    9773.1992  0.68341         2493.53977     16.46762    2e-05  56002.77133   1.95393  0.17186    13362.61679  47.44665  22.01522      56028.3     50.3718        44.0188    6.65685  17.30782   15.5    0.92405  -20.00024  0.99548 
   -6.09155  0.02172   1.79009     15.01435  2.10333  1.30223   6.11567  0.03752     0.35225   9880.67608   6272.19662  0.94679         2127.77006     20.06932  0.06517  56004.20845   3.56159  0.13281     5858.39015  48.31823  21.97875      56028.3    50.42936        44.1663    7.98822  14.64508   17.5     1.0024  -20.13103  0.99971 
   -7.42005  0.01118   7.04489     14.77485  1.65543  0.63298   4.55523  0.03682     0.04842   7996.73546   7547.19426  3.28177           2351.647      20.2979  0.11031  56002.87995   1.73765  0.05093   215163.45833  45.45924  21.99972  56027.36177    50.45037        44.1167   10.65097  15.97645   27.5    0.64069   -20.1689  0.98593 
    -6.3047  0.00942   4.02279     14.87729   1.8358  1.00868   1.69172  0.10303     0.05852   9204.16748   9600.15208  0.43629         2188.40895     18.55644    0.002   56003.9953   0.85492  0.01594    48542.55088  46.63749  22.03789      56028.3    50.34539       43.97122   11.98234  17.30782   15.0    1.03958  -20.05579  0.99894 
   -9.79456  0.01159   6.35971     14.51662   1.6046  1.56744   3.48408  0.03425     0.28724   8778.59789   3733.59944   0.3238         2478.71358     19.08451  0.00675  56000.50544   1.60164  0.04039   558227.53157  45.12053  22.02971      56028.3    50.37125       44.07684    6.65685  17.30782   30.0    0.69402  -20.04113  0.99044 
   -9.52358  0.02678   5.26805     14.83597  1.90095  0.88184   2.89066  0.05088     0.11138   9171.70071   5229.15977  0.02693         3216.68085     18.18585  0.00085  56000.77642   1.45052   0.0774   104266.74886  46.08637  21.97405  56027.36177    50.52103       44.05867   11.98234  17.30782   24.5    0.87269  -20.01096  0.99052 
  -10.60541  0.01312   8.09243     14.61943  1.80053  1.00958   2.92129  0.05104     0.05853   7960.56203   9781.16003  1.67445         2511.35423     19.32163  0.01165  55999.69459    1.1043  0.03831   631699.31281  44.90758  22.01674      56029.4    50.54366       44.19916    7.98822  17.30782   24.0    0.61728  -20.05495  0.98761 
   -4.55955  0.10306   1.24777     15.05686  1.51812  1.42472  17.53213  0.01045      0.2335  10040.63633   4927.03175   2.0556          2273.3435     17.94876  0.00049  56005.74045  10.54349  1.80688     1689.13469  49.03022  22.02027      56028.3     50.3944       43.91747   13.31371  18.63919   66.0    0.55373  -20.03435  0.99925 
   -9.60044  0.04388   7.80556     14.60077  1.92249  1.23649   7.44855  0.01511     0.03108   8648.58004   3538.56051  1.46648         2112.09345     20.33628  0.12051  56000.69956   3.32345  0.32686   683837.56374  44.93295  22.02572      56028.3    50.47969       44.13429   10.65097  15.97645   38.5    0.58964   -20.1702  0.91734 
   -6.24128   0.0035   2.36466     15.15588  1.87582  0.55111   9.59762  0.02414     0.06807   8746.26647    8113.5263  0.59357         2504.88876     19.81483  0.03627  56004.05872   4.37962  0.03356     4750.88039  48.11773  21.97538  56027.36177    50.35469        44.0228    9.31959  15.97645   18.0    0.96361  -20.01721  0.99964 
    -3.8379  0.00342   5.31454     15.14351  2.00171  0.61133   3.74892  0.06309     0.14593   8157.82306   8773.84319  4.48825         2293.46927     18.65371   0.0025   56006.4621   1.48827  0.01283     27109.2508   46.6862  21.98066      56027.4    50.56679       44.26498    7.98822  13.05441   20.0    0.73994  -20.01643  0.99862 
   -5.88783  0.01924   2.88489     14.81756  1.55355  0.99985   4.45622  0.05579     0.18256   9355.53814   5522.93506  0.91777         2853.36526     20.09977   0.0699  56004.41217   2.32665  0.08572    27814.91486  47.09563  21.99212      56028.3    50.38183       44.09642    7.98822  14.64508   19.5    0.91706  -20.20708  0.99706 
   -3.58772  0.01986   4.05418     14.75367  1.56617  1.48512    3.6419  0.05225     0.01659   9797.31796   5843.86171  1.46554         2431.85024      19.7459  0.03095  56006.71228    2.0853  0.07232    74323.47073  46.37675  22.02321      56028.3    50.31017       43.88743   10.65097  18.63919   18.0    0.99023  -20.10809  0.99381 
   -8.10417  0.00567   6.76353     14.84987  1.50063  0.49239   2.03776  0.07576     0.01424   7887.57119   9714.93026  2.23617         2368.88098     17.10262    7e-05  56002.19583   0.75625  0.01156   127263.39405  45.68007  22.05553      56029.4    50.42264        44.0868    9.31959  15.97645   19.0    0.74568  -20.00134  0.99656 
   -4.06486   0.1229   7.12042     14.75911  1.68302  1.51915   2.08803  0.07765     0.01557   7994.58603   5565.35794  2.94008         2755.91783     17.16645    8e-05  56006.23514   0.79608  0.25662   240263.62292  45.40924  22.04643      56030.3     50.4818       44.15708    9.31959  16.04127   21.5    0.81042  -20.04715  0.93421 
   -7.45878  0.20041  12.25033     14.70103  1.79081  1.48095   5.86931  0.01877     0.07156   8139.41323   8387.54102  4.09353          2546.7338     18.50023  0.00176  56002.84122   2.31953  1.17624   988803.44602  44.35049  22.02331      56027.4    50.43525       43.88149   13.31371  23.96467   43.5    0.58244  -20.08783  0.52898 
    -5.6396  0.04115   7.61451     14.78062  1.73079  1.11372   5.26997  0.03346     0.01561   8020.81851   3535.74484  3.59813         2520.97396     16.15751    1e-05   56004.6604   2.02242  0.21686   255922.58844   45.3357   22.0106      56028.3    50.69251       44.26474    5.51098  15.79095   25.0    0.72321  -20.01489  0.93827 
  -11.21685  0.05386   2.99549     14.66697  1.52232  1.45005  10.24711  0.01985     0.06785   8451.32954   7466.45011  0.06799         2004.46415     19.36086  0.01275  55999.08315   4.36595  0.55192    58792.12109  46.72909  22.04721      56030.3    50.48697       44.18566    6.10835  17.85632   29.0    0.65423  -19.83661  0.97543 
    -2.9136  0.00174   1.61377     15.08081  1.83468  0.91142  12.89755    0.021     0.27631   8717.79779   4018.87582  1.63225         2810.54193     19.53819  0.01918   56007.3864    5.8472  0.02245     3057.98979  48.63129  22.01093      56027.4    50.43583       44.16507    5.32548  16.04127   18.5    0.84854  -20.24103  0.99996 
   -6.94665   0.4681   8.79789     14.81589   1.6849  1.38444   5.08757  0.02481      0.0704   8264.86936   3239.83892  4.43118         2157.97008     20.43374  0.15082  56003.35335   2.07305  2.38149   282728.73942  45.15529  22.05733      56029.4    50.55781       44.15605   10.65097  15.97645   76.0    0.46926  -20.20553   0.4995 
   -6.95722  0.00222   1.80037     14.95896  1.93809  1.17665   2.37151  0.10013     0.42443   9038.90958   5009.98752  0.48016         2303.27653     17.84305  0.00039  56003.34278   1.15581  0.00526     7046.86115   48.1975  22.02567      56028.3    50.26064       43.92553    9.31959  17.30782   17.5    1.02767  -20.11438  0.99998 
   -9.79808  0.00108    6.1326     14.74335  1.72567  0.78478   1.50928  0.10176     0.01584   8852.32821   3389.80631   0.2955         2730.96996     19.04597  0.00618  56000.50192   0.70553  0.00163   196502.75393  45.63715    22.029      56029.4    50.51758       44.23253    6.84235   16.7264   20.0    0.93229  -20.05209  0.99968 
   -7.04919  0.00247   8.08579     14.74475   1.7634  0.87356   2.89547  0.05547     0.03722   9322.19626   7365.90311  3.93682         2005.63949     16.51546    2e-05  56003.25081   1.50101  0.00716   346824.54546  45.15964  22.03208      56027.4    50.52787       44.11025   11.98234  15.97645   24.0    0.73632  -20.07804   0.9976 
   -5.42827  0.09152    5.3298     14.96046  1.81915  1.12341   8.25708  0.02439     0.10504    8128.2467   6568.56531  2.51429         2703.18815     19.12571  0.00742  56004.87173   3.25422  0.75572    57567.67213  46.31511  21.99105      56027.4    50.35776       43.88985   11.98234  18.63919   29.5    0.65508  -20.03812  0.91718 
   -8.76314  0.00738    9.2788     14.77744   1.9562  0.69046   1.69478  0.06693     0.10823   8064.63291   9685.05805  2.20572         2365.36536     19.44722  0.01556  56001.53686   0.65752   0.0125   435835.79643  44.98595  22.07529      56028.3    50.36698        43.9462    9.31959  18.63919   26.5    0.60186  -20.05652  0.99526 
   -5.96882  0.01079   5.69504     14.89616  1.88517  1.00144   5.91163  0.02785     0.01623   7065.68778   4285.98163  1.47009         2981.89238     17.45261  0.00016  56004.33118   1.76053  0.06378    91587.84782  46.07137   22.0206      56028.3    50.47861       44.16861   10.65097  15.97645   22.0      0.771   -19.9687  0.99096 
   -7.39098  0.01474   7.28068      14.6817  1.67788  0.98317   1.30822  0.11751     0.14306   9092.57203   8919.43402  2.08089         2142.26534      18.4388  0.00153  56002.90902   0.64518  0.01929   357707.43989  45.21573  21.94882      56028.3    50.50756       44.21587    4.77698  16.12903   21.0    0.75361  -20.07585  0.99439 
   -3.04062  0.07765   3.61851     14.75209  1.41712  1.24757   1.83718  0.13427     0.06419   9092.68686     3900.341  3.57153         2366.59665      18.7754  0.00331  56007.25938   0.90608  0.14266    53962.57695   46.5711  22.03225      56029.4    50.49988       44.17966    6.10835  17.32378   21.0    0.82879  -20.05684  0.98964 
   -9.05292  0.35405   9.32446     14.46211  1.62091  1.30549   2.09834  0.03619     0.09731   7071.52282   9481.06756  1.87469          2521.6459      16.4166    1e-05  56001.24708   0.62594  0.74293   1558105.1919  44.34676  22.00482      56027.4    50.41542       44.05513   11.98234  15.97645   43.5    0.45246  -19.97031  0.72442 
   -6.80934  0.00484    2.0641        14.92  1.82735  1.22292   9.45028  0.03115     0.01841   9846.93229   7095.78962  0.42754         2234.49676     18.22346  0.00093  56003.49066   5.46605  0.04579    10449.49068  47.88211  22.01028      56028.3    50.50842        44.0009    9.31959  19.97056   17.0     1.0032   -20.4415  0.99972 
   -9.18338  0.01704   4.01182     14.98691  2.10505  0.65946   2.81114  0.03863     0.02612     7756.559   8628.64423  0.04372         4294.88436     19.46068  0.01605  56001.11662    1.0089   0.0479    33415.14151  46.86148  22.03611      56028.3    50.30825       43.84975   11.98234  18.63919   22.5    0.80711  -19.93238  0.99724 
   -7.44475  0.06386   7.29803     14.55575  1.34224  0.96219   7.10191  0.02104     0.13031   7912.80484   9209.76884  3.08752         2447.91056     19.12947  0.00749  56002.85525   2.65255  0.45352    513515.1278  44.95971  22.00336      56028.3    50.34178       44.04714    6.65685  17.30782   26.5    0.62853  -20.03968  0.84244 
   -2.38115  0.01279   3.12441     14.73689  1.46516  1.45657   1.19998  0.20472     0.30802  10146.78896   7567.09837   4.0292         2061.37809      20.1633  0.08091  56007.91885   0.73699  0.01535    44612.15468  46.79574  21.99585      56028.3    50.52037       44.12963    9.31959  15.97645   18.5    0.86978  -20.19901  0.99929 
   -3.40864  0.00258   3.32044     15.14231  1.64771  0.50807   2.21822  0.12133      0.4473  10022.62846    6118.6115   2.1483          2473.5503     19.66147  0.02548  56006.89136   1.32921  0.00573     8759.09339  47.50087  22.01348      56030.3    50.47905       44.20758    6.10835  17.32378   18.5    0.91677  -20.17068  0.99977 
   -5.98273  0.32828   4.56287     14.61362  1.55016  1.45951   2.20944  0.07941     0.01689    7624.9676   8081.90521  3.38328         2395.84432     20.70724  0.28312  56004.31727   0.76627  0.72532   177597.42893  45.89131  22.04349      56028.3     50.4727       44.15199    8.03709  17.25895   26.0    0.62266  -20.34517   0.9166 
   -8.69832  0.00755    9.3902     15.07897  1.80169  0.24305    3.3195  0.01711     0.15024    5937.5312   5689.60657  2.17687         2896.13164     18.50735  0.00179  56001.60168   0.69809  0.02507    102543.0389  45.56827  22.02727      56028.3    50.40145       43.99922   11.98234  17.30782   45.0    0.52322  -19.97358    0.989 
   -5.96832  0.11593   6.57628     14.77625  1.75231  1.43829   3.75015  0.04604     0.08252   7808.88436   3253.21501  3.34058         2387.26509     18.83786  0.00382  56004.33168   1.36412  0.43474   197194.85385   45.5816  22.01423      56028.3    50.32534       43.91849   13.31371  18.63919   27.5    0.70787  -20.02153  0.91311 
   -7.03584  0.00243   7.72447     14.62568  1.67556  0.89582   2.23749  0.04798     0.02787   8485.39783   9522.12932  1.79882         2249.71516     19.15481  0.00793  56003.26416   0.96102  0.00543   520413.50932  45.00092  22.06163      56029.4    50.55223       44.14691   10.65097  17.30782   24.0    0.66541  -20.08191   0.9982 
  -11.08268  0.00267   5.11365     15.08175  1.95067  0.44613   3.73842  0.04324     0.02989   8225.01255   9310.68147  0.08311         2859.63116     17.86053   0.0004  55999.21732   1.50865  0.00997    32505.46619  46.62961  22.05695      56029.4     50.4972       44.19512    6.65685  17.30782   19.5    0.79803  -19.92028  0.99888 
   -4.19425  0.02036   5.66803     14.74021  1.61842  1.45998   4.25382  0.04787     0.05479   8874.86552    3794.9619  2.85162         2508.37068     16.41611    1e-05  56006.10575   1.99862  0.08662    159715.9716  45.76772  22.01089      56028.3    50.28911       43.93363   13.31371  17.30782   21.0     0.8372  -20.06492  0.98462 
   -7.98351  0.00459   9.05839     14.48846  1.72636  1.02726   0.76491  0.10682     0.17256   7583.21782    6670.9775  4.02849         2448.42884     20.12997  0.07494  56002.31649   0.26239  0.00351  1387161.04868  44.44975  22.03052      56028.3    50.46352       43.98225   11.98234  18.63919   39.5    0.57441  -20.12621  0.99846 
   -3.72438  0.01469   4.95986       15.025  1.87339  0.66992   5.28858   0.0403     0.07328   7542.46305   9035.65598  3.95136         2548.10681     20.45477  0.15831  56006.57562    1.7947  0.07768    38140.53828  46.56915  22.02022      56028.3    50.42812       44.11955    5.32548  18.63919   21.0    0.68807  -20.15855  0.99183 
   -7.68768  0.01499    7.8596     15.04251  1.70765  0.35779   7.59928  0.01557     0.24053   6932.84711   6807.52226  1.96093         2758.95238     18.83545   0.0038  56002.61232   2.17883   0.1139     80535.7957  45.80446  22.01286      56028.3    50.42948       44.08034   10.65097  17.30782   30.5    0.68346  -20.02497  0.96343 
   -6.83356  0.10935   6.15543     14.65756  1.57101  1.20845   2.53035  0.05501     0.23712   8057.64168    5910.7716  1.53689         2467.34975     17.26489   0.0001  56003.46644   0.97999   0.2767   267542.57871  45.45912  21.97125  56027.36177     50.5254       44.14506    7.98822  14.64508   27.5    0.75328  -20.03244  0.94046 
    -4.2547  0.05201   6.00807     15.01235  1.81747  0.73899   5.09897  0.03936     0.16465   8599.92949   6465.00947  3.83979         2299.44852     17.24016   0.0001   56006.0453   2.24957  0.26518    57551.83072  46.21078  22.04527      56027.4    50.34074       43.95851    9.31959  17.30782   23.5    0.76837  -20.00599  0.95744 
   -5.00892  0.17392   6.32436     14.80914  1.73164  1.19289    4.9057  0.02499     0.16579   8932.28969   9067.78438  1.82534         2455.95527     20.16733  0.08167  56005.29108   2.33482  0.85322   154894.22665  45.71524  21.99498      56027.4    50.44146       44.08486    9.31959  15.97645   26.0    0.77625  -20.14919  0.85127 
    -4.9997  0.04894   4.21615     14.95976  1.54705  0.69023    7.5928  0.03319      0.0765   8591.23482   7304.96962  2.51252         2574.53017     19.46542  0.01622   56005.3003   3.34303  0.37157    30735.24518  46.72088  21.97812      56028.3    50.48548       44.15719    7.98822  16.04127   23.5    0.71792  -20.05723  0.96589 
   -4.32876   0.0125   2.15802     14.96993  1.60938  0.86842   2.60449  0.10606      0.0113    8970.5731   7009.01562  1.57919         2731.03495     17.32717  0.00012  56005.97124   1.25023  0.03254      7993.3969  47.90466  22.06246      56028.3    50.41394       43.94109   15.97645  21.30193   18.5    0.97813  -20.37153  0.99972 
   -3.06014  0.00111   0.94772     15.04665  1.50157  0.66466   6.77497  0.03584     0.04877   8662.11783   8186.96576   1.7205          2542.1329     20.19439  0.08692  56007.23986   3.03238  0.00755     1010.24084  49.48761  22.01957      56029.4    50.51672       44.23346    6.10835  16.12903   17.0    0.90354  -20.02988      1.0 
   -7.39666  0.03607   5.45128     14.76984  1.69716  0.95144     4.408  0.03715     0.05557   8690.38189   6071.08459  1.36903         2055.04341     19.40765   0.0142  56002.90334   1.98585  0.15899   135164.46974  45.89471  22.02073      56028.3    50.62582       44.38639    6.24498  14.33692   24.5    0.80543   -20.0462  0.97553 
   -2.27702  0.15781   3.64943     15.12704  1.78421  1.05123   7.23419   0.0267     0.01344   8375.71697   6724.89405  4.10894         2612.08012      17.6066  0.00022  56008.02298   3.02734  1.14163    12292.12069  47.30621  22.00616      56029.4    50.49194       44.21896    6.65685  15.97645   38.5    0.62911  -19.94786  0.97151 
   -9.74018  0.00103   4.77906     14.88012  1.73894  0.47992   1.26608  0.10805     0.11717    8360.8379   4832.14035  0.68283         2223.27051     20.54095  0.19305  56000.55982   0.52794  0.00131    64053.10693   46.3439  22.00626  56027.36177    50.36967       43.97374   11.98234  15.97645   30.0    0.68422  -20.20839  0.99985 
   -4.92164  0.02138   8.09937      14.8776  1.64863  0.72717   5.98226  0.02389     0.12214   7350.18149   6988.43626  4.03838         2717.03141     17.13626    8e-05  56005.37836   1.92792  0.12791   176456.26389  45.42243  22.00794      56027.4    50.35385       44.05422    5.32548  17.30782   23.5    0.81968  -20.01352  0.95474 
   -3.68571  0.03963   5.17949     14.86092  1.63574  1.01493   5.72423  0.04232     0.03507   9109.46168   8294.70048  4.94115         2372.18346      18.0349   0.0006  56006.61429   2.83354  0.22684    77313.87462  46.16573  22.04934  56027.36177    50.30182       43.89646   13.31371  19.97056   20.5    0.73823  -20.07306   0.9688 
   -4.52508   0.0068   5.08497     14.88492  1.69712  0.93595   7.27045  0.03835     0.19874   8556.82912   5040.40036  4.87662         2439.26989     16.87173    4e-05  56005.77492   3.17552  0.04947    69224.91531  46.24572  21.96553  56027.36177    50.38293       43.89655   13.31371   22.6333   22.5    0.64156   -20.0489  0.99363 
   -7.78452  0.00174   9.08495     14.63259  1.79999    1.151   2.86233  0.04418     0.05341   7492.46657   3336.46137  3.85707          2515.8356     16.97253    5e-05  56002.51548   0.95851  0.00498   749104.83954  44.73293  22.00063      56028.3     50.4221       44.09967    6.65685  17.30782   29.5    0.69415  -20.06012  0.99795 
   -4.29609  0.11925    4.6456     14.86748  1.46743  0.82802   4.42558  0.04994     0.05651   8641.71834   4509.07724  2.35684         2673.23959     17.84733  0.00039  56006.00391    1.9715  0.52774    54136.67941  46.36783  22.00421      56028.3    50.45189       44.15828    8.03709  17.25895   25.0    0.71323  -20.07407    0.935 
   -6.59454  0.00261   8.87581     14.68886  1.97753  1.55499   3.31209  0.04296      0.0371   8186.51327   6653.63046  2.72722         2478.52539     19.70113  0.02792  56003.70546   1.32412  0.00866   606215.35726  44.88593  21.98864      56027.4    50.53528       44.26632    6.10835  15.53166   27.0    0.73651  -20.09757  0.99706 
   -2.56349  0.04213    2.0128     15.05012  1.91911   1.4169   7.76761  0.03464     0.20704  10076.20967   6004.34982  1.80675          2628.2311     16.89556    4e-05  56007.73651   4.70445  0.32724     5731.71459  48.18606  22.05327      56029.4    50.41908       44.02169   11.98234  17.30782   19.5    0.92316  -20.04706  0.99907 
   -5.99713  0.00151   4.47302     14.81224  1.80149  1.32525   5.38558  0.02991     0.05154   8443.11864   3239.53418   0.7631         3035.78172     19.13383  0.00756  56004.30287   2.29016  0.00814    79464.22597   46.3231  22.04031      56029.4    50.47044       44.22264    7.98822  14.24916   19.0    0.99364  -20.06213  0.99928 
   -6.06598  0.01179    6.3863     14.53766   1.6007  1.49777   4.45116   0.0298     0.01671   7693.52859   7600.34781   4.8519          2140.0654     20.47151  0.16453  56004.23402   1.57163   0.0525   509689.96665  45.15535  22.02139      56027.4    50.51862       44.19197   10.65097  14.64508   27.0     0.7067  -20.21285  0.98748 
    -5.9123  0.00866   6.15658     14.63809  1.55891  1.33181   6.49734   0.0313     0.05555     8515.862   4424.68296  4.50144         2122.65095     18.14006  0.00077   56004.3877   2.81074  0.05628    290491.1575  45.41986  22.04118      56028.3     50.5083        44.1869    9.31959  17.30782   24.0    0.73398  -20.05191  0.98714 
    -6.5303   0.4967  10.40088     15.08159   1.8896  0.79632   3.66002  0.03346     0.02337   8642.18636   5903.29676  4.63252          2128.6403      19.2049   0.0089   56003.7697   1.63064  1.81792   130361.98445  45.39592   21.9941      56028.3     50.5486       44.27649    8.03709  13.73955   52.5    0.52446  -20.06003  0.52683 
   -6.37365  0.07671   8.46014     14.91109  1.70374  0.63983   6.00641  0.02506     0.05279   7318.20399   5602.67857  3.18646         2660.71607     17.03423    6e-05  56003.92635   1.91889  0.46078    170524.5033  45.41371  21.99745  56027.36177    50.28941       43.91444   11.98234  17.30782   31.5    0.67815  -20.01802  0.84899 
   -9.11676  0.18483   8.56412     14.83562  1.66953  0.56078   2.97423  0.04376     0.03584   7514.32517   6688.72489  2.66206         2686.98703     20.03492  0.06021  56001.18324    1.0018  0.54973   242398.41078  45.24154  22.01686      56028.3    50.47194        44.0247   10.65097  17.30782   37.0    0.61292  -20.11657  0.81598 
   -4.48363  0.39697   6.41445     14.91738  1.43616  1.36729   4.41863  0.03424     0.05401   9732.28333   8653.03551  3.89616          2395.1921     16.31576    1e-05  56005.81637   2.49658  1.75405    80275.81262  45.90715  21.99822      56028.3    50.30023       43.94664   10.65097  15.97645   47.5    0.58327  -20.10593  0.69546 
   -5.32724  0.01865   2.21986     14.89312  1.72493  1.27665  11.85416  0.02449     0.06874   8842.13809   6486.77283   1.8005         2419.89979      19.9059  0.04473  56004.97276   5.52857  0.22104     12912.3376  47.70196  22.00887      56028.3    50.37447       44.04299    6.65685  18.63919   20.5    0.70136  -20.35417  0.99808 
   -3.60207    0.011    4.9846     14.84502  1.78358  1.40384   8.51836  0.02478     0.07168    9103.9965   4559.39674  2.22099         2499.94003     17.58616  0.00021  56006.69793    4.2116  0.09372    84011.08537  46.20054   22.0454      56028.3    50.53527       44.26186    8.03709  14.59621   20.0    0.88047  -20.06018   0.9896 
   -8.29541   0.0059   4.95965     14.72822  1.78404  1.54176   3.62564  0.04808     0.17362   7724.99237   3827.87222  0.96315         2569.82334      18.5016  0.00176  56002.00459   1.29065  0.02139   142457.23218  45.97566  21.99246      56027.4    50.36177       44.05137    7.98822  15.97645   23.0    0.77759  -19.93281  0.99747 
   -4.17806  0.07398   3.80019     14.94366  1.46518  0.60825   3.34741  0.05493     0.02418   8912.93287   5565.30901  2.39478         2020.86138     19.21149  0.00904  56006.12194   1.58627  0.24763    25468.59053  46.86912  21.95942      56028.3    50.47972       44.22644    5.37435  14.93429   21.5    0.86075   -20.0236  0.97967 
   -9.67631  0.09142   7.37041     14.92886  1.52255  0.37237   3.02427  0.06166     0.02562   9002.57469   9896.96622  2.48778         2164.62231     18.94905  0.00494  56000.62369   1.46211  0.27649   106572.02926  45.68879  21.99624      56029.4    50.43172       44.17134    5.32548  16.77527   21.0    0.63704  -20.08885  0.91211 
   -5.42856  0.04907   7.10434     14.67869  1.56786   1.2387   2.78904  0.05709     0.05555   7960.09322   4198.64556  2.86474         2639.27794     17.95521   0.0005  56004.87144   1.05419  0.13687   322697.54679  45.25231  22.01615      56028.3    50.27926       43.94399    9.31959  17.30782   24.0    0.77533  -20.03081   0.9597 
   -7.41714  0.16429    7.3948     15.14962  1.50437  0.22853   1.69062  0.08087     0.20047   9450.29453   7492.49945   2.1784         2072.36072     17.66606  0.00026  56002.88286   0.90067  0.27775    38351.16859  46.12457  22.01051      56027.4    50.45263        44.1463   10.65097  14.64508   28.5    0.71778   -20.1078   0.9098 
   -8.62363  0.00142   6.47115     14.79943  1.78846  0.72103   2.55894  0.04701     0.33157   7000.46493   9242.43334  0.76373          3124.8446     18.31544  0.00115  56001.67637   0.74807  0.00364   175145.11749  45.65596  22.04458      56029.4    50.47635       44.17964   10.65097  15.97645   23.5    0.70833  -19.98907  0.99924 
  -11.59148  0.00144   5.66746     14.61544  1.92586  1.22959   1.76093  0.06916     0.04019   7900.65531   5082.15816  0.16153         2751.48382     20.10177  0.07023  55998.70852   0.65569  0.00254    337555.7455  45.51835  22.03074      56028.3     50.3267       43.89096   11.98234  18.63919   30.5    0.62633  -20.07254  0.99964 
   -8.75452   0.1569   4.30476     14.97714  1.84234  0.63499   2.47021  0.04982     0.35729   8343.33511   5096.16344  0.14494         3466.74579       18.653   0.0025  56001.54548   1.02575  0.38758    35221.45267  46.71951  22.02925      56028.3    50.66065       44.33452    6.84235  14.93429   29.0    0.81272  -19.95878  0.96922 
   -4.72063  0.04913   6.98341     14.75737  1.67445  1.30343   5.06156   0.0333      0.0838    6950.3503   3699.25202  3.76521         2728.62029     18.06995  0.00065  56005.57937   1.45856  0.24866   231779.84677  45.43951  21.99705      56028.3    50.51351       44.15849    6.70572  17.25895   25.0    0.73404    -20.003  0.93789 
  -11.74458  0.03377    6.9545     14.64553  1.80383  1.20836   3.60268  0.04577     0.04268   8207.60307   8519.86765  0.65519         2555.21119     16.78081    3e-05  55998.55542   1.44773  0.12165   414466.80133  45.22302  22.01383      56027.4    50.41737       43.94542   11.98234  18.63919   25.0    0.66067  -19.97024  0.97169 
   -7.89731  0.05723   7.76793     14.66759  1.58759  0.83282   5.40286  0.02582     0.01604   8831.72054   3734.84052  1.90415          2158.4481     18.12101  0.00073  56002.40269   2.51386  0.30923   411135.57798  45.07499  22.01137      56028.3    50.32139       43.89724   11.98234  18.63919   30.5    0.65079  -20.05252  0.89898 
   -6.91465  0.00317   2.45852      14.8677  1.77896  1.16311  11.01151  0.02886     0.03935    8767.7198   7685.79712   0.9357         2432.26259       16.134    1e-05  56003.38535   5.04949  0.03493    18362.69932  47.47373  22.04527      56028.3    50.38612       44.01101   11.98234  17.30782   19.5    0.74178  -20.13826  0.99949 
   -1.74366  0.00825    2.2879     15.09031  1.50421  0.53171   5.46651  0.04606      0.0515   9506.77517   9982.29017  3.49709         2141.85757     20.04416   0.0615  56008.55634   2.94716   0.0451     4823.62454  48.04391   22.0547      56028.3    50.50228       44.05376   11.98234  15.97645   16.0    0.96021  -20.02982  0.99939 
   -6.77873  0.15004   8.31513     14.59109  1.59372  1.15642   6.42008  0.01469     0.03124   6880.15002   6153.97757  4.28454         2287.43473     20.21197  0.09051  56003.52127   1.81286  0.96325   672628.15347  44.80374  21.99375  56027.36177    50.47445       43.97598   10.65097  19.97056   51.5     0.5731  -20.11556  0.71475 
   -5.48494  0.05601   2.50508     14.79468  1.60115  1.10928   5.66031  0.03712     0.17027   8028.93643   8283.79861  1.21562         2933.46866     20.44915  0.15627  56004.81506   2.17662  0.31703    24017.57913   47.2951  22.01893      56028.3    50.42231       44.01015   13.31371  18.63919   21.0    0.78739  -20.24935  0.99327 
   -8.27272  0.03932   8.83857     14.61487  1.66381  1.11927   9.28415  0.01529     0.06549   7624.73775   7199.65391  3.24753         2551.22752     17.15581    8e-05  56002.02728   3.21973  0.36507   711103.41503  44.74525  22.03846  56027.36177    50.55816       44.18381   10.65097  15.97645   33.0    0.61423  -20.04817  0.86179 
   -7.36493   0.1332   1.99584     14.95861  1.97563  1.50403   2.51696  0.08625     0.06645   8032.23453    5695.4111  0.64631         2958.04819     18.96873  0.00517  56002.93507   0.96867  0.33526     8842.24797  48.01774   22.0493      56027.4    50.49885        44.0141   11.98234  19.97056   22.5    0.77572  -19.87574  0.99865 
   -9.56207  0.06361   6.58492     14.39145  1.34255  1.50297   4.67487  0.02847     0.01097   8503.30601   5301.71999  1.73077          2219.9356     18.79314  0.00345  56000.73793   2.01638  0.29736   891155.11584  44.80972  22.08091      56030.3    50.44075       44.13456    6.70572  17.32378   29.5    0.61424  -20.06825  0.90913 
   -2.98888  0.18136   6.76752     15.08214  1.99316  0.92803   8.21778  0.01823     0.02543   7779.42192   8148.20999  4.76154          2507.9371     20.40795  0.14213  56007.31112   2.96672  1.49039    58066.57773   46.1436  21.96862      56028.3    50.69883       44.49522    6.65685  13.31371   42.0    0.61181    -20.197  0.79006 
    -7.2972  0.01529   9.33055     14.71327   1.7185  0.96264  10.41526  0.01361      0.4783   7168.22901   6991.57704  3.88978         2758.91304     17.76972  0.00033   56003.0028   3.19243  0.15924   520292.48427  44.84793  22.05808      56028.3    50.40731       43.93224   11.98234  18.63919   28.0    0.69885  -20.02261  0.93093 
   -1.59302  0.00736   1.44777     15.08013  1.61735  0.77483   9.41311  0.03088     0.08267  10391.93873   7736.67692  3.64381         2098.92709     17.21776    9e-05  56008.70698   6.06392  0.06931     2176.54276  48.81848  22.03473      56028.3     50.3633       44.07353    7.98822  15.97645   17.5    0.82916  -19.98571  0.99991 
    -7.2853  0.05158   4.64905     14.62376  1.44277  1.47485  10.70987  0.01135     0.13313   6248.90792   8422.98829  1.00939         3284.15495     18.40697  0.00142   56003.0147   2.49471  0.55243   163767.27188  45.87909  22.02005      56028.3    50.32798       44.02069    7.98822  17.30782   28.5    0.68687  -19.94371  0.92641 
   -5.47308  0.00179    0.9161     14.94675  1.79799  1.54894   8.59366  0.03419     0.02961  10287.06239    3643.5327  0.48296         2031.84576     17.03771    6e-05  56004.82692   5.42485  0.01536     1790.56913  49.34676  22.04238      56027.4    50.52581       44.16834   10.65097  17.30782   16.5    1.06985  -20.14004      1.0 
   -9.32358  0.01543   4.44764     14.84985  1.99162   1.2157   2.35259  0.08636     0.08514   8082.86899   9302.19858  0.49065         2931.18347     18.22117  0.00092  56000.97642   0.91686  0.03631    73044.37638  46.40821  21.95482  56025.13306    50.44541       44.00507   11.98234  17.30782   18.0       0.82   -19.8709  0.99725 
   -7.48198  0.02354   6.17819     14.82358  1.72761  0.91913   10.2382  0.01611     0.23185   6992.43288   6118.56103  1.41646         3082.96785     16.74559    3e-05  56002.81802   2.98612  0.24102   137979.79019  45.78475  22.01792      56027.4    50.38396       43.97558   10.65097  17.30782   26.0    0.70936  -19.97966  0.95445 
   -8.73904  0.01543   8.80033     14.62699  1.70597  0.96345   5.55848  0.02434     0.01235   7433.95012   5613.31535  2.98432         2627.24877     16.15699    1e-05  56001.56096   1.83241  0.08575   683598.32093  44.77702  21.97496      56028.3    50.41055       44.09053   10.65097  15.97645   31.0    0.64538  -20.03937  0.96522 
  -10.54308  0.09171   6.81685      14.7681  1.87398  1.00889    7.5518   0.0193     0.04323   8183.65221    9337.7715  0.42631         2427.59296     16.98241    5e-05  55999.75692   3.01698  0.69254   235255.66165   45.5029  22.02693      56028.3    50.55073       44.25577    9.31959  14.98316   28.0    0.58721   -19.9796  0.86978 
   -7.80959  0.02216   1.34254     14.96118   1.7374  1.01212   5.62756  0.04649     0.14378   9231.94335   5982.57134  0.29174         2746.94314     16.26684    1e-05  56002.49041    2.8611  0.12472     3476.96556  48.71169  21.99805      56028.3     50.3033       43.96675    9.31959  17.30782   19.5    0.91353  -19.77071  0.99985 
   -8.31029  0.00906   7.67913     14.56024  1.59198  1.28299   2.22482  0.07229      0.0133   7761.71885   7640.40598  2.63264         2635.62045     17.44429  0.00015  56001.98971   0.79954  0.02015   660548.03722  44.88025  22.00545  56027.36177    50.40977        43.9808   13.31371  18.63919   22.5    0.72257  -20.05247  0.99292 
   -9.00928  0.06949    8.9835     14.78531  1.82895  0.86629  10.18945  0.01395     0.03958   7860.53885   5933.50374  2.18819         2458.02477     18.25227  0.00099  56001.29072   3.75563  0.70804   368368.92135  45.05787  22.05204      56028.3    50.37718       44.01517   10.65097  17.30782   41.0    0.57076  -20.03083  0.78242 
   -2.25236  0.00324    1.1426      14.9414  1.75427   1.4079  15.87735  0.02153     0.13203  10832.33626   5967.43794  2.66685         2228.69329     20.33595  0.12041  56008.04764  11.11346  0.05138     2785.44355  48.95226  21.97387      56028.3    50.41297       44.01183   11.98234  17.30782   18.5    0.86081  -20.04215  0.99997 
   -5.11971  0.10526   1.06837     15.01528  1.77463  1.16459   3.84276  0.04294     0.18957   7339.25659   9285.28539  0.85755         3458.05131     17.76823  0.00033  56005.18029   1.23474  0.40448     1753.12129   49.2167  22.02868      56028.3    50.29641       43.96307    9.31959  17.30782   19.0    0.92892  -19.87554  0.99987 
   -6.63725   0.0023   6.16421     14.66469  1.65529  1.02795   2.47667  0.06799     0.07189   8108.84658   9222.12549  2.00451         2594.37762     20.31758  0.11543  56003.66275   0.97144   0.0057   273569.44602   45.4709  22.05053      56028.3    50.60225       44.02911    6.65685  19.97056   21.5    0.71939  -20.19386  0.99879 
   -5.87406  0.05297   5.79324      15.0852  1.99726  0.48884   2.83622  0.05625     0.01494    7670.5425   4804.79371  1.63093         2746.73142     20.51084  0.18012  56004.42594   0.99545  0.15024    42041.88229  46.41975  22.02265      56028.3    50.38002       44.04069   10.65097  15.97645   23.5    0.76168   -20.2324  0.97945 
    -6.3017  0.07688  10.02123     15.10505   2.1771  0.63137    6.5999  0.02201     0.05093   6766.08354   5876.10272  4.35589         2645.85777      18.1018   0.0007   56003.9983   1.80235  0.50743   125152.10468  45.50744  22.02593      56027.4    50.40938       44.01258   11.98234  17.30782   31.0    0.64844  -20.01902  0.84045 
   -8.27915  0.07111   5.21684     14.81754  1.77079  0.87119   1.75403  0.09908     0.27247   7817.98372   3790.66856  0.82131         3115.01128     20.05481  0.06303  56002.02085   0.63952  0.12473    103684.9831  46.06648  22.06503      56030.3    50.49547       44.20108    6.70572  17.25895   24.0    0.75207  -20.05038  0.98347 
   -4.80285  0.00329   6.71938     14.71132  1.72452  1.26644   8.33161  0.01838      0.0254   7871.31534   9883.75142  4.43181         2308.49429     20.05673  0.06331  56005.49715   3.07929  0.02738   273213.34005  45.41435  22.04488      56028.3    50.30117       43.95073    9.31959  18.63919   20.0     0.7879   -20.1092  0.99354 
   -5.84808  0.17948   4.85615     14.85655  1.77204  1.18402   5.42537  0.01765     0.02492   7653.76916   4625.10832  0.51851         3638.72735     16.59023    2e-05  56004.45192   1.89587  0.97372       75123.94  46.26896   22.0404      56029.4    50.43972       44.11954    7.98822  17.30782   42.0    0.72981  -19.99993  0.90504 
   -4.99645  0.00794   5.67525     14.80484  1.80707  1.35907   5.62799  0.02899     0.41213   9179.36889   6986.88146  1.08046         2738.99765     18.85196  0.00395  56005.30355   2.82882  0.04471   132762.62166  45.89477  21.99961      56028.3    50.36382       44.11167    7.98822   14.7099   19.0    1.00269  -20.07051  0.99325 
   -4.36252  0.03173   5.76427     14.88201  1.68181  0.90683   6.65539  0.03317     0.19611    7547.4499   8982.15064  4.19657          2684.9934     19.67629  0.02636  56005.93748   2.26152  0.21116    89341.40509  46.02208  22.04867      56028.3    50.32405       43.99678   11.98234  17.30782   21.5    0.64946  -20.05846  0.96441 
   -5.99327  0.08093   5.72744     15.04794  1.90726  0.62194   2.57465  0.07608     0.20996   9495.91782   5268.08494  1.56665         2012.30773     18.93476  0.00478  56004.30673    1.3849  0.20836    46587.34685  46.36507  21.98232      56028.3    50.24949       43.92684   10.65097  15.97645   22.0    0.85797  -20.06869  0.97106 
   -9.16978  0.02116   4.32596     14.73193  1.58395  0.93845   3.99253  0.05532     0.05022   9510.15423   5893.27684  0.04366         2972.61466     17.20721    9e-05  56001.13022   2.15402  0.08449    94593.08277  46.22056  21.99844  56027.36177    50.45366        43.8987   13.31371  19.97056   22.0    0.85756  -20.02143    0.991 
   -9.25083  0.13324   11.5935     14.70662  1.76723  0.65835   6.58945  0.01443     0.02651   7623.55685   8402.88338  4.28881         2538.10355     16.33271    1e-05  56001.04917    2.2845    0.878   851736.46533   44.4574  22.05044      56028.3    50.27869        43.9072   11.98234  17.30782   47.5    0.49017  -20.06439  0.61961 
   -5.85106  0.49647   1.04621     15.10291   1.8919  1.50647   3.61222  0.04284     0.42609   9959.00681   7716.22988  0.31799         2796.52645     19.60577  0.02241  56004.44894   2.13714  1.79335     1197.09824  49.42838   22.0776      56029.4    50.60132       44.23276    8.17372  17.12232   32.5    0.90582  -20.44854  0.99971 
   -7.16641  0.00603   1.63837     14.75952  1.50711  1.43509   8.98144  0.03238     0.05526  10080.24923   7656.94468  0.33281          2032.6504     19.51774   0.0183  56003.13359   5.44397  0.05416    11369.84307  47.96241  22.02254      56029.4    50.35084       44.04646    5.32548  18.63919   16.5    1.00588  -20.06278  0.99975 
   -2.49153  0.01945   1.36702     15.13481  1.53385  0.53896   4.58078  0.05776     0.23252  10616.71675   3551.59987  2.91624          2066.0902     20.30806  0.11292  56007.80847   3.07997  0.08911     1430.59612  49.02756  22.06642      56028.3    50.64189       44.05947   11.98234  19.97056   17.5    0.95362  -20.23656  0.99986 
   -6.24294  0.08196   5.83379     14.75738  1.88757  1.25257   7.43537  0.02398     0.07958   8635.24916   3886.49701  2.26327         2217.49177     20.49163  0.17233  56004.05706   3.30735  0.60938   182329.76632  45.75199  22.01699      56029.4    50.50744       44.23376    6.10835  16.52495   31.0     0.6549  -20.23735  0.91401 
   -2.47996  0.00176     3.494     14.76329  1.31782  0.92599   4.68195  0.06376     0.02025   9720.83026   5390.17545  4.33241          2507.1818     19.90999  0.04516  56007.82004   2.63913  0.00822    44436.12811  46.65432  22.00391      56028.3    50.44652       44.17135   10.65097   15.4439   20.0    0.74653  -20.16017  0.99935 
   -8.25513  0.01044   2.34149     15.16318   1.9751  0.58935   6.05535   0.0377     0.07261   9027.26736   7308.84894  0.24765         2708.21514     18.68532  0.00269  56002.04487    2.9436  0.06319     4742.83815  48.14941  22.04138      56028.3    50.33382       43.98982   10.65097  17.30782   18.5    0.95141  -19.83763  0.99943 
   -7.20442   0.0282   7.69892     14.48359  1.73058  1.37858    4.0427    0.026      0.3733   7768.70033    4862.1215  3.44564         2383.02261     20.59844  0.22038  56003.09558   1.45544  0.11399  1027266.72444  44.72249  22.05155      56027.4    50.41584       43.93618   10.65097  18.63919   36.5    0.62323  -20.28573  0.96535 
   -5.70984   0.2606  12.69385     15.10258  1.81997  0.74147   7.45339  0.01196     0.01466   8305.83061   5994.19697  4.54941         2234.70734     17.34903  0.00012  56004.59016   3.06724  1.94235    169788.6142  45.09182  22.03625      56028.3    50.34638       44.02336    9.31959  17.30782   63.5    0.53286  -20.03612  0.39616 
  -10.25125  0.13443   4.92582     14.67903  1.44398  0.68043   1.63429  0.06651     0.02892   8063.79852   9382.66176  0.07051         2502.23475     17.18498    9e-05  56000.04875   0.63392   0.2197   142652.87074  45.88917  22.04173      56028.3    50.56737       44.30342    9.36846  13.73955   22.5     0.6962  -19.95137  0.96466 
