# Wavelength Flux
# STATUS = PUBLIC
# OBJECT = 2019vvc
# TELESCOPE = P200
# INSTRUMENT =
# DATE-OBS = 2020.0202
# MJD =
# EXPTIME =
# SLIT =
# DISPERSER =
# SOURCE = 2023ApJ...943...41C
# FILTER =
# FLUX_STANDARD =
# EXTINCTION_CORRECTED = False
# PHOTOMETRY_CALIBRATED =
# FLUX_UNITS = erg/s/cm^2/Angstroms
# QUALITY =
# MIN_WAVE =
# MAX_WAVE =
# COMMENT =
3300.0 1.2984e-16
3301.535 1.1889e-16
3303.07 5.9193e-17
3304.605 1.074e-16
3306.139 1.2998e-16
3307.674 9.5983e-17
3309.209 1.0185e-16
3310.744 1.0197e-16
3312.279 7.0789e-17
3313.814 1.3776e-16
3315.349 1.4102e-16
3316.884 9.4223e-17
3318.418 1.4701e-16
3319.953 1.2995e-16
3321.488 1.1895e-16
3323.023 1.2923e-16
3324.558 1.2104e-16
3326.093 7.348e-17
3327.628 6.4018e-17
3329.163 1.1842e-16
3330.698 1.1461e-16
3332.232 1.3047e-16
3333.767 1.3903e-16
3335.302 1.3366e-16
3336.837 9.0155e-17
3338.372 1.3197e-16
3339.907 1.0836e-16
3341.442 9.5932e-17
3342.977 1.2374e-16
3344.511 1.2677e-16
3346.046 1.4076e-16
3347.581 7.6675e-17
3349.116 4.9061e-17
3350.651 1.6865e-16
3352.186 1.3292e-16
3353.721 1.2836e-16
3355.256 1.0024e-16
3356.791 1.1537e-16
3358.325 1.2358e-16
3359.86 1.0463e-16
3361.395 8.6518e-17
3362.93 9.6193e-17
3364.465 1.1173e-16
3366.0 1.2159e-16
3367.535 1.0442e-16
3369.07 8.7186e-17
3370.604 1.1962e-16
3372.139 1.3156e-16
3373.674 1.1465e-16
3375.209 1.0736e-16
3376.744 1.0014e-16
3378.279 1.0218e-16
3379.814 1.3358e-16
3381.349 1.1878e-16
3382.884 1.1746e-16
3384.418 1.2454e-16
3385.953 1.2807e-16
3387.488 1.2051e-16
3389.023 1.1826e-16
3390.558 1.2176e-16
3392.093 1.2644e-16
3393.628 1.419e-16
3395.162 1.1006e-16
3396.697 1.4284e-16
3398.232 2.0177e-16
3399.767 1.2113e-16
3401.302 1.659e-16
3402.837 1.5796e-16
3404.372 1.3592e-16
3405.906 1.1854e-16
3407.441 1.2201e-16
3408.976 1.0208e-16
3410.511 1.1539e-16
3412.046 1.1697e-16
3413.581 1.3945e-16
3415.116 1.3044e-16
3416.651 1.3277e-16
3418.186 1.4401e-16
3419.72 1.295e-16
3421.255 1.2199e-16
3422.79 8.9618e-17
3424.325 1.0756e-16
3425.86 8.9295e-17
3427.395 1.0186e-16
3428.93 1.1715e-16
3430.465 9.938e-17
3432.0 9.4619e-17
3433.534 1.0939e-16
3435.069 7.7918e-17
3436.604 9.1624e-17
3438.139 1.1132e-16
3439.674 9.4099e-17
3441.209 1.1699e-16
3442.744 1.3334e-16
3444.279 6.9227e-17
3445.813 1.0405e-16
3447.348 9.8178e-17
3448.883 1.1009e-16
3450.418 1.1995e-16
3451.953 1.0197e-16
3453.488 9.1308e-17
3455.023 8.8456e-17
3456.558 9.0286e-17
3458.093 8.4586e-17
3459.627 8.4225e-17
3461.162 8.9373e-17
3462.697 8.7738e-17
3464.232 9.5346e-17
3465.767 8.4633e-17
3467.302 9.8309e-17
3468.837 1.091e-16
3470.372 1.2376e-16
3471.906 1.3179e-16
3473.441 8.7604e-17
3474.976 5.9208e-17
3476.511 7.7125e-17
3478.046 9.2828e-17
3479.581 1.0343e-16
3481.116 6.8302e-17
3482.651 7.468e-17
3484.185 5.003e-17
3485.72 4.0999e-17
3487.255 9.166e-17
3488.79 1.164e-16
3490.325 1.178e-16
3491.86 7.2798e-17
3493.395 8.0111e-17
3494.929 9.5085e-17
3496.464 7.1357e-17
3497.999 6.1947e-17
3499.534 7.6925e-17
3501.069 8.6672e-17
3502.604 9.0816e-17
3504.139 6.7022e-17
3505.674 6.6725e-17
3507.208 8.7432e-17
3508.743 9.3829e-17
3510.278 6.5927e-17
3511.813 7.8682e-17
3513.348 7.1202e-17
3514.883 5.8649e-17
3516.418 4.6074e-17
3517.953 7.4301e-17
3519.488 6.8106e-17
3521.022 6.7892e-17
3522.557 6.7737e-17
3524.092 8.3514e-17
3525.627 5.8294e-17
3527.162 4.0062e-17
3528.697 5.5836e-17
3530.232 7.7405e-17
3531.767 5.9497e-17
3533.302 5.684e-17
3534.836 5.9776e-17
3536.371 5.2806e-17
3537.906 6.5386e-17
3539.441 5.544e-17
3540.976 5.1032e-17
3542.511 5.7667e-17
3544.046 5.6787e-17
3545.581 5.0441e-17
3547.115 5.2308e-17
3548.65 7.3565e-17
3550.185 8.4065e-17
3551.72 7.1036e-17
3553.255 6.9015e-17
3554.79 6.4957e-17
3556.325 5.8385e-17
3557.86 6.0314e-17
3559.395 5.4599e-17
3560.929 5.4128e-17
3562.464 4.2586e-17
3563.999 6.645e-17
3565.534 5.3962e-17
3567.069 6.6223e-17
3568.604 6.7817e-17
3570.139 6.7665e-17
3571.674 5.0901e-17
3573.208 6.6999e-17
3574.743 6.0595e-17
3576.278 8.2126e-17
3577.813 7.4469e-17
3579.348 8.3444e-17
3580.883 8.4254e-17
3582.418 8.1275e-17
3583.952 7.288e-17
3585.487 7.8441e-17
3587.022 6.5812e-17
3588.557 4.98e-17
3590.092 7.4322e-17
3591.627 7.6309e-17
3593.162 8.9289e-17
3594.697 9.2703e-17
3596.231 7.8949e-17
3597.766 9.4335e-17
3599.301 8.5325e-17
3600.836 8.3214e-17
3602.371 9.7358e-17
3603.906 8.3806e-17
3605.441 9.0989e-17
3606.976 8.7084e-17
3608.51 8.2014e-17
3610.045 1.0204e-16
3611.58 1.0013e-16
3613.115 1.0145e-16
3614.65 1.0071e-16
3616.185 8.534e-17
3617.72 9.9694e-17
3619.255 1.0675e-16
3620.79 1.1676e-16
3622.324 1.2009e-16
3623.859 1.1655e-16
3625.394 8.8374e-17
3626.929 1.0617e-16
3628.464 1.0159e-16
3629.999 1.0604e-16
3631.534 1.0723e-16
3633.069 1.23e-16
3634.604 1.279e-16
3636.138 1.4278e-16
3637.673 1.3463e-16
3639.208 1.2418e-16
3640.743 1.1712e-16
3642.278 9.7176e-17
3643.813 1.1578e-16
3645.348 1.2016e-16
3646.883 1.1674e-16
3648.417 1.1167e-16
3649.952 1.3061e-16
3651.487 1.5424e-16
3653.022 1.4124e-16
3654.557 1.3876e-16
3656.092 1.2006e-16
3657.627 1.3198e-16
3659.162 1.4419e-16
3660.696 1.3974e-16
3662.231 1.4973e-16
3663.766 1.1255e-16
3665.301 1.1716e-16
3666.836 1.4761e-16
3668.371 1.4325e-16
3669.906 1.454e-16
3671.441 1.5547e-16
3672.975 1.4944e-16
3674.51 1.5014e-16
3676.045 1.6574e-16
3677.58 1.6331e-16
3679.115 1.3246e-16
3680.65 1.4991e-16
3682.185 1.6071e-16
3683.719 1.3861e-16
3685.254 1.4291e-16
3686.789 1.5781e-16
3688.324 1.6639e-16
3689.859 1.6293e-16
3691.394 1.7805e-16
3692.929 1.7979e-16
3694.464 1.6013e-16
3695.999 1.6613e-16
3697.533 1.8125e-16
3699.068 1.5478e-16
3700.603 1.6657e-16
3702.138 1.6623e-16
3703.673 1.8876e-16
3705.208 1.769e-16
3706.743 1.7255e-16
3708.278 1.6871e-16
3709.812 1.7551e-16
3711.347 1.787e-16
3712.882 1.6722e-16
3714.417 1.7746e-16
3715.952 1.7244e-16
3717.487 1.6331e-16
3719.022 1.6827e-16
3720.557 1.4063e-16
3722.092 1.1295e-16
3723.626 1.2101e-16
3725.161 1.3177e-16
3726.696 1.5748e-16
3728.231 1.7376e-16
3729.766 1.7059e-16
3731.301 1.2512e-16
3732.836 1.0475e-16
3734.371 1.3425e-16
3735.906 1.7276e-16
3737.44 1.9892e-16
3738.975 1.9805e-16
3740.51 1.8644e-16
3742.045 1.6873e-16
3743.58 1.8383e-16
3745.115 1.8726e-16
3746.65 1.7177e-16
3748.185 1.7893e-16
3749.719 1.8702e-16
3751.254 1.7488e-16
3752.789 1.7508e-16
3754.324 1.7772e-16
3755.859 1.787e-16
3757.394 1.6115e-16
3758.929 1.6669e-16
3760.463 1.5811e-16
3761.998 1.5905e-16
3763.533 1.7182e-16
3765.068 1.7714e-16
3766.603 1.7938e-16
3768.138 1.6357e-16
3769.673 1.7133e-16
3771.208 1.6707e-16
3772.742 1.5126e-16
3774.277 1.6743e-16
3775.812 1.5314e-16
3777.347 1.4711e-16
3778.882 1.6361e-16
3780.417 1.6287e-16
3781.952 1.6771e-16
3783.487 1.8121e-16
3785.021 1.5772e-16
3786.556 1.6803e-16
3788.091 1.6669e-16
3789.626 1.6477e-16
3791.161 1.7759e-16
3792.696 1.6865e-16
3794.231 1.7169e-16
3795.766 1.6913e-16
3797.301 1.6846e-16
3798.835 1.6384e-16
3800.37 1.6608e-16
3801.905 1.6151e-16
3803.44 1.7977e-16
3804.975 1.5702e-16
3806.51 1.5231e-16
3808.045 1.6106e-16
3809.58 1.6126e-16
3811.115 1.6799e-16
3812.649 1.6493e-16
3814.184 1.6268e-16
3815.719 1.589e-16
3817.254 1.7062e-16
3818.789 1.6507e-16
3820.324 1.5539e-16
3821.859 1.3835e-16
3823.394 1.4769e-16
3824.928 1.7052e-16
3826.463 1.7224e-16
3827.998 1.5468e-16
3829.533 1.5239e-16
3831.068 1.6016e-16
3832.603 1.7358e-16
3834.138 1.6556e-16
3835.673 1.7051e-16
3837.208 1.65e-16
3838.742 1.6289e-16
3840.277 1.6355e-16
3841.812 1.8081e-16
3843.347 1.8013e-16
3844.882 1.844e-16
3846.417 1.8576e-16
3847.952 1.7919e-16
3849.486 1.818e-16
3851.021 1.639e-16
3852.556 1.6198e-16
3854.091 1.7116e-16
3855.626 1.6981e-16
3857.161 1.6331e-16
3858.696 1.8292e-16
3860.23 1.8507e-16
3861.765 1.845e-16
3863.3 1.9891e-16
3864.835 1.8125e-16
3866.37 1.9456e-16
3867.905 2.0191e-16
3869.44 1.83e-16
3870.975 1.8744e-16
3872.51 1.8877e-16
3874.044 1.7927e-16
3875.579 1.8324e-16
3877.114 1.7667e-16
3878.649 1.6802e-16
3880.184 1.8658e-16
3881.719 1.739e-16
3883.254 1.7925e-16
3884.789 1.8391e-16
3886.323 1.8821e-16
3887.858 1.896e-16
3889.393 1.9724e-16
3890.928 1.9288e-16
3892.463 1.8973e-16
3893.998 1.7436e-16
3895.533 1.9218e-16
3897.068 1.9384e-16
3898.603 1.8825e-16
3900.137 1.7906e-16
3901.672 1.8275e-16
3903.207 1.846e-16
3904.742 1.8075e-16
3906.277 1.6993e-16
3907.812 1.7784e-16
3909.347 1.7922e-16
3910.882 1.8325e-16
3912.417 1.9668e-16
3913.951 2.0418e-16
3915.486 1.9129e-16
3917.021 1.7878e-16
3918.556 1.7394e-16
3920.091 1.8849e-16
3921.626 1.835e-16
3923.161 1.8304e-16
3924.696 1.6883e-16
3926.23 1.7617e-16
3927.765 1.6878e-16
3929.3 1.6457e-16
3930.835 1.6776e-16
3932.37 1.6586e-16
3933.905 1.6767e-16
3935.44 1.7429e-16
3936.975 1.8317e-16
3938.509 1.8481e-16
3940.044 1.8723e-16
3941.579 1.6533e-16
3943.114 1.696e-16
3944.649 1.8522e-16
3946.184 1.7776e-16
3947.719 1.6186e-16
3949.253 1.6578e-16
3950.788 1.6308e-16
3952.323 1.7007e-16
3953.858 1.674e-16
3955.393 1.5043e-16
3956.928 1.6601e-16
3958.463 1.8117e-16
3959.998 1.7302e-16
3961.532 1.7897e-16
3963.067 1.7423e-16
3964.602 1.604e-16
3966.137 1.5403e-16
3967.672 1.5749e-16
3969.207 1.7297e-16
3970.742 1.5903e-16
3972.277 1.6469e-16
3973.812 1.6479e-16
3975.346 1.6082e-16
3976.881 1.5447e-16
3978.416 1.5524e-16
3979.951 1.5403e-16
3981.486 1.5694e-16
3983.021 1.5182e-16
3984.556 1.4914e-16
3986.091 1.6149e-16
3987.625 1.5159e-16
3989.16 1.5243e-16
3990.695 1.349e-16
3992.23 1.5218e-16
3993.765 1.4136e-16
3995.3 1.3331e-16
3996.835 1.3952e-16
3998.37 1.5062e-16
3999.905 1.4161e-16
4001.439 1.4677e-16
4002.974 1.351e-16
4004.509 1.3981e-16
4006.044 1.4593e-16
4007.579 1.3481e-16
4009.114 1.2384e-16
4010.649 1.334e-16
4012.184 1.2932e-16
4013.719 1.1998e-16
4015.253 1.3575e-16
4016.788 1.3965e-16
4018.323 1.2921e-16
4019.858 1.2639e-16
4021.393 1.4024e-16
4022.928 1.3543e-16
4024.463 1.307e-16
4025.998 1.3443e-16
4027.532 1.2616e-16
4029.067 1.202e-16
4030.602 1.2801e-16
4032.137 1.5298e-16
4033.672 1.5018e-16
4035.207 1.5031e-16
4036.742 1.4187e-16
4038.276 1.354e-16
4039.811 1.4122e-16
4041.346 1.4385e-16
4042.881 1.3394e-16
4044.416 1.4725e-16
4045.951 1.4007e-16
4047.486 1.4534e-16
4049.021 1.6869e-16
4050.555 1.4899e-16
4052.09 1.4327e-16
4053.625 1.3202e-16
4055.16 1.3864e-16
4056.695 1.3954e-16
4058.23 1.4545e-16
4059.765 1.5236e-16
4061.3 1.4762e-16
4062.834 1.4369e-16
4064.369 1.3556e-16
4065.904 1.3506e-16
4067.439 1.4936e-16
4068.974 1.6572e-16
4070.509 1.5205e-16
4072.044 1.6143e-16
4073.579 1.5411e-16
4075.114 1.4772e-16
4076.648 1.5221e-16
4078.183 1.5389e-16
4079.718 1.5946e-16
4081.253 1.5445e-16
4082.788 1.5135e-16
4084.323 1.5466e-16
4085.858 1.4452e-16
4087.393 1.4269e-16
4088.927 1.4149e-16
4090.462 1.545e-16
4091.997 1.5766e-16
4093.532 1.5911e-16
4095.067 1.6154e-16
4096.602 1.6308e-16
4098.137 1.4735e-16
4099.671 1.4837e-16
4101.207 1.5328e-16
4102.741 1.5763e-16
4104.276 1.7514e-16
4105.811 1.6415e-16
4107.346 1.5822e-16
4108.881 1.5552e-16
4110.416 1.566e-16
4111.951 1.616e-16
4113.485 1.571e-16
4115.021 1.6861e-16
4116.555 1.6773e-16
4118.09 1.6213e-16
4119.625 1.5472e-16
4121.16 1.6169e-16
4122.695 1.6904e-16
4124.229 1.5538e-16
4125.765 1.6299e-16
4127.299 1.6884e-16
4128.834 1.6064e-16
4130.369 1.5475e-16
4131.904 1.5161e-16
4133.439 1.5447e-16
4134.974 1.5264e-16
4136.509 1.6037e-16
4138.043 1.5812e-16
4139.579 1.6319e-16
4141.113 1.5981e-16
4142.648 1.504e-16
4144.183 1.5686e-16
4145.718 1.6084e-16
4147.253 1.5381e-16
4148.788 1.6297e-16
4150.323 1.6256e-16
4151.857 1.5857e-16
4153.393 1.5654e-16
4154.927 1.5457e-16
4156.462 1.588e-16
4157.997 1.6131e-16
4159.532 1.5371e-16
4161.067 1.5597e-16
4162.602 1.5538e-16
4164.137 1.4952e-16
4165.671 1.5148e-16
4167.206 1.5568e-16
4168.741 1.5164e-16
4170.276 1.6547e-16
4171.811 1.6451e-16
4173.346 1.4879e-16
4174.881 1.5276e-16
4176.416 1.5471e-16
4177.95 1.5123e-16
4179.485 1.5546e-16
4181.02 1.5312e-16
4182.555 1.6382e-16
4184.09 1.6354e-16
4185.625 1.6131e-16
4187.16 1.6594e-16
4188.694 1.6262e-16
4190.229 1.6406e-16
4191.764 1.549e-16
4193.299 1.613e-16
4194.834 1.6505e-16
4196.369 1.6186e-16
4197.904 1.6869e-16
4199.438 1.6324e-16
4200.974 1.5458e-16
4202.508 1.4707e-16
4204.043 1.5958e-16
4205.578 1.6781e-16
4207.113 1.6116e-16
4208.648 1.601e-16
4210.183 1.6414e-16
4211.718 1.548e-16
4213.252 1.559e-16
4214.788 1.5992e-16
4216.322 1.5808e-16
4217.857 1.5434e-16
4219.392 1.5584e-16
4220.927 1.4995e-16
4222.462 1.4069e-16
4223.997 1.4204e-16
4225.532 1.5971e-16
4227.066 1.5876e-16
4228.602 1.5079e-16
4230.136 1.5371e-16
4231.671 1.5698e-16
4233.206 1.586e-16
4234.741 1.727e-16
4236.276 1.81e-16
4237.811 1.6988e-16
4239.346 1.5287e-16
4240.88 1.6405e-16
4242.416 1.686e-16
4243.95 1.6007e-16
4245.485 1.5532e-16
4247.02 1.594e-16
4248.555 1.5915e-16
4250.09 1.7368e-16
4251.625 1.663e-16
4253.16 1.5735e-16
4254.694 1.5691e-16
4256.229 1.5274e-16
4257.764 1.6163e-16
4259.299 1.6474e-16
4260.834 1.4796e-16
4262.369 1.5514e-16
4263.904 1.4816e-16
4265.438 1.5683e-16
4266.973 1.5068e-16
4268.508 1.4556e-16
4270.043 1.5356e-16
4271.578 1.5335e-16
4273.113 1.5554e-16
4274.648 1.5172e-16
4276.183 1.6182e-16
4277.717 1.6618e-16
4279.252 1.5458e-16
4280.787 1.5439e-16
4282.322 1.5759e-16
4283.857 1.5208e-16
4285.392 1.4733e-16
4286.927 1.4596e-16
4288.461 1.5636e-16
4289.997 1.6722e-16
4291.531 1.6147e-16
4293.066 1.5382e-16
4294.601 1.4799e-16
4296.136 1.5297e-16
4297.671 1.5458e-16
4299.206 1.5505e-16
4300.741 1.601e-16
4302.275 1.582e-16
4303.811 1.5816e-16
4305.345 1.5477e-16
4306.88 1.4158e-16
4308.415 1.5011e-16
4309.95 1.4877e-16
4311.485 1.4926e-16
4313.02 1.5821e-16
4314.555 1.6001e-16
4316.089 1.4788e-16
4317.625 1.5442e-16
4319.159 1.4692e-16
4320.694 1.5304e-16
4322.229 1.57e-16
4323.764 1.4796e-16
4325.299 1.4954e-16
4326.833 1.4963e-16
4328.369 1.3993e-16
4329.903 1.4442e-16
4331.438 1.5645e-16
4332.973 1.5596e-16
4334.508 1.5267e-16
4336.043 1.589e-16
4337.578 1.4415e-16
4339.113 1.4707e-16
4340.647 1.515e-16
4342.183 1.5055e-16
4343.717 1.5697e-16
4345.252 1.4673e-16
4346.787 1.4163e-16
4348.322 1.6303e-16
4349.857 1.6039e-16
4351.392 1.4925e-16
4352.927 1.4573e-16
4354.461 1.4189e-16
4355.996 1.4152e-16
4357.531 1.5277e-16
4359.066 1.4058e-16
4360.601 1.6421e-16
4362.136 1.3026e-16
4363.671 1.4007e-16
4365.206 1.4737e-16
4366.74 1.5118e-16
4368.275 1.5099e-16
4369.81 1.2749e-16
4371.345 1.437e-16
4372.88 1.3646e-16
4374.415 1.3974e-16
4375.95 1.5746e-16
4377.484 1.4844e-16
4379.02 1.4628e-16
4380.554 1.3704e-16
4382.089 1.357e-16
4383.624 1.3782e-16
4385.159 1.3362e-16
4386.694 1.4898e-16
4388.229 1.5285e-16
4389.764 1.4627e-16
4391.298 1.461e-16
4392.833 1.3645e-16
4394.368 1.4494e-16
4395.903 1.5668e-16
4397.438 1.3922e-16
4398.973 1.2541e-16
4400.508 1.3373e-16
4402.042 1.5193e-16
4403.578 1.4613e-16
4405.112 1.4416e-16
4406.647 1.5244e-16
4408.182 1.5513e-16
4409.717 1.2981e-16
4411.252 1.3825e-16
4412.787 1.5617e-16
4414.322 1.426e-16
4415.856 1.2818e-16
4417.392 1.2903e-16
4418.926 1.4726e-16
4420.461 1.2621e-16
4421.996 1.3804e-16
4423.531 1.4604e-16
4425.066 1.5965e-16
4426.601 1.5305e-16
4428.136 1.4037e-16
4429.67 1.4056e-16
4431.205 1.3751e-16
4432.74 1.3782e-16
4434.275 1.4542e-16
4435.81 1.3432e-16
4437.345 1.4111e-16
4438.88 1.4513e-16
4440.415 1.3723e-16
4441.95 1.5052e-16
4443.484 1.4822e-16
4445.019 1.4466e-16
4446.554 1.3194e-16
4448.089 1.4918e-16
4449.624 1.5113e-16
4451.159 1.3186e-16
4452.694 1.3495e-16
4454.229 1.4259e-16
4455.763 1.4422e-16
4457.298 1.4035e-16
4458.833 1.4855e-16
4460.368 1.5533e-16
4461.903 1.4715e-16
4463.438 1.3538e-16
4464.973 1.3974e-16
4466.507 1.3524e-16
4468.042 1.4097e-16
4469.577 1.3923e-16
4471.112 1.5376e-16
4472.647 1.6482e-16
4474.182 1.4323e-16
4475.717 1.2262e-16
4477.251 1.4247e-16
4478.787 1.4852e-16
4480.321 1.3702e-16
4481.856 1.4046e-16
4483.391 1.5675e-16
4484.926 1.449e-16
4486.461 1.448e-16
4487.996 1.4455e-16
4489.531 1.41e-16
4491.065 1.2477e-16
4492.601 1.4764e-16
4494.135 1.4977e-16
4495.67 1.389e-16
4497.205 1.3988e-16
4498.74 1.3611e-16
4500.275 1.4819e-16
4501.81 1.5146e-16
4503.345 1.4344e-16
4504.879 1.3995e-16
4506.415 1.3914e-16
4507.949 1.3449e-16
4509.484 1.4281e-16
4511.019 1.4839e-16
4512.554 1.3474e-16
4514.089 1.3947e-16
4515.624 1.5042e-16
4517.159 1.3499e-16
4518.693 1.2507e-16
4520.228 1.5838e-16
4521.763 1.6008e-16
4523.298 1.4009e-16
4524.833 1.4227e-16
4526.368 1.4357e-16
4527.903 1.4667e-16
4529.438 1.5222e-16
4530.973 1.384e-16
4532.507 1.3962e-16
4534.042 1.4216e-16
4535.577 1.389e-16
4537.112 1.377e-16
4538.647 1.3768e-16
4540.182 1.4519e-16
4541.717 1.3737e-16
4543.251 1.3794e-16
4544.786 1.5237e-16
4546.321 1.5302e-16
4547.856 1.4002e-16
4549.391 1.6201e-16
4550.926 1.5022e-16
4552.461 1.4366e-16
4553.996 1.259e-16
4555.53 1.246e-16
4557.065 1.2768e-16
4558.6 1.3391e-16
4560.135 1.4596e-16
4561.67 1.3851e-16
4563.205 1.4045e-16
4564.74 1.4674e-16
4566.274 1.5221e-16
4567.81 1.4307e-16
4569.344 1.2611e-16
4570.879 1.2693e-16
4572.414 1.4313e-16
4573.949 1.3702e-16
4575.484 1.3077e-16
4577.019 1.3004e-16
4578.554 1.413e-16
4580.088 1.2838e-16
4581.624 1.1906e-16
4583.158 1.2562e-16
4584.693 1.3945e-16
4586.228 1.4152e-16
4587.763 1.5077e-16
4589.298 1.4207e-16
4590.833 1.4124e-16
4592.368 1.4442e-16
4593.902 1.3692e-16
4595.438 1.3611e-16
4596.972 1.3707e-16
4598.507 1.4633e-16
4600.042 1.4552e-16
4601.577 1.3689e-16
4603.112 1.3812e-16
4604.646 1.3118e-16
4606.182 1.2651e-16
4607.716 1.3967e-16
4609.251 1.3206e-16
4610.786 1.3897e-16
4612.321 1.3458e-16
4613.856 1.3065e-16
4615.391 1.4439e-16
4616.926 1.4289e-16
4618.46 1.4201e-16
4619.995 1.4667e-16
4621.53 1.2879e-16
4623.065 1.3586e-16
4624.6 1.322e-16
4626.135 1.4762e-16
4627.67 1.3636e-16
4629.205 1.3423e-16
4630.74 1.4088e-16
4632.274 1.2742e-16
4633.809 1.3501e-16
4635.344 1.3988e-16
4636.879 1.4133e-16
4638.414 1.309e-16
4639.949 1.3859e-16
4641.484 1.4353e-16
4643.019 1.3521e-16
4644.553 1.4664e-16
4646.088 1.4209e-16
4647.623 1.3721e-16
4649.158 1.3136e-16
4650.693 1.3826e-16
4652.228 1.3506e-16
4653.763 1.3905e-16
4655.297 1.293e-16
4656.833 1.2836e-16
4658.367 1.3737e-16
4659.902 1.4031e-16
4661.437 1.3325e-16
4662.972 1.4166e-16
4664.507 1.3012e-16
4666.042 1.2556e-16
4667.577 1.4085e-16
4669.111 1.4309e-16
4670.646 1.3324e-16
4672.181 1.377e-16
4673.716 1.384e-16
4675.251 1.2831e-16
4676.786 1.2508e-16
4678.321 1.3479e-16
4679.855 1.433e-16
4681.391 1.3072e-16
4682.925 1.3081e-16
4684.46 1.3701e-16
4685.995 1.4421e-16
4687.53 1.3473e-16
4689.065 1.2382e-16
4690.6 1.2949e-16
4692.135 1.2781e-16
4693.669 1.3059e-16
4695.205 1.2525e-16
4696.739 1.2465e-16
4698.274 1.4064e-16
4699.809 1.4563e-16
4701.344 1.3306e-16
4702.879 1.2082e-16
4704.414 1.3075e-16
4705.949 1.34e-16
4707.483 1.3139e-16
4709.018 1.1813e-16
4710.553 1.2489e-16
4712.088 1.3084e-16
4713.623 1.1894e-16
4715.158 1.3104e-16
4716.693 1.4037e-16
4718.228 1.3496e-16
4719.762 1.3664e-16
4721.297 1.4847e-16
4722.832 1.5737e-16
4724.367 1.4747e-16
4725.902 1.5092e-16
4727.437 1.4138e-16
4728.972 1.3683e-16
4730.507 1.4449e-16
4732.042 1.4422e-16
4733.576 1.4056e-16
4735.111 1.3151e-16
4736.646 1.36e-16
4738.181 1.349e-16
4739.716 1.4389e-16
4741.251 1.4641e-16
4742.786 1.5644e-16
4744.32 1.4387e-16
4745.855 1.5624e-16
4747.39 1.5115e-16
4748.925 1.4346e-16
4750.46 1.5651e-16
4751.995 1.5136e-16
4753.53 1.443e-16
4755.064 1.4921e-16
4756.6 1.5528e-16
4758.134 1.5241e-16
4759.669 1.4613e-16
4761.204 1.546e-16
4762.739 1.4488e-16
4764.274 1.4077e-16
4765.809 1.3921e-16
4767.344 1.5094e-16
4768.878 1.5502e-16
4770.414 1.3906e-16
4771.948 1.5177e-16
4773.483 1.5716e-16
4775.018 1.4655e-16
4776.553 1.5024e-16
4778.088 1.4421e-16
4779.623 1.3968e-16
4781.158 1.5071e-16
4782.692 1.3474e-16
4784.228 1.4316e-16
4785.762 1.4763e-16
4787.297 1.3888e-16
4788.832 1.411e-16
4790.367 1.5241e-16
4791.902 1.468e-16
4793.437 1.5211e-16
4794.972 1.443e-16
4796.506 1.4518e-16
4798.041 1.4413e-16
4799.576 1.4479e-16
4801.111 1.3606e-16
4802.646 1.3069e-16
4804.181 1.3966e-16
4805.716 1.3896e-16
4807.25 1.414e-16
4808.785 1.4708e-16
4810.32 1.4818e-16
4811.855 1.4676e-16
4813.39 1.4546e-16
4814.925 1.5015e-16
4816.46 1.3911e-16
4817.995 1.4126e-16
4819.529 1.3579e-16
4821.064 1.4408e-16
4822.599 1.4163e-16
4824.134 1.4716e-16
4825.669 1.5534e-16
4827.204 1.5613e-16
4828.739 1.295e-16
4830.274 1.3614e-16
4831.809 1.3608e-16
4833.343 1.3474e-16
4834.878 1.3608e-16
4836.413 1.3127e-16
4837.948 1.3675e-16
4839.483 1.3132e-16
4841.018 1.2843e-16
4842.553 1.2349e-16
4844.087 1.2638e-16
4845.623 1.3013e-16
4847.157 1.2876e-16
4848.692 1.327e-16
4850.227 1.3492e-16
4851.762 1.446e-16
4853.297 1.2783e-16
4854.832 1.3106e-16
4856.367 1.4067e-16
4857.901 1.3973e-16
4859.437 1.2529e-16
4860.971 1.3026e-16
4862.506 1.3652e-16
4864.041 1.3281e-16
4865.576 1.2683e-16
4867.111 1.3725e-16
4868.646 1.2776e-16
4870.181 1.3015e-16
4871.715 1.2963e-16
4873.25 1.3304e-16
4874.785 1.2834e-16
4876.32 1.3378e-16
4877.855 1.3288e-16
4879.39 1.2114e-16
4880.925 1.2189e-16
4882.459 1.256e-16
4883.995 1.248e-16
4885.529 1.4096e-16
4887.064 1.4663e-16
4888.599 1.3959e-16
4890.134 1.3343e-16
4891.669 1.286e-16
4893.204 1.2557e-16
4894.739 1.2009e-16
4896.273 1.2908e-16
4897.808 1.3271e-16
4899.343 1.2673e-16
4900.878 1.2357e-16
4902.413 1.2541e-16
4903.948 1.3548e-16
4905.483 1.3587e-16
4907.018 1.328e-16
4908.552 1.333e-16
4910.087 1.2124e-16
4911.622 1.1765e-16
4913.157 1.3041e-16
4914.692 1.2406e-16
4916.227 1.2606e-16
4917.762 1.389e-16
4919.296 1.2836e-16
4920.832 1.1999e-16
4922.366 1.2318e-16
4923.901 1.2296e-16
4925.436 1.3233e-16
4926.971 1.2785e-16
4928.506 1.3034e-16
4930.041 1.3086e-16
4931.576 1.1734e-16
4933.11 1.2803e-16
4934.646 1.3564e-16
4936.18 1.2818e-16
4937.715 1.3274e-16
4939.25 1.3474e-16
4940.785 1.2326e-16
4942.32 1.3209e-16
4943.854 1.3044e-16
4945.39 1.3731e-16
4946.924 1.3693e-16
4948.459 1.2414e-16
4949.994 1.2591e-16
4951.529 1.3091e-16
4953.064 1.3845e-16
4954.599 1.3335e-16
4956.134 1.3037e-16
4957.668 1.2069e-16
4959.204 1.2867e-16
4960.738 1.3266e-16
4962.273 1.4542e-16
4963.808 1.3752e-16
4965.343 1.4334e-16
4966.878 1.3496e-16
4968.413 1.4078e-16
4969.948 1.4176e-16
4971.482 1.4052e-16
4973.018 1.2867e-16
4974.552 1.2472e-16
4976.087 1.2732e-16
4977.622 1.2032e-16
4979.157 1.2598e-16
4980.692 1.3225e-16
4982.227 1.3701e-16
4983.762 1.3238e-16
4985.296 1.2858e-16
4986.831 1.412e-16
4988.366 1.2915e-16
4989.901 1.2123e-16
4991.436 1.334e-16
4992.971 1.3245e-16
4994.506 1.3174e-16
4996.041 1.2635e-16
4997.575 1.2463e-16
4999.11 1.3608e-16
5000.645 1.2338e-16
5002.18 1.2967e-16
5003.715 1.2681e-16
5005.25 1.3036e-16
5006.785 1.2387e-16
5008.319 1.2218e-16
5009.854 1.2516e-16
5011.389 1.2544e-16
5012.924 1.2511e-16
5014.459 1.2024e-16
5015.994 1.3719e-16
5017.529 1.2797e-16
5019.063 1.1181e-16
5020.599 1.2642e-16
5022.133 1.203e-16
5023.668 1.2734e-16
5025.203 1.1542e-16
5026.738 1.1192e-16
5028.273 1.0753e-16
5029.808 1.0991e-16
5031.343 1.2359e-16
5032.877 1.209e-16
5034.413 1.2214e-16
5035.947 1.1725e-16
5037.482 1.2342e-16
5039.017 1.1652e-16
5040.552 1.1363e-16
5042.087 1.2527e-16
5043.622 1.2831e-16
5045.157 1.2172e-16
5046.691 1.294e-16
5048.227 1.2385e-16
5049.761 1.1291e-16
5051.296 1.1154e-16
5052.831 1.137e-16
5054.366 1.2901e-16
5055.901 1.271e-16
5057.436 1.1431e-16
5058.971 1.062e-16
5060.505 1.163e-16
5062.041 1.168e-16
5063.575 1.1844e-16
5065.11 1.2156e-16
5066.645 1.1169e-16
5068.18 1.1959e-16
5069.715 1.26e-16
5071.25 1.2259e-16
5072.785 1.1844e-16
5074.319 1.1134e-16
5075.854 1.1133e-16
5077.389 1.2631e-16
5078.924 1.3633e-16
5080.459 1.2474e-16
5081.994 1.2434e-16
5083.529 1.1789e-16
5085.063 1.2335e-16
5086.598 1.2963e-16
5088.133 1.1641e-16
5089.668 1.1272e-16
5091.203 1.0345e-16
5092.738 1.0894e-16
5094.273 1.1454e-16
5095.808 1.1051e-16
5097.342 1.1723e-16
5098.877 1.2402e-16
5100.412 1.2364e-16
5101.947 1.2345e-16
5103.482 1.2026e-16
5105.017 1.1465e-16
5106.552 1.1534e-16
5108.086 1.1759e-16
5109.622 1.234e-16
5111.156 1.2586e-16
5112.691 1.1971e-16
5114.226 1.2118e-16
5115.761 1.1563e-16
5117.296 1.0587e-16
5118.831 1.1321e-16
5120.366 1.2453e-16
5121.9 1.206e-16
5123.436 1.2228e-16
5124.97 1.1828e-16
5126.505 1.1027e-16
5128.04 1.1324e-16
5129.575 1.0758e-16
5131.11 1.064e-16
5132.645 1.0895e-16
5134.18 1.2204e-16
5135.714 1.1674e-16
5137.25 1.115e-16
5138.784 1.1523e-16
5140.319 1.2231e-16
5141.854 1.0983e-16
5143.389 1.0823e-16
5144.924 1.1187e-16
5146.458 1.1226e-16
5147.994 1.0857e-16
5149.528 1.1741e-16
5151.063 1.1471e-16
5152.598 1.2423e-16
5154.133 1.2138e-16
5155.668 1.221e-16
5157.203 1.2685e-16
5158.738 1.1684e-16
5160.272 1.1977e-16
5161.808 1.2162e-16
5163.342 1.2586e-16
5164.877 1.1334e-16
5166.412 1.174e-16
5167.947 1.1577e-16
5169.482 1.2467e-16
5171.017 1.2169e-16
5172.552 1.2739e-16
5174.086 1.1729e-16
5175.621 1.0971e-16
5177.156 1.1834e-16
5178.691 1.2902e-16
5180.226 1.2024e-16
5181.761 1.2323e-16
5183.296 1.29e-16
5184.831 1.2673e-16
5186.365 1.2031e-16
5187.9 1.1525e-16
5189.435 1.1403e-16
5190.97 1.2485e-16
5192.505 1.3429e-16
5194.04 1.2497e-16
5195.575 1.1215e-16
5197.109 1.1866e-16
5198.645 1.1456e-16
5200.179 1.1875e-16
5201.714 1.236e-16
5203.249 1.3015e-16
5204.784 1.2858e-16
5206.319 1.3518e-16
5207.854 1.2223e-16
5209.389 1.2437e-16
5210.923 1.299e-16
5212.458 1.2266e-16
5213.993 1.2101e-16
5215.528 1.1885e-16
5217.063 1.3022e-16
5218.598 1.3232e-16
5220.133 1.2746e-16
5221.667 1.2752e-16
5223.203 1.2793e-16
5224.737 1.2429e-16
5226.272 1.3137e-16
5227.807 1.2697e-16
5229.342 1.2566e-16
5230.877 1.336e-16
5232.412 1.2848e-16
5233.947 1.2875e-16
5235.481 1.2826e-16
5237.017 1.2973e-16
5238.551 1.3883e-16
5240.086 1.3228e-16
5241.621 1.2658e-16
5243.156 1.2748e-16
5244.691 1.2714e-16
5246.226 1.3463e-16
5247.761 1.4642e-16
5249.295 1.2761e-16
5250.831 1.2884e-16
5252.365 1.3033e-16
5253.9 1.1761e-16
5255.435 1.0977e-16
5256.97 1.0744e-16
5258.505 1.2891e-16
5260.04 1.2681e-16
5261.575 1.3107e-16
5263.109 1.2861e-16
5264.644 1.3083e-16
5266.179 1.2194e-16
5267.714 1.3303e-16
5269.249 1.3205e-16
5270.784 1.2995e-16
5272.319 1.3726e-16
5273.854 1.306e-16
5275.388 1.287e-16
5276.923 1.2733e-16
5278.458 1.1852e-16
5279.993 1.2652e-16
5281.528 1.2854e-16
5283.063 1.1837e-16
5284.598 1.2236e-16
5286.132 1.284e-16
5287.667 1.1863e-16
5289.202 1.114e-16
5290.737 1.1929e-16
5292.272 1.1935e-16
5293.807 1.0942e-16
5295.342 1.1587e-16
5296.876 1.2523e-16
5298.412 1.2688e-16
5299.946 1.1769e-16
5301.481 1.3131e-16
5303.016 1.3479e-16
5304.551 1.223e-16
5306.086 1.1569e-16
5307.621 1.139e-16
5309.156 1.2487e-16
5310.69 1.0747e-16
5312.226 1.1319e-16
5313.76 1.253e-16
5315.295 1.3466e-16
5316.83 1.2075e-16
5318.365 1.2008e-16
5319.9 1.2076e-16
5321.435 1.3403e-16
5322.97 1.2119e-16
5324.504 1.2112e-16
5326.04 1.2424e-16
5327.574 1.2501e-16
5329.109 1.1706e-16
5330.644 1.2188e-16
5332.179 1.1456e-16
5333.714 1.0727e-16
5335.249 1.1305e-16
5336.784 1.1656e-16
5338.318 9.8488e-17
5339.854 1.1944e-16
5341.388 1.2516e-16
5342.923 1.1339e-16
5344.458 1.117e-16
5345.993 1.146e-16
5347.528 1.2894e-16
5349.062 1.1741e-16
5350.598 1.3146e-16
5352.132 1.1505e-16
5353.667 1.0633e-16
5355.202 9.5887e-17
5356.737 1.0812e-16
5358.272 1.1132e-16
5359.807 1.0796e-16
5361.342 1.0321e-16
5362.876 1.0576e-16
5364.411 1.083e-16
5365.946 1.1098e-16
5367.481 1.0316e-16
5369.016 1.1989e-16
5370.551 1.2022e-16
5372.086 1.0934e-16
5373.621 1.0445e-16
5375.155 1.0616e-16
5376.69 1.1225e-16
5378.225 1.064e-16
5379.76 9.9067e-17
5381.295 1.2853e-16
5382.83 1.2785e-16
5384.365 1.0724e-16
5385.899 1.1141e-16
5387.435 1.0378e-16
5388.969 1.0318e-16
5390.504 9.5647e-17
5392.039 1.007e-16
5393.574 1.0742e-16
5395.109 1.2318e-16
5396.644 1.1267e-16
5398.179 1.1397e-16
5399.713 1.12e-16
5401.249 1.0313e-16
5402.783 1.0931e-16
5404.318 1.0164e-16
5405.853 1.1281e-16
5407.388 1.237e-16
5408.923 1.1402e-16
5410.458 1.2565e-16
5411.993 1.2217e-16
5413.527 1.0318e-16
5415.062 1.1519e-16
5416.597 1.0522e-16
5418.132 9.7674e-17
5419.667 1.0899e-16
5421.202 1.2065e-16
5422.737 1.1034e-16
5424.271 1.058e-16
5425.807 1.1332e-16
5427.341 1.2623e-16
5428.876 1.1274e-16
5430.411 1.065e-16
5431.946 1.1063e-16
5433.481 1.1563e-16
5435.016 9.6403e-17
5436.551 1.0751e-16
5438.085 1.3333e-16
5439.621 1.2619e-16
5441.155 1.0914e-16
5442.69 1.1297e-16
5444.225 1.2394e-16
5445.76 1.0999e-16
5447.295 9.8866e-17
5448.83 1.1906e-16
5450.365 1.3475e-16
5451.899 1.1633e-16
5453.434 1.2242e-16
5454.969 1.1276e-16
5456.504 1.0351e-16
5458.039 1.2093e-16
5459.574 1.3097e-16
5461.109 1.3315e-16
5462.644 1.305e-16
5464.178 1.1866e-16
5465.713 1.3347e-16
5467.248 1.2862e-16
5468.783 1.2628e-16
5470.318 1.1467e-16
5471.853 1.2272e-16
5473.388 1.3072e-16
5474.922 1.1606e-16
5476.458 1.3589e-16
5477.992 1.3809e-16
5479.527 1.1302e-16
5481.062 9.1702e-17
5482.597 1.283e-16
5484.132 1.2293e-16
5485.667 1.2176e-16
5487.202 1.2584e-16
5488.736 1.4033e-16
5490.271 1.0813e-16
5491.806 1.2437e-16
5493.341 1.3442e-16
5494.876 9.6357e-17
5496.411 1.2491e-16
5497.946 1.3742e-16
5499.48 1.4087e-16
5501.016 1.4032e-16
5502.55 1.312e-16
5504.085 1.2927e-16
5505.62 1.3314e-16
5507.155 1.2866e-16
5508.69 1.2731e-16
5510.225 1.2154e-16
5511.76 1.2971e-16
5513.294 1.2877e-16
5514.83 1.3467e-16
5516.364 1.3093e-16
5517.899 1.2196e-16
5519.434 1.2118e-16
5520.969 1.335e-16
5522.504 1.337e-16
5524.039 1.2647e-16
5525.574 1.2366e-16
5527.108 1.2032e-16
5528.644 1.3231e-16
5530.178 1.176e-16
5531.713 1.1112e-16
5533.248 1.2606e-16
5534.783 1.2364e-16
5536.318 1.109e-16
5537.853 1.0677e-16
5539.388 1.1216e-16
5540.922 1.2421e-16
5542.457 1.2283e-16
5543.992 1.1614e-16
5545.527 1.1783e-16
5547.062 1.2413e-16
5548.597 1.1544e-16
5550.132 1.187e-16
5551.667 1.1842e-16
5553.201 1.1874e-16
5554.736 1.1709e-16
5556.271 1.1705e-16
5557.806 1.0892e-16
5559.341 1.1258e-16
5560.876 1.1499e-16
5562.411 1.1644e-16
5563.945 1.1369e-16
5565.48 1.1991e-16
5567.015 1.1395e-16
5568.55 9.776e-17
5570.085 9.9184e-17
5571.62 1.0466e-16
5573.155 1.2474e-16
5574.689 1.2371e-16
5576.225 1.119e-16
5577.759 1.2623e-16
5579.294 1.1424e-16
5580.829 1.0247e-16
5582.364 1.0875e-16
5583.899 1.0013e-16
5585.434 9.3285e-17
5586.969 1.0686e-16
5588.503 1.1105e-16
5590.039 1.0099e-16
5591.573 9.8354e-17
5593.108 1.1229e-16
5594.643 1.1568e-16
5596.178 1.0143e-16
5597.713 9.8344e-17
5599.248 1.0366e-16
5600.783 1.0944e-16
5602.317 1.0463e-16
5603.853 1.0082e-16
5605.387 1.0953e-16
5606.922 1.1174e-16
5608.457 1.0193e-16
5609.992 1.0118e-16
5611.527 9.8664e-17
5613.062 9.1783e-17
5614.597 9.6686e-17
5616.131 1.0479e-16
5617.667 1.009e-16
5619.201 9.4867e-17
5620.736 9.9203e-17
5622.271 1.0278e-16
5623.806 1.0233e-16
5625.341 1.0007e-16
5626.875 9.5183e-17
5628.411 9.1756e-17
5629.945 9.412e-17
5631.48 9.385e-17
5633.015 9.6352e-17
5634.55 9.6067e-17
5636.085 1.0356e-16
5637.62 1.0192e-16
5639.155 9.6739e-17
5640.689 9.8251e-17
5642.224 9.4925e-17
5643.759 9.124e-17
5645.294 9.1732e-17
5646.829 9.0737e-17
5648.364 8.7301e-17
5649.899 9.4478e-17
5651.434 9.551e-17
5652.968 9.8652e-17
5654.503 9.5107e-17
5656.038 9.1053e-17
5657.573 9.3229e-17
5659.108 9.4346e-17
5660.643 9.7785e-17
5662.178 9.4889e-17
5663.712 9.3802e-17
5665.248 9.2873e-17
5666.782 9.3234e-17
5668.317 8.7454e-17
5669.852 8.3367e-17
5671.387 9.0412e-17
5672.922 8.787e-17
5674.457 8.4035e-17
5675.992 8.7035e-17
5677.526 9.4491e-17
5679.062 9.6956e-17
5680.596 9.4896e-17
5682.131 8.7262e-17
5683.666 8.536e-17
5685.201 8.9778e-17
5686.736 8.954e-17
5688.271 8.9052e-17
5689.806 8.8816e-17
5691.34 8.5341e-17
5692.875 8.6736e-17
5694.41 9.2437e-17
5695.945 9.5028e-17
5697.48 9.385e-17
5699.015 9.337e-17
5700.55 8.9295e-17
5702.084 9.1377e-17
5703.62 9.0445e-17
5705.154 8.8725e-17
5706.689 8.9652e-17
5708.224 8.8322e-17
5709.759 8.9856e-17
5711.294 9.2203e-17
5712.829 8.8598e-17
5714.364 8.3752e-17
5715.898 9.1742e-17
5717.434 1.0245e-16
5718.968 9.267e-17
5720.503 8.0895e-17
5722.038 8.6986e-17
5723.573 9.0142e-17
5725.108 9.1545e-17
5726.643 9.2065e-17
5728.178 9.1135e-17
5729.712 9.212e-17
5731.247 9.0075e-17
5732.782 9.2107e-17
5734.317 9.4091e-17
5735.852 8.4391e-17
5737.387 7.7188e-17
5738.922 8.1367e-17
5740.457 9.0977e-17
5741.991 9.2396e-17
5743.526 8.7667e-17
5745.061 8.996e-17
5746.596 9.079e-17
5748.131 8.7224e-17
5749.666 8.9872e-17
5751.201 9.3757e-17
5752.735 8.9514e-17
5754.271 8.5123e-17
5755.805 8.6057e-17
5757.34 8.783e-17
5758.875 8.5235e-17
5760.41 8.5027e-17
5761.945 8.3623e-17
5763.479 8.3753e-17
5765.015 8.6501e-17
5766.549 9.0773e-17
5768.084 9.2935e-17
5769.619 8.5489e-17
5771.154 8.4294e-17
5772.689 8.6936e-17
5774.224 8.7692e-17
5775.759 8.8219e-17
5777.293 8.9085e-17
5778.829 9.1877e-17
5780.363 8.9024e-17
5781.898 8.8781e-17
5783.433 9.0744e-17
5784.968 8.7831e-17
5786.503 8.0772e-17
5788.038 8.4736e-17
5789.573 9.4239e-17
5791.107 9.1084e-17
5792.643 8.4769e-17
5794.177 8.6831e-17
5795.712 8.3711e-17
5797.247 8.0686e-17
5798.782 9.1998e-17
5800.317 9.533e-17
5801.852 8.6153e-17
5803.387 8.5007e-17
5804.921 8.8805e-17
5806.456 8.375e-17
5807.991 8.4222e-17
5809.526 8.8596e-17
5811.061 9.2186e-17
5812.596 9.4529e-17
5814.131 9.1994e-17
5815.666 9.5527e-17
5817.201 9.4797e-17
5818.735 9.2526e-17
5820.27 9.3345e-17
5821.805 9.2874e-17
5823.34 9.228e-17
5824.875 9.1509e-17
5826.41 9.0213e-17
5827.945 9.0087e-17
5829.479 8.7874e-17
5831.014 8.8173e-17
5832.549 8.8854e-17
5834.084 8.8793e-17
5835.619 8.5588e-17
5837.154 8.4951e-17
5838.689 8.7152e-17
5840.224 9.1484e-17
5841.758 9.2421e-17
5843.293 8.4073e-17
5844.828 7.9551e-17
5846.363 8.253e-17
5847.898 8.7149e-17
5849.433 8.2745e-17
5850.968 8.4993e-17
5852.502 8.9246e-17
5854.038 9.035e-17
5855.572 9.2135e-17
5857.107 8.6199e-17
5858.642 8.4934e-17
5860.177 8.6187e-17
5861.712 8.5272e-17
5863.247 8.6955e-17
5864.782 8.9734e-17
5866.316 9.1278e-17
5867.852 9.5292e-17
5869.386 9.5426e-17
5870.921 8.9054e-17
5872.456 9.0043e-17
5873.991 8.8414e-17
5875.526 8.6472e-17
5877.061 9.2514e-17
5878.596 9.2915e-17
5880.13 8.4717e-17
5881.666 8.5108e-17
5883.2 9.2722e-17
5884.735 8.9104e-17
5886.27 8.0528e-17
5887.805 8.3522e-17
5889.34 8.8867e-17
5890.875 8.6727e-17
5892.41 8.2963e-17
5893.944 7.8501e-17
5895.479 8.967e-17
5897.014 9.8644e-17
5898.549 9.0683e-17
5900.084 8.7081e-17
5901.619 8.537e-17
5903.154 8.4622e-17
5904.688 8.2105e-17
5906.223 8.7578e-17
5907.758 9.5514e-17
5909.293 9.2618e-17
5910.828 8.7965e-17
5912.363 9.3143e-17
5913.898 9.8258e-17
5915.433 9.4745e-17
5916.968 9.5325e-17
5918.502 1.0054e-16
5920.037 9.7878e-17
5921.572 9.5961e-17
5923.107 9.6295e-17
5924.642 9.1488e-17
5926.177 9.2359e-17
5927.712 1.021e-16
5929.247 1.0509e-16
5930.781 9.3155e-17
5932.316 8.7275e-17
5933.851 9.1193e-17
5935.386 9.3444e-17
5936.921 9.3905e-17
5938.456 9.5073e-17
5939.991 9.6342e-17
5941.525 9.144e-17
5943.061 9.3067e-17
5944.595 9.5034e-17
5946.13 9.1219e-17
5947.665 9.4127e-17
5949.2 9.7577e-17
5950.735 9.6872e-17
5952.27 9.8766e-17
5953.805 9.4038e-17
5955.339 9.1289e-17
5956.875 9.4144e-17
5958.409 9.7341e-17
5959.944 9.1352e-17
5961.479 8.7374e-17
5963.014 8.2063e-17
5964.549 8.8529e-17
5966.083 9.768e-17
5967.619 9.1659e-17
5969.153 8.8235e-17
5970.688 9.4622e-17
5972.223 9.2417e-17
5973.758 9.4694e-17
5975.293 1.0323e-16
5976.828 1.0243e-16
5978.363 1.0302e-16
5979.897 9.6037e-17
5981.433 9.227e-17
5982.967 9.5715e-17
5984.502 9.3677e-17
5986.037 9.27e-17
5987.572 9.4024e-17
5989.107 9.4874e-17
5990.642 9.5357e-17
5992.177 9.0748e-17
5993.711 8.6413e-17
5995.246 9.5073e-17
5996.781 9.6698e-17
5998.316 9.4378e-17
5999.851 1.0074e-16
6001.386 9.4892e-17
6002.921 9.1997e-17
6004.456 9.0786e-17
6005.99 9.4477e-17
6007.525 9.581e-17
6009.06 9.3089e-17
6010.595 9.4566e-17
6012.13 9.679e-17
6013.665 9.6258e-17
6015.2 9.3801e-17
6016.735 9.18e-17
6018.27 9.6301e-17
6019.804 9.9823e-17
6021.339 9.4958e-17
6022.874 9.6942e-17
6024.409 1.0218e-16
6025.944 1.0539e-16
6027.479 9.1942e-17
6029.014 8.945e-17
6030.548 9.3191e-17
6032.083 9.2927e-17
6033.618 9.2747e-17
6035.153 8.7816e-17
6036.688 8.8059e-17
6038.223 9.1007e-17
6039.758 8.8451e-17
6041.292 8.9597e-17
6042.828 8.8508e-17
6044.362 8.4067e-17
6045.897 8.831e-17
6047.432 9.6796e-17
6048.967 9.9494e-17
6050.502 9.7406e-17
6052.037 9.3031e-17
6053.572 9.4209e-17
6055.106 9.4138e-17
6056.642 9.4539e-17
6058.176 9.0435e-17
6059.711 8.4467e-17
6061.246 8.6012e-17
6062.781 8.7736e-17
6064.316 8.8852e-17
6065.851 9.4265e-17
6067.386 9.5252e-17
6068.92 8.6882e-17
6070.456 8.6773e-17
6071.99 8.9455e-17
6073.525 9.1811e-17
6075.06 9.5964e-17
6076.595 9.3477e-17
6078.13 9.1421e-17
6079.665 9.0652e-17
6081.2 9.0191e-17
6082.734 9.0873e-17
6084.269 9.0779e-17
6085.804 9.2781e-17
6087.339 9.4554e-17
6088.874 9.272e-17
6090.409 8.9442e-17
6091.944 8.8658e-17
6093.479 9.033e-17
6095.013 9.4924e-17
6096.548 9.4094e-17
6098.083 8.7759e-17
6099.618 8.7277e-17
6101.153 8.4779e-17
6102.688 8.4496e-17
6104.223 9.1208e-17
6105.757 9.3588e-17
6107.292 9.015e-17
6108.827 8.8145e-17
6110.362 9.0683e-17
6111.897 9.362e-17
6113.432 9.3529e-17
6114.967 9.5048e-17
6116.502 9.7377e-17
6118.037 9.3807e-17
6119.571 8.9179e-17
6121.106 8.8956e-17
6122.641 9.043e-17
6124.176 9.1199e-17
6125.711 9.4369e-17
6127.246 9.8563e-17
6128.781 9.7414e-17
6130.315 9.4673e-17
6131.851 9.2519e-17
6133.385 9.1376e-17
6134.92 9.2514e-17
6136.455 9.1399e-17
6137.99 9.1736e-17
6139.525 9.4551e-17
6141.06 9.0651e-17
6142.595 8.7099e-17
6144.129 8.7751e-17
6145.665 9.1216e-17
6147.199 9.2369e-17
6148.734 9.1245e-17
6150.269 9.3505e-17
6151.804 9.2345e-17
6153.339 8.7963e-17
6154.874 8.945e-17
6156.409 9.2676e-17
6157.943 9.3095e-17
6159.479 9.1878e-17
6161.013 9.2292e-17
6162.548 9.4674e-17
6164.083 9.5853e-17
6165.618 8.9887e-17
6167.153 8.1993e-17
6168.688 8.4098e-17
6170.223 9.2641e-17
6171.757 9.7334e-17
6173.292 9.2773e-17
6174.827 8.9491e-17
6176.362 9.6271e-17
6177.897 9.5705e-17
6179.432 9.2844e-17
6180.967 9.4658e-17
6182.501 9.4792e-17
6184.036 8.9125e-17
6185.571 8.5394e-17
6187.106 8.9422e-17
6188.641 9.5218e-17
6190.176 9.2705e-17
6191.711 8.5383e-17
6193.246 8.7948e-17
6194.78 9.4814e-17
6196.315 9.4336e-17
6197.85 8.5153e-17
6199.385 8.2526e-17
6200.92 8.8603e-17
6202.455 8.9933e-17
6203.99 9.2252e-17
6205.525 8.6586e-17
6207.06 8.3506e-17
6208.594 8.8614e-17
6210.129 9.1623e-17
6211.664 9.0275e-17
6213.199 8.9921e-17
6214.734 9.4502e-17
6216.269 8.9527e-17
6217.804 8.7843e-17
6219.338 8.8328e-17
6220.874 8.695e-17
6222.408 8.955e-17
6223.943 8.6981e-17
6225.478 8.5364e-17
6227.013 8.8333e-17
6228.548 8.826e-17
6230.083 8.6523e-17
6231.618 8.9303e-17
6233.152 9.2303e-17
6234.688 9.2741e-17
6236.222 8.7248e-17
6237.757 8.3768e-17
6239.292 8.5732e-17
6240.827 8.9482e-17
6242.362 8.7939e-17
6243.896 8.7622e-17
6245.432 8.6412e-17
6246.966 8.4558e-17
6248.501 8.9011e-17
6250.036 8.9009e-17
6251.571 8.2886e-17
6253.106 8.0063e-17
6254.641 8.632e-17
6256.176 8.7077e-17
6257.71 8.2403e-17
6259.246 8.2655e-17
6260.78 8.0433e-17
6262.315 7.9448e-17
6263.85 8.0912e-17
6265.385 7.7789e-17
6266.92 7.9676e-17
6268.455 8.1255e-17
6269.99 8.3442e-17
6271.524 8.1751e-17
6273.059 8.0694e-17
6274.594 8.0128e-17
6276.129 7.8226e-17
6277.664 8.3551e-17
6279.199 8.5286e-17
6280.734 7.6009e-17
6282.269 6.845e-17
6283.803 7.3409e-17
6285.338 8.2242e-17
6286.873 8.0858e-17
6288.408 7.5432e-17
6289.943 7.4784e-17
6291.478 7.9089e-17
6293.013 8.1063e-17
6294.547 8.0015e-17
6296.083 8.1225e-17
6297.617 7.539e-17
6299.152 8.0784e-17
6300.687 8.5491e-17
6302.222 7.6182e-17
6303.757 7.405e-17
6305.292 7.6101e-17
6306.827 7.3e-17
6308.361 6.8195e-17
6309.896 6.9655e-17
6311.431 7.3875e-17
6312.966 7.7318e-17
6314.501 7.3469e-17
6316.036 7.4986e-17
6317.571 7.7685e-17
6319.105 7.0925e-17
6320.641 7.4506e-17
6322.175 7.8792e-17
6323.71 8.0492e-17
6325.245 7.8817e-17
6326.78 7.5042e-17
6328.315 7.7484e-17
6329.85 7.7867e-17
6331.385 7.5619e-17
6332.919 7.5756e-17
6334.455 7.9257e-17
6335.989 8.0725e-17
6337.524 7.5289e-17
6339.059 7.2401e-17
6340.594 7.3887e-17
6342.129 7.6779e-17
6343.664 7.5466e-17
6345.199 7.6031e-17
6346.733 8.0339e-17
6348.269 7.8604e-17
6349.803 7.4414e-17
6351.338 7.3657e-17
6352.873 7.5304e-17
6354.408 7.7606e-17
6355.943 8.0347e-17
6357.478 7.7647e-17
6359.013 7.0941e-17
6360.547 7.4095e-17
6362.082 7.4044e-17
6363.617 7.1551e-17
6365.152 7.0236e-17
6366.687 6.929e-17
6368.222 6.8522e-17
6369.757 7.1905e-17
6371.292 7.3257e-17
6372.826 7.3461e-17
6374.361 7.2889e-17
6375.896 7.283e-17
6377.431 7.6608e-17
6378.966 7.4549e-17
6380.501 6.9679e-17
6382.036 6.8864e-17
6383.57 7.3137e-17
6385.105 7.7931e-17
6386.64 7.7811e-17
6388.175 7.1691e-17
6389.71 6.8175e-17
6391.245 7.1132e-17
6392.78 7.0477e-17
6394.314 7.1378e-17
6395.85 7.0378e-17
6397.384 7.2493e-17
6398.919 7.4665e-17
6400.454 7.2056e-17
6401.989 7.4695e-17
6403.524 7.3897e-17
6405.059 6.5216e-17
6406.594 6.3435e-17
6408.128 7.2608e-17
6409.664 7.4937e-17
6411.198 7.1887e-17
6412.733 7.0365e-17
6414.268 6.8657e-17
6415.803 6.9168e-17
6417.338 7.3396e-17
6418.873 7.2197e-17
6420.408 7.1249e-17
6421.942 7.2894e-17
6423.478 7.3933e-17
6425.012 7.136e-17
6426.547 7.0652e-17
6428.082 7.0552e-17
6429.617 7.0714e-17
6431.152 7.4276e-17
6432.687 7.6975e-17
6434.222 7.6519e-17
6435.756 7.0885e-17
6437.292 6.6603e-17
6438.826 6.6804e-17
6440.361 6.8392e-17
6441.896 6.9679e-17
6443.431 6.7103e-17
6444.966 6.4903e-17
6446.5 6.753e-17
6448.036 6.9438e-17
6449.57 7.0251e-17
6451.105 6.6327e-17
6452.64 6.3428e-17
6454.175 6.7804e-17
6455.71 7.0785e-17
6457.245 7.0999e-17
6458.78 6.7747e-17
6460.314 6.4998e-17
6461.849 6.8679e-17
6463.384 7.0967e-17
6464.919 6.9832e-17
6466.454 6.8036e-17
6467.989 7.2772e-17
6469.524 7.817e-17
6471.059 7.348e-17
6472.593 7.2992e-17
6474.128 7.8614e-17
6475.663 7.2725e-17
6477.198 6.5166e-17
6478.733 6.6904e-17
6480.268 6.9402e-17
6481.803 6.7041e-17
6483.337 6.7439e-17
6484.873 7.1275e-17
6486.407 6.9802e-17
6487.942 7.2221e-17
6489.477 7.468e-17
6491.012 6.9005e-17
6492.547 6.8253e-17
6494.082 7.0485e-17
6495.617 7.0319e-17
6497.151 7.2636e-17
6498.687 7.0133e-17
6500.221 6.6729e-17
6501.756 6.7005e-17
6503.291 6.5997e-17
6504.826 6.6908e-17
6506.361 6.8334e-17
6507.896 6.5545e-17
6509.431 6.349e-17
6510.965 6.7327e-17
6512.5 6.7154e-17
6514.035 6.707e-17
6515.57 6.7428e-17
6517.105 6.4543e-17
6518.64 6.3674e-17
6520.175 6.5813e-17
6521.709 6.5323e-17
6523.245 6.9725e-17
6524.779 7.0665e-17
6526.314 6.5035e-17
6527.849 6.1956e-17
6529.384 6.5978e-17
6530.919 6.9064e-17
6532.454 6.5281e-17
6533.989 6.7335e-17
6535.523 6.54e-17
6537.059 6.3729e-17
6538.593 6.4333e-17
6540.128 6.2905e-17
6541.663 6.0551e-17
6543.198 6.0573e-17
6544.733 6.3819e-17
6546.268 6.3184e-17
6547.803 6.1191e-17
6549.337 6.3167e-17
6550.872 6.5176e-17
6552.407 6.5263e-17
6553.942 6.7415e-17
6555.477 7.0615e-17
6557.012 6.786e-17
6558.547 6.3038e-17
6560.082 6.4215e-17
6561.616 6.6315e-17
6563.151 6.7868e-17
6564.686 6.849e-17
6566.221 6.6574e-17
6567.756 6.3473e-17
6569.291 6.1816e-17
6570.826 6.7143e-17
6572.36 6.7966e-17
6573.896 6.4881e-17
6575.43 6.4201e-17
6576.965 6.3549e-17
6578.5 6.6822e-17
6580.035 6.686e-17
6581.57 6.3925e-17
6583.104 6.6368e-17
6584.64 6.6827e-17
6586.174 6.7042e-17
6587.709 7.0256e-17
6589.244 6.8348e-17
6590.779 6.3603e-17
6592.314 6.229e-17
6593.849 6.8858e-17
6595.384 7.0147e-17
6596.918 6.8846e-17
6598.454 7.4803e-17
6599.988 7.9701e-17
6601.523 8.181e-17
6603.058 8.0641e-17
6604.593 7.2368e-17
6606.128 6.9085e-17
6607.663 6.6871e-17
6609.198 6.326e-17
6610.732 6.5366e-17
6612.268 6.9334e-17
6613.802 6.7385e-17
6615.337 6.571e-17
6616.872 6.7253e-17
6618.407 6.9199e-17
6619.942 7.1304e-17
6621.477 7.2235e-17
6623.012 6.8806e-17
6624.546 6.7057e-17
6626.082 6.5086e-17
6627.616 6.4746e-17
6629.151 6.8795e-17
6630.686 6.8989e-17
6632.221 7.0529e-17
6633.756 7.4455e-17
6635.291 7.3056e-17
6636.826 6.9594e-17
6638.36 6.782e-17
6639.895 7.0151e-17
6641.43 7.0068e-17
6642.965 6.6219e-17
6644.5 6.9802e-17
6646.035 7.2414e-17
6647.57 7.0324e-17
6649.104 7.4348e-17
6650.639 7.5301e-17
6652.174 7.3623e-17
6653.709 7.2859e-17
6655.244 7.2428e-17
6656.779 7.2933e-17
6658.314 7.1159e-17
6659.849 7.7384e-17
6661.383 9.1521e-17
6662.918 1.0098e-16
6664.453 1.0365e-16
6665.988 1.004e-16
6667.523 8.7407e-17
6669.058 7.6908e-17
6670.593 7.3622e-17
6672.127 6.9348e-17
6673.663 6.7655e-17
6675.197 6.9603e-17
6676.732 7.0342e-17
6678.267 7.3466e-17
6679.802 7.7994e-17
6681.337 7.4577e-17
6682.872 6.7394e-17
6684.407 6.6851e-17
6685.941 6.6317e-17
6687.477 6.4438e-17
6689.011 6.744e-17
6690.546 6.9098e-17
6692.081 6.7527e-17
6693.616 6.2972e-17
6695.151 6.0974e-17
6696.686 6.4483e-17
6698.221 6.5952e-17
6699.755 6.7787e-17
6701.291 6.9242e-17
6702.825 6.6263e-17
6704.36 6.4437e-17
6705.895 6.6095e-17
6707.43 6.7625e-17
6708.965 6.7256e-17
6710.5 6.979e-17
6712.035 6.903e-17
6713.569 6.7718e-17
6715.104 6.6284e-17
6716.639 6.4757e-17
6718.174 6.7475e-17
6719.709 6.8552e-17
6721.244 6.8568e-17
6722.779 7.0461e-17
6724.313 6.7321e-17
6725.849 6.6292e-17
6727.383 6.7377e-17
6728.918 6.6213e-17
6730.453 6.7423e-17
6731.988 6.5489e-17
6733.523 6.4395e-17
6735.058 6.767e-17
6736.593 6.9545e-17
6738.127 6.7044e-17
6739.662 6.6393e-17
6741.197 6.4965e-17
6742.732 6.2614e-17
6744.267 6.4354e-17
6745.802 6.882e-17
6747.337 7.0018e-17
6748.872 6.6899e-17
6750.406 6.2377e-17
6751.941 6.0966e-17
6753.476 6.4324e-17
6755.011 6.7823e-17
6756.546 6.9e-17
6758.081 6.9457e-17
6759.616 6.7934e-17
6761.15 6.6794e-17
6762.686 6.5782e-17
6764.22 6.403e-17
6765.755 6.5913e-17
6767.29 6.4486e-17
6768.825 6.4176e-17
6770.36 6.5424e-17
6771.895 6.8875e-17
6773.43 7.2866e-17
6774.964 7.119e-17
6776.5 6.7993e-17
6778.034 6.8651e-17
6779.569 6.9286e-17
6781.104 6.6052e-17
6782.639 7.03e-17
6784.174 7.4698e-17
6785.708 7.2876e-17
6787.244 6.9554e-17
6788.778 6.8065e-17
6790.313 6.8042e-17
6791.848 6.8496e-17
6793.383 6.767e-17
6794.918 6.6777e-17
6796.453 6.6543e-17
6797.988 7.0041e-17
6799.522 7.0492e-17
6801.058 6.822e-17
6802.592 7.1076e-17
6804.127 7.3302e-17
6805.662 7.1793e-17
6807.197 7.0882e-17
6808.732 6.9119e-17
6810.267 7.0898e-17
6811.802 7.2272e-17
6813.336 6.9709e-17
6814.872 6.679e-17
6816.406 6.788e-17
6817.941 6.7112e-17
6819.476 6.8904e-17
6821.011 7.123e-17
6822.546 6.9952e-17
6824.081 7.0724e-17
6825.616 7.1735e-17
6827.15 7.2647e-17
6828.685 7.2829e-17
6830.22 7.097e-17
6831.755 7.438e-17
6833.29 7.6444e-17
6834.825 7.2965e-17
6836.36 6.9e-17
6837.895 6.8366e-17
6839.429 6.9506e-17
6840.964 6.9007e-17
6842.499 6.8357e-17
6844.034 7.1011e-17
6845.569 7.1115e-17
6847.104 6.8933e-17
6848.639 7.3308e-17
6850.173 7.226e-17
6851.708 6.6156e-17
6853.243 6.6914e-17
6854.778 6.7561e-17
6856.313 6.8498e-17
6857.848 6.9406e-17
6859.383 7.1191e-17
6860.917 7.1252e-17
6862.453 6.9797e-17
6863.987 6.6072e-17
6865.522 6.2709e-17
6867.057 6.5797e-17
6868.592 6.7699e-17
6870.127 6.6668e-17
6871.662 6.5312e-17
6873.197 6.6845e-17
6874.731 6.7528e-17
6876.267 6.8044e-17
6877.801 7.1564e-17
6879.336 7.3186e-17
6880.871 7.2687e-17
6882.406 7.0058e-17
6883.941 6.8162e-17
6885.476 7.0553e-17
6887.011 6.7384e-17
6888.545 6.958e-17
6890.081 7.3008e-17
6891.615 7.0235e-17
6893.15 7.1214e-17
6894.685 7.5136e-17
6896.22 7.3001e-17
6897.755 7.0649e-17
6899.29 7.2814e-17
6900.825 7.7559e-17
6902.359 7.5685e-17
6903.895 6.99e-17
6905.429 6.8946e-17
6906.964 7.044e-17
6908.499 7.2588e-17
6910.034 7.4681e-17
6911.569 7.1127e-17
6913.104 6.7156e-17
6914.639 6.9633e-17
6916.173 6.9947e-17
6917.708 7.0652e-17
6919.243 7.3976e-17
6920.778 7.3678e-17
6922.313 7.2331e-17
6923.848 7.0131e-17
6925.383 6.4505e-17
6926.917 6.5841e-17
6928.452 7.1151e-17
6929.987 7.2412e-17
6931.522 6.7943e-17
6933.057 6.9916e-17
6934.592 7.1705e-17
6936.127 6.9743e-17
6937.662 7.1435e-17
6939.196 7.2119e-17
6940.731 6.912e-17
6942.266 6.6948e-17
6943.801 7.0616e-17
6945.336 7.4371e-17
6946.871 7.1065e-17
6948.406 6.8529e-17
6949.94 6.7679e-17
6951.476 6.6851e-17
6953.01 6.5669e-17
6954.545 6.7314e-17
6956.08 6.8423e-17
6957.615 6.6652e-17
6959.15 6.7794e-17
6960.685 7.0552e-17
6962.22 7.0538e-17
6963.754 6.8226e-17
6965.29 6.8426e-17
6966.824 7.1858e-17
6968.359 7.0351e-17
6969.894 6.6315e-17
6971.429 6.7552e-17
6972.964 7.147e-17
6974.499 7.2041e-17
6976.034 7.1937e-17
6977.568 6.9639e-17
6979.104 6.9759e-17
6980.638 7.2317e-17
6982.173 7.1617e-17
6983.708 6.6522e-17
6985.243 6.366e-17
6986.778 6.4161e-17
6988.312 7.1161e-17
6989.848 7.2002e-17
6991.382 7.0738e-17
6992.917 7.1922e-17
6994.452 7.4759e-17
6995.987 7.4368e-17
6997.522 7.0664e-17
6999.057 6.8946e-17
7000.592 6.9026e-17
7002.126 7.0996e-17
7003.662 7.1434e-17
7005.196 6.8153e-17
7006.731 6.6702e-17
7008.266 6.76e-17
7009.801 6.6698e-17
7011.336 6.619e-17
7012.871 6.6369e-17
7014.406 6.5349e-17
7015.94 6.9029e-17
7017.475 7.2342e-17
7019.01 6.8893e-17
7020.545 6.5968e-17
7022.08 6.6576e-17
7023.615 6.6466e-17
7025.15 6.5273e-17
7026.685 6.4759e-17
7028.219 6.8123e-17
7029.754 6.6981e-17
7031.289 6.344e-17
7032.824 6.8461e-17
7034.359 7.2482e-17
7035.894 6.86e-17
7037.429 6.6276e-17
7038.963 6.7867e-17
7040.499 7.0527e-17
7042.033 6.8563e-17
7043.568 6.5026e-17
7045.103 6.5246e-17
7046.638 6.5458e-17
7048.173 6.3158e-17
7049.708 6.5415e-17
7051.243 6.7927e-17
7052.777 6.8268e-17
7054.312 6.6399e-17
7055.847 6.6211e-17
7057.382 6.8327e-17
7058.917 6.7545e-17
7060.452 6.7797e-17
7061.987 6.7547e-17
7063.521 6.5159e-17
7065.057 6.3375e-17
7066.591 6.3604e-17
7068.126 6.4333e-17
7069.661 6.4742e-17
7071.196 6.8498e-17
7072.731 6.3469e-17
7074.266 5.9577e-17
7075.801 6.3617e-17
7077.335 6.8995e-17
7078.871 6.7998e-17
7080.405 6.5578e-17
7081.94 6.5413e-17
7083.475 6.0492e-17
7085.01 6.1884e-17
7086.545 6.4207e-17
7088.08 6.4426e-17
7089.615 6.2462e-17
7091.149 6.238e-17
7092.685 6.5483e-17
7094.219 6.5635e-17
7095.754 6.399e-17
7097.289 6.1933e-17
7098.824 6.2771e-17
7100.359 6.3886e-17
7101.894 6.5911e-17
7103.429 6.57e-17
7104.963 5.9588e-17
7106.498 5.8517e-17
7108.033 6.1893e-17
7109.568 6.0864e-17
7111.103 6.0429e-17
7112.638 5.8256e-17
7114.173 5.8729e-17
7115.708 6.3542e-17
7117.242 6.3199e-17
7118.777 6.259e-17
7120.312 5.9713e-17
7121.847 5.8369e-17
7123.382 6.2934e-17
7124.917 6.254e-17
7126.452 6.2803e-17
7127.986 6.7825e-17
7129.521 6.3983e-17
7131.056 6.3495e-17
7132.591 6.4164e-17
7134.126 6.277e-17
7135.661 6.1279e-17
7137.196 6.1659e-17
7138.73 6.3384e-17
7140.266 6.1165e-17
7141.8 5.9178e-17
7143.335 6.6021e-17
7144.87 6.8792e-17
7146.405 6.4392e-17
7147.94 6.1272e-17
7149.475 6.2187e-17
7151.01 6.3284e-17
7152.544 5.9468e-17
7154.08 5.9188e-17
7155.614 6.4998e-17
7157.149 6.6017e-17
7158.684 6.4312e-17
7160.219 6.4237e-17
7161.754 6.3645e-17
7163.289 6.0031e-17
7164.824 5.843e-17
7166.358 6.1784e-17
7167.894 6.0987e-17
7169.428 6.058e-17
7170.963 6.0464e-17
7172.498 6.1899e-17
7174.033 6.4741e-17
7175.568 6.4768e-17
7177.103 6.3568e-17
7178.638 6.0844e-17
7180.172 6.576e-17
7181.707 6.5339e-17
7183.242 5.9384e-17
7184.777 6.1307e-17
7186.312 6.8169e-17
7187.847 7.0314e-17
7189.382 6.4319e-17
7190.917 6.0886e-17
7192.452 6.2231e-17
7193.986 6.3034e-17
7195.521 6.2109e-17
7197.056 6.1918e-17
7198.591 6.0911e-17
7200.126 6.1288e-17
7201.661 6.2777e-17
7203.196 6.0781e-17
7204.73 5.8658e-17
7206.265 6.1064e-17
7207.8 6.2361e-17
7209.335 6.0571e-17
7210.87 5.9089e-17
7212.405 6.0107e-17
7213.94 6.4119e-17
7215.475 6.2825e-17
7217.009 6.1e-17
7218.544 6.3642e-17
7220.079 6.39e-17
7221.614 6.4197e-17
7223.149 6.4105e-17
7224.684 6.3756e-17
7226.219 6.1677e-17
7227.753 5.7956e-17
7229.289 5.967e-17
7230.823 6.3836e-17
7232.358 6.6966e-17
7233.893 6.8224e-17
7235.428 6.5857e-17
7236.963 6.4824e-17
7238.498 6.4218e-17
7240.033 5.908e-17
7241.567 5.4347e-17
7243.103 6.0525e-17
7244.637 7.1006e-17
7246.172 6.4759e-17
7247.707 6.1511e-17
7249.242 6.4855e-17
7250.777 6.2534e-17
7252.312 6.1984e-17
7253.847 5.7814e-17
7255.381 5.863e-17
7256.917 6.1462e-17
7258.451 5.9332e-17
7259.986 5.47e-17
7261.521 5.4308e-17
7263.056 5.9499e-17
7264.591 6.3207e-17
7266.125 6.3311e-17
7267.661 6.2542e-17
7269.195 6.0995e-17
7270.73 5.4988e-17
7272.265 5.4771e-17
7273.8 5.9116e-17
7275.335 6.4573e-17
7276.87 6.2376e-17
7278.405 5.0784e-17
7279.939 5.2225e-17
7281.474 5.7313e-17
7283.009 5.9269e-17
7284.544 6.2584e-17
7286.079 6.0856e-17
7287.614 5.9867e-17
7289.149 5.7601e-17
7290.684 5.6156e-17
7292.219 6.1025e-17
7293.753 6.1125e-17
7295.288 5.5969e-17
7296.823 5.2294e-17
7298.358 5.1671e-17
7299.893 5.4587e-17
7301.428 5.9522e-17
7302.963 6.0653e-17
7304.498 5.7336e-17
7306.032 5.6271e-17
7307.567 5.5007e-17
7309.102 5.8274e-17
7310.637 6.1985e-17
7312.172 5.7412e-17
7313.707 5.7413e-17
7315.242 5.8061e-17
7316.776 5.8388e-17
7318.312 5.4198e-17
7319.846 5.1251e-17
7321.381 5.372e-17
7322.916 5.4999e-17
7324.451 5.129e-17
7325.986 5.274e-17
7327.521 5.6214e-17
7329.056 5.1955e-17
7330.59 5.1882e-17
7332.125 5.5418e-17
7333.66 5.3042e-17
7335.195 5.2166e-17
7336.73 5.3955e-17
7338.265 5.8161e-17
7339.8 5.8284e-17
7341.334 5.2553e-17
7342.87 5.1392e-17
7344.404 5.0408e-17
7345.939 4.8766e-17
7347.474 5.1066e-17
7349.009 5.2629e-17
7350.544 5.2908e-17
7352.079 5.035e-17
7353.614 4.7656e-17
7355.148 5.0714e-17
7356.684 5.0977e-17
7358.218 4.9407e-17
7359.753 4.7883e-17
7361.288 5.2998e-17
7362.823 5.7545e-17
7364.358 5.5149e-17
7365.893 5.2166e-17
7367.428 5.3671e-17
7368.962 4.9581e-17
7370.497 4.6312e-17
7372.032 5.0311e-17
7373.567 5.1308e-17
7375.102 5.2728e-17
7376.637 5.091e-17
7378.172 4.9014e-17
7379.707 4.8229e-17
7381.241 4.6469e-17
7382.776 4.4161e-17
7384.311 4.6275e-17
7385.846 5.1463e-17
7387.381 4.7498e-17
7388.916 4.5504e-17
7390.451 5.0251e-17
7391.986 5.1476e-17
7393.521 4.8425e-17
7395.055 5.0304e-17
7396.59 5.4084e-17
7398.125 5.0629e-17
7399.66 5.2515e-17
7401.195 5.209e-17
7402.73 4.6786e-17
7404.265 4.5469e-17
7405.799 4.9015e-17
7407.334 5.2245e-17
7408.869 4.9728e-17
7410.404 4.9246e-17
7411.939 5.2363e-17
7413.474 4.9583e-17
7415.009 4.8619e-17
7416.543 4.8923e-17
7418.079 4.6857e-17
7419.613 4.8417e-17
7421.148 5.1172e-17
7422.683 5.1533e-17
7424.218 5.2348e-17
7425.753 5.1001e-17
7427.288 4.7536e-17
7428.823 4.4857e-17
7430.357 4.7798e-17
7431.893 4.8968e-17
7433.427 5.0858e-17
7434.962 5.0609e-17
7436.497 4.566e-17
7438.032 4.4886e-17
7439.567 4.9126e-17
7441.102 5.147e-17
7442.637 4.6698e-17
7444.171 4.5992e-17
7445.707 4.777e-17
7447.241 4.6273e-17
7448.776 4.6525e-17
7450.311 4.8659e-17
7451.846 4.981e-17
7453.381 4.9896e-17
7454.916 4.9356e-17
7456.451 4.2943e-17
7457.985 4.243e-17
7459.52 5.1749e-17
7461.055 5.404e-17
7462.59 4.9281e-17
7464.125 4.7332e-17
7465.66 4.7655e-17
7467.195 4.5111e-17
7468.729 4.4783e-17
7470.264 4.8671e-17
7471.799 5.0128e-17
7473.334 5.0978e-17
7474.869 5.1002e-17
7476.404 5.1165e-17
7477.939 4.6196e-17
7479.474 4.7965e-17
7481.008 5.0284e-17
7482.543 4.6561e-17
7484.078 4.737e-17
7485.613 4.7828e-17
7487.148 5.0481e-17
7488.683 5.1921e-17
7490.218 5.0913e-17
7491.753 4.8769e-17
7493.288 4.6051e-17
7494.822 4.3418e-17
7496.357 4.4156e-17
7497.892 4.6936e-17
7499.427 4.6534e-17
7500.962 4.6716e-17
7502.497 4.4214e-17
7504.032 4.3613e-17
7505.566 4.2053e-17
7507.102 4.0004e-17
7508.636 4.2275e-17
7510.171 4.4896e-17
7511.706 4.6989e-17
7513.241 4.396e-17
7514.776 4.3531e-17
7516.311 5.0264e-17
7517.846 4.9484e-17
7519.38 4.5128e-17
7520.916 4.6825e-17
7522.45 4.9929e-17
7523.985 4.8943e-17
7525.52 4.6929e-17
7527.055 4.6917e-17
7528.59 4.9299e-17
7530.125 4.6197e-17
7531.66 4.5361e-17
7533.194 4.8333e-17
7534.729 4.5775e-17
7536.264 4.248e-17
7537.799 4.1591e-17
7539.334 4.2124e-17
7540.869 4.5903e-17
7542.404 4.9256e-17
7543.938 4.9718e-17
7545.474 4.822e-17
7547.008 4.7183e-17
7548.543 4.4131e-17
7550.078 4.2441e-17
7551.613 4.5504e-17
7553.148 4.6198e-17
7554.683 4.5458e-17
7556.218 4.8639e-17
7557.752 5.0182e-17
7559.287 5.2531e-17
7560.822 5.1767e-17
7562.357 4.347e-17
7563.892 4.3386e-17
7565.427 4.8531e-17
7566.962 4.7261e-17
7568.497 4.4862e-17
7570.031 4.7577e-17
7571.566 4.6112e-17
7573.101 4.3383e-17
7574.636 4.2561e-17
7576.171 4.2722e-17
7577.706 4.5787e-17
7579.241 4.7063e-17
7580.775 4.5708e-17
7582.311 4.6601e-17
7583.845 4.7859e-17
7585.38 4.5273e-17
7586.915 3.8205e-17
7588.45 4.0019e-17
7589.985 4.733e-17
7591.52 4.6417e-17
7593.055 4.5984e-17
7594.589 4.2156e-17
7596.125 4.1654e-17
7597.659 4.3925e-17
7599.194 3.7777e-17
7600.729 3.753e-17
7602.264 5.0186e-17
7603.799 4.9071e-17
7605.333 3.7468e-17
7606.869 3.8512e-17
7608.403 4.0889e-17
7609.938 4.5545e-17
7611.473 4.5007e-17
7613.008 4.3069e-17
7614.543 4.8476e-17
7616.078 5.245e-17
7617.613 4.8959e-17
7619.147 4.2115e-17
7620.683 4.0616e-17
7622.217 4.2888e-17
7623.752 4.6853e-17
7625.287 4.9086e-17
7626.822 4.1717e-17
7628.357 4.1463e-17
7629.892 4.5396e-17
7631.427 4.427e-17
7632.961 4.2972e-17
7634.497 4.4216e-17
7636.031 4.6982e-17
7637.566 4.5691e-17
7639.101 4.7852e-17
7640.636 5.1656e-17
7642.171 5.3222e-17
7643.706 5.0395e-17
7645.241 4.3886e-17
7646.775 4.0423e-17
7648.31 4.0417e-17
7649.845 4.1757e-17
7651.38 4.3086e-17
7652.915 4.5019e-17
7654.45 4.6678e-17
7655.985 4.6528e-17
7657.52 4.6603e-17
7659.054 4.6245e-17
7660.589 4.8421e-17
7662.124 4.8018e-17
7663.659 4.3183e-17
7665.194 4.3368e-17
7666.729 4.3819e-17
7668.264 4.3064e-17
7669.798 4.3375e-17
7671.333 4.4781e-17
7672.868 4.1474e-17
7674.403 4.12e-17
7675.938 4.6798e-17
7677.473 4.6551e-17
7679.008 4.3219e-17
7680.542 4.4029e-17
7682.078 4.5274e-17
7683.612 4.2743e-17
7685.147 4.3792e-17
7686.682 4.6093e-17
7688.217 4.5882e-17
7689.752 4.3827e-17
7691.287 4.3761e-17
7692.822 4.5047e-17
7694.356 4.3855e-17
7695.892 4.4063e-17
7697.426 4.2563e-17
7698.961 4.4911e-17
7700.496 4.6787e-17
7702.031 4.409e-17
7703.566 4.1921e-17
7705.101 4.3133e-17
7706.636 4.5511e-17
7708.17 4.6227e-17
7709.706 4.5241e-17
7711.24 3.6182e-17
7712.775 3.6483e-17
7714.31 4.6962e-17
7715.845 4.7528e-17
7717.38 4.2353e-17
7718.915 4.1189e-17
7720.45 4.4293e-17
7721.984 4.4278e-17
7723.52 4.3839e-17
7725.054 4.7187e-17
7726.589 4.6292e-17
7728.124 4.3635e-17
7729.659 4.2867e-17
7731.194 4.2609e-17
7732.729 4.2608e-17
7734.264 4.3749e-17
7735.798 4.4144e-17
7737.333 4.2216e-17
7738.868 4.3655e-17
7740.403 4.27e-17
7741.938 4.1328e-17
7743.473 4.4445e-17
7745.008 4.408e-17
7746.542 4.0744e-17
7748.077 3.8693e-17
7749.612 4.2006e-17
7751.147 4.3307e-17
7752.682 4.1831e-17
7754.217 4.5597e-17
7755.752 4.6323e-17
7757.287 4.3579e-17
7758.821 4.6726e-17
7760.356 4.8683e-17
7761.891 4.4719e-17
7763.426 4.313e-17
7764.961 4.4638e-17
7766.496 4.4518e-17
7768.031 4.5e-17
7769.565 4.5395e-17
7771.101 4.5233e-17
7772.635 4.4122e-17
7774.17 4.5893e-17
7775.705 4.4471e-17
7777.24 4.3805e-17
7778.775 4.7038e-17
7780.31 4.5394e-17
7781.845 4.1945e-17
7783.379 4.2878e-17
7784.915 4.1574e-17
7786.449 3.9561e-17
7787.984 4.3422e-17
7789.519 4.3038e-17
7791.054 4.1694e-17
7792.589 3.7227e-17
7794.124 3.9194e-17
7795.659 4.3098e-17
7797.193 4.3039e-17
7798.729 4.3348e-17
7800.263 4.5115e-17
7801.798 4.6875e-17
7803.333 4.5452e-17
7804.868 4.66e-17
7806.403 4.8137e-17
7807.938 4.6476e-17
7809.473 4.6904e-17
7811.007 4.7376e-17
7812.542 4.1534e-17
7814.077 3.9845e-17
7815.612 4.3194e-17
7817.147 4.6478e-17
7818.682 4.8151e-17
7820.217 4.9925e-17
7821.751 4.4742e-17
7823.287 3.9596e-17
7824.821 3.851e-17
7826.356 3.7493e-17
7827.891 3.9612e-17
7829.426 4.35e-17
7830.961 4.3999e-17
7832.496 4.3053e-17
7834.031 4.6326e-17
7835.565 4.7044e-17
7837.1 4.5587e-17
7838.635 4.7394e-17
7840.17 4.8446e-17
7841.705 4.6525e-17
7843.24 4.2646e-17
7844.775 4.5672e-17
7846.31 5.0058e-17
7847.844 5.0076e-17
7849.379 4.316e-17
7850.914 4.0635e-17
7852.449 4.4181e-17
7853.984 4.2852e-17
7855.519 4.2746e-17
7857.054 4.4498e-17
7858.588 4.5831e-17
7860.124 4.3116e-17
7861.658 4.4947e-17
7863.193 4.8543e-17
7864.728 4.6883e-17
7866.263 4.4078e-17
7867.798 4.1557e-17
7869.333 4.035e-17
7870.868 4.1468e-17
7872.402 4.3837e-17
7873.938 4.5048e-17
7875.472 4.4145e-17
7877.007 4.2169e-17
7878.542 4.0984e-17
7880.077 3.9319e-17
7881.612 3.9798e-17
7883.146 4.1821e-17
7884.682 4.2382e-17
7886.216 4.4446e-17
7887.751 4.5779e-17
7889.286 4.9081e-17
7890.821 4.7102e-17
7892.356 3.9159e-17
7893.891 3.9896e-17
7895.426 4.1177e-17
7896.96 3.8495e-17
7898.496 4.1592e-17
7900.03 4.6063e-17
7901.565 4.591e-17
7903.1 4.5035e-17
7904.635 4.3924e-17
7906.17 4.3007e-17
7907.705 4.7556e-17
7909.24 4.9962e-17
7910.774 4.4542e-17
7912.31 3.8806e-17
7913.844 4.4401e-17
7915.379 5.3679e-17
7916.914 4.8301e-17
7918.449 3.9599e-17
7919.984 4.0349e-17
7921.519 4.1573e-17
7923.054 3.9907e-17
7924.588 4.2172e-17
7926.123 4.5654e-17
7927.658 4.4287e-17
7929.193 4.1999e-17
7930.728 4.1465e-17
7932.263 4.2266e-17
7933.798 4.3565e-17
7935.333 4.1417e-17
7936.867 3.9945e-17
7938.402 4.2332e-17
7939.937 4.5001e-17
7941.472 4.4541e-17
7943.007 4.4524e-17
7944.542 4.3996e-17
7946.077 4.0978e-17
7947.611 4.542e-17
7949.146 4.4727e-17
7950.681 3.8534e-17
7952.216 4.0059e-17
7953.751 4.14e-17
7955.286 4.0297e-17
7956.821 4.2641e-17
7958.355 4.3694e-17
7959.891 4.5968e-17
7961.425 4.6382e-17
7962.96 4.2032e-17
7964.495 4.0588e-17
7966.03 4.1161e-17
7967.565 4.026e-17
7969.1 3.8206e-17
7970.635 4.0363e-17
7972.169 4.6124e-17
7973.705 4.6531e-17
7975.239 4.1369e-17
7976.774 3.8936e-17
7978.309 3.8227e-17
7979.844 4.2142e-17
7981.379 4.2726e-17
7982.914 4.2405e-17
7984.449 4.164e-17
7985.983 4.2867e-17
7987.519 4.6256e-17
7989.053 4.9874e-17
7990.588 4.6934e-17
7992.123 3.9093e-17
7993.658 3.8154e-17
7995.193 4.2467e-17
7996.728 4.3253e-17
7998.263 4.0248e-17
7999.797 4.0022e-17
8001.333 3.9082e-17
8002.867 3.705e-17
8004.402 3.9613e-17
8005.937 4.4845e-17
8007.472 4.4193e-17
8009.007 4.2058e-17
8010.542 4.0886e-17
8012.077 3.9905e-17
8013.611 4.1823e-17
8015.146 4.1315e-17
8016.681 4.0754e-17
8018.216 4.1775e-17
8019.751 4.3916e-17
8021.286 4.518e-17
8022.821 4.4944e-17
8024.355 4.3684e-17
8025.89 4.1692e-17
8027.425 4.0809e-17
8028.96 3.9349e-17
8030.495 3.9976e-17
8032.03 4.2242e-17
8033.565 4.0205e-17
8035.1 3.9245e-17
8036.634 4.0738e-17
8038.169 4.3195e-17
8039.704 4.4193e-17
8041.239 4.3341e-17
8042.774 4.3657e-17
8044.309 4.218e-17
8045.844 3.9938e-17
8047.378 3.8119e-17
8048.914 3.8482e-17
8050.448 4.0522e-17
8051.983 4.0501e-17
8053.518 4.0416e-17
8055.053 4.2284e-17
8056.588 4.1548e-17
8058.123 3.6695e-17
8059.658 3.9456e-17
8061.192 4.0706e-17
8062.728 3.9273e-17
8064.262 4.0193e-17
8065.797 4.3518e-17
8067.332 4.6264e-17
8068.867 4.3291e-17
8070.402 4.1492e-17
8071.937 4.1393e-17
8073.472 4.0717e-17
8075.006 4.0909e-17
8076.542 4.1933e-17
8078.076 4.3319e-17
8079.611 4.4775e-17
8081.146 4.3078e-17
8082.681 4.1928e-17
8084.216 4.0086e-17
8085.75 4.1738e-17
8087.286 4.4974e-17
8088.82 4.3501e-17
8090.355 3.9086e-17
8091.89 3.6415e-17
8093.425 3.6877e-17
8094.96 3.7793e-17
8096.495 4.1183e-17
8098.03 4.6166e-17
8099.564 4.8103e-17
8101.1 4.6162e-17
8102.634 4.4185e-17
8104.169 4.2016e-17
8105.704 4.1136e-17
8107.239 3.9917e-17
8108.774 4.1242e-17
8110.309 4.2786e-17
8111.844 4.1831e-17
8113.378 4.0196e-17
8114.913 3.9883e-17
8116.448 3.8515e-17
8117.983 3.8553e-17
8119.518 4.2711e-17
8121.053 4.2272e-17
8122.588 3.861e-17
8124.123 4.0365e-17
8125.657 4.2608e-17
8127.192 4.309e-17
8128.727 4.2569e-17
8130.262 4.2106e-17
8131.797 4.2596e-17
8133.332 3.9707e-17
8134.867 3.7877e-17
8136.401 4.0963e-17
8137.937 4.2894e-17
8139.471 4.3294e-17
8141.006 4.4472e-17
8142.541 4.2991e-17
8144.076 4.0571e-17
8145.611 3.8894e-17
8147.146 3.8664e-17
8148.681 4.0975e-17
8150.215 4.0634e-17
8151.75 4.066e-17
8153.285 4.4313e-17
8154.82 4.4654e-17
8156.355 4.1029e-17
8157.89 4.0249e-17
8159.425 4.2517e-17
8160.959 4.2793e-17
8162.495 4.1617e-17
8164.029 4.1764e-17
8165.564 4.1436e-17
8167.099 4.1684e-17
8168.634 4.32e-17
8170.169 4.2476e-17
8171.704 4.1609e-17
8173.239 4.3952e-17
8174.773 4.4633e-17
8176.309 4.321e-17
8177.843 4.4455e-17
8179.378 4.1919e-17
8180.913 3.8412e-17
8182.448 4.2357e-17
8183.983 4.6752e-17
8185.518 4.5641e-17
8187.053 4.2543e-17
8188.587 4.197e-17
8190.123 3.9727e-17
8191.657 3.9211e-17
8193.192 4.0493e-17
8194.727 3.9683e-17
8196.262 3.6426e-17
8197.797 3.7152e-17
8199.332 4.1281e-17
8200.866 4.0799e-17
8202.401 3.9049e-17
8203.937 3.8023e-17
8205.471 3.6183e-17
8207.006 3.6516e-17
8208.541 3.8873e-17
8210.076 4.1963e-17
8211.61 3.9816e-17
8213.146 3.8846e-17
8214.681 3.9673e-17
8216.215 3.676e-17
8217.75 3.5594e-17
8219.285 3.7613e-17
8220.82 3.7762e-17
8222.354 3.5955e-17
8223.89 3.3771e-17
8225.425 3.546e-17
8226.959 4.1102e-17
8228.494 3.9586e-17
8230.029 3.8056e-17
8231.564 3.8477e-17
8233.099 3.9867e-17
8234.634 3.9952e-17
8236.169 3.6331e-17
8237.703 3.6637e-17
8239.238 3.7893e-17
8240.773 3.6431e-17
8242.309 3.5367e-17
8243.843 3.7446e-17
8245.378 3.8927e-17
8246.913 3.8494e-17
8248.447 4.1705e-17
8249.982 4.1767e-17
8251.518 3.9179e-17
8253.053 3.7941e-17
8254.587 3.6841e-17
8256.122 3.6097e-17
8257.657 3.9175e-17
8259.191 4.0491e-17
8260.727 4.0765e-17
8262.262 3.9673e-17
8263.797 3.5551e-17
8265.331 3.5526e-17
8266.866 3.9607e-17
8268.401 3.9698e-17
8269.936 3.2828e-17
8271.471 3.0125e-17
8273.006 3.7371e-17
8274.541 4.3317e-17
8276.075 4.2533e-17
8277.61 3.9488e-17
8279.146 3.8144e-17
8280.68 3.5926e-17
8282.215 3.6363e-17
8283.75 4.299e-17
8285.285 4.1862e-17
8286.819 3.9882e-17
8288.354 3.8107e-17
8289.89 3.4437e-17
8291.424 3.2294e-17
8292.959 3.3497e-17
8294.494 4.0055e-17
8296.029 4.417e-17
8297.563 3.9619e-17
8299.099 3.3382e-17
8300.634 3.2748e-17
8302.168 3.4174e-17
8303.703 3.2812e-17
8305.238 3.564e-17
8306.773 3.8019e-17
8308.308 3.7415e-17
8309.843 4.0326e-17
8311.378 3.9792e-17
8312.912 3.4281e-17
8314.447 3.25e-17
8315.982 3.3431e-17
8317.518 3.3176e-17
8319.052 3.4564e-17
8320.587 3.7438e-17
8322.122 3.9794e-17
8323.657 3.8546e-17
8325.191 3.84e-17
8326.727 4.2113e-17
8328.262 4.0193e-17
8329.796 3.5884e-17
8331.331 3.5832e-17
8332.866 3.6167e-17
8334.401 3.344e-17
8335.936 3.4626e-17
8337.471 4.1998e-17
8339.006 4.4483e-17
8340.54 4.5336e-17
8342.075 4.1217e-17
8343.61 4.0181e-17
8345.146 4.5559e-17
8346.68 4.3635e-17
8348.215 3.9497e-17
8349.75 3.9788e-17
8351.284 3.9551e-17
8352.819 3.957e-17
8354.354 3.7602e-17
8355.89 3.4083e-17
8357.424 3.8108e-17
8358.959 4.0412e-17
8360.494 3.6481e-17
8362.028 3.4109e-17
8363.563 3.4222e-17
8365.099 3.73e-17
8366.634 3.9823e-17
8368.168 3.7743e-17
8369.703 3.6424e-17
8371.238 3.7705e-17
8372.772 3.8721e-17
8374.308 3.9421e-17
8375.843 3.9008e-17
8377.378 3.8342e-17
8378.912 3.7909e-17
8380.447 3.7748e-17
8381.982 3.9724e-17
8383.517 4.1671e-17
8385.052 3.7691e-17
8386.587 3.4249e-17
8388.122 3.63e-17
8389.656 3.5564e-17
8391.191 3.6721e-17
8392.727 4.4978e-17
8394.261 4.2396e-17
8395.796 3.4519e-17
8397.331 3.6064e-17
8398.866 3.9543e-17
8400.4 3.7918e-17
8401.936 3.0906e-17
8403.471 3.1999e-17
8405.005 3.4347e-17
8406.54 3.6481e-17
8408.075 4.0273e-17
8409.61 3.95e-17
8411.145 3.5063e-17
8412.68 3.3833e-17
8414.215 3.6325e-17
8415.749 3.5401e-17
8417.284 3.1821e-17
8418.819 3.0604e-17
8420.354 3.0663e-17
8421.889 3.1504e-17
8423.424 3.1416e-17
8424.959 3.5651e-17
8426.493 3.5945e-17
8428.028 2.9363e-17
8429.563 3.1008e-17
8431.099 4.2229e-17
8432.633 3.9034e-17
8434.168 3.0783e-17
8435.703 3.1047e-17
8437.237 3.3843e-17
8438.772 3.3771e-17
8440.308 3.3973e-17
8441.843 3.6378e-17
8443.377 3.6973e-17
8444.912 3.6219e-17
8446.447 3.9403e-17
8447.981 4.1317e-17
8449.517 3.731e-17
8451.052 3.5988e-17
8452.587 2.9856e-17
8454.121 2.9138e-17
8455.656 3.2852e-17
8457.191 3.42e-17
8458.726 3.8692e-17
8460.261 3.5733e-17
8461.796 3.3032e-17
8463.331 3.2652e-17
8464.865 3.333e-17
8466.4 3.0391e-17
8467.936 2.7848e-17
8469.47 3.0567e-17
8471.005 3.1988e-17
8472.54 3.2541e-17
8474.075 3.6606e-17
8475.609 3.6708e-17
8477.145 3.5834e-17
8478.68 3.4738e-17
8480.214 3.354e-17
8481.749 3.7089e-17
8483.284 4.0585e-17
8484.819 4.1283e-17
8486.354 3.9197e-17
8487.889 3.6981e-17
8489.424 3.7452e-17
8490.958 3.6434e-17
8492.493 3.3458e-17
8494.028 3.414e-17
8495.563 3.5361e-17
8497.098 3.6494e-17
8498.633 3.6869e-17
8500.168 3.8019e-17
8501.702 3.8505e-17
8503.237 3.5195e-17
8504.772 3.3211e-17
8506.308 3.5664e-17
8507.842 3.8427e-17
8509.377 3.8265e-17
8510.912 3.5276e-17
8512.446 3.3971e-17
8513.981 3.4395e-17
8515.517 3.4868e-17
8517.052 3.3817e-17
8518.586 3.5994e-17
8520.121 3.8347e-17
8521.656 3.8305e-17
8523.191 3.6901e-17
8524.726 3.5633e-17
8526.261 3.504e-17
8527.796 3.4946e-17
8529.33 3.6988e-17
8530.865 3.8069e-17
8532.4 3.4466e-17
8533.936 3.3272e-17
8535.47 3.6649e-17
8537.005 3.6507e-17
8538.54 3.6673e-17
8540.074 3.5817e-17
8541.609 3.352e-17
8543.145 3.3801e-17
8544.68 3.5163e-17
8546.214 3.7386e-17
8547.749 4.0053e-17
8549.284 4.0411e-17
8550.818 3.6509e-17
8552.354 3.7314e-17
8553.889 3.9507e-17
8555.424 3.6437e-17
8556.958 3.4178e-17
8558.493 3.4564e-17
8560.028 3.6423e-17
8561.562 3.7594e-17
8563.098 3.8537e-17
8564.633 4.0351e-17
8566.168 3.9847e-17
8567.702 3.7385e-17
8569.237 3.6168e-17
8570.772 3.5874e-17
8572.307 3.4653e-17
8573.842 3.3072e-17
8575.377 3.4432e-17
8576.912 3.723e-17
8578.446 3.9724e-17
8579.981 4.1444e-17
8581.517 3.8367e-17
8583.051 3.617e-17
8584.586 3.9406e-17
8586.121 4.0679e-17
8587.656 4.1515e-17
8589.19 4.0006e-17
8590.726 3.7525e-17
8592.261 3.7733e-17
8593.795 3.7351e-17
8595.33 3.5645e-17
8596.865 3.5819e-17
8598.4 3.7207e-17
8599.935 3.6775e-17
8601.47 3.5999e-17
8603.005 3.8519e-17
8604.539 3.8028e-17
8606.074 3.5076e-17
8607.609 3.4823e-17
8609.145 3.5846e-17
8610.679 3.5375e-17
8612.214 3.8927e-17
8613.749 4.5464e-17
8615.283 4.2472e-17
8616.818 3.7359e-17
8618.354 3.6155e-17
8619.889 3.8624e-17
8621.423 3.8739e-17
8622.958 4.1176e-17
8624.493 4.6143e-17
8626.027 4.7657e-17
8627.562 4.524e-17
8629.098 4.1316e-17
8630.633 4.3817e-17
8632.167 4.4144e-17
8633.702 4.3254e-17
8635.237 4.7795e-17
8636.771 4.2603e-17
8638.307 3.9447e-17
8639.842 4.098e-17
8641.377 3.8143e-17
8642.911 3.8149e-17
8644.446 4.321e-17
8645.981 4.3156e-17
8647.516 4.5387e-17
8649.051 4.3865e-17
8650.586 3.9694e-17
8652.121 4.6711e-17
8653.655 4.531e-17
8655.19 3.9407e-17
8656.726 4.1857e-17
8658.26 4.0613e-17
8659.795 4.4411e-17
8661.33 3.74e-17
8662.865 3.787e-17
8664.399 4.4022e-17
8665.935 3.8924e-17
8667.47 3.9683e-17
8669.004 4.224e-17
8670.539 4.3266e-17
8672.074 3.9437e-17
8673.609 4.5589e-17
8675.144 4.8568e-17
8676.679 4.4788e-17
8678.214 3.9808e-17
8679.748 4.1417e-17
8681.283 4.4249e-17
8682.818 3.8845e-17
8684.354 3.4857e-17
8685.888 4.334e-17
8687.423 4.6346e-17
8688.958 4.2315e-17
8690.492 4.2297e-17
8692.027 4.0557e-17
8693.562 3.5555e-17
8695.098 3.7818e-17
8696.632 3.9918e-17
8698.167 3.7297e-17
8699.702 3.4586e-17
8701.236 3.89e-17
8702.771 4.244e-17
8704.307 4.0045e-17
8705.842 3.7398e-17
8707.376 3.9249e-17
8708.911 4.0891e-17
8710.446 3.8327e-17
8711.98 4.0511e-17
8713.516 4.1491e-17
8715.051 3.8089e-17
8716.586 3.7335e-17
8718.12 4.1588e-17
8719.655 3.8343e-17
8721.19 3.6012e-17
8722.726 4.0558e-17
8724.26 4.2018e-17
8725.795 3.7413e-17
8727.33 3.6638e-17
8728.864 3.9926e-17
8730.399 4.2605e-17
8731.935 4.7375e-17
8733.47 5.1125e-17
8735.004 5.5353e-17
8736.539 5.8276e-17
8738.074 5.3599e-17
8739.608 4.6936e-17
8741.144 4.3599e-17
8742.679 4.1033e-17
8744.214 4.0154e-17
8745.748 4.2373e-17
8747.283 4.2187e-17
8748.818 3.8855e-17
8750.353 4.0148e-17
8751.888 4.391e-17
8753.423 4.324e-17
8754.958 3.966e-17
8756.492 3.7128e-17
8758.027 3.5449e-17
8759.562 3.4616e-17
8761.097 4.2177e-17
8762.632 4.9564e-17
8764.167 4.7237e-17
8765.702 4.9245e-17
8767.236 4.8457e-17
8768.771 3.7605e-17
8770.307 3.6766e-17
8771.841 4.4179e-17
8773.376 3.956e-17
8774.911 3.631e-17
8776.446 3.5312e-17
8777.98 3.0948e-17
8779.516 3.6433e-17
8781.051 3.5835e-17
8782.585 3.4122e-17
8784.12 3.6934e-17
8785.655 4.0444e-17
8787.19 3.942e-17
8788.725 3.8167e-17
8790.26 3.9054e-17
8791.795 3.9645e-17
8793.329 3.5318e-17
8794.864 3.4896e-17
8796.399 3.8428e-17
8797.935 3.5612e-17
8799.469 3.3642e-17
8801.004 3.9306e-17
8802.539 4.1487e-17
8804.073 3.6108e-17
8805.608 3.3174e-17
8807.144 3.2913e-17
8808.679 3.5013e-17
8810.213 3.3568e-17
8811.748 3.555e-17
8813.283 3.9196e-17
8814.817 3.55e-17
8816.353 3.5349e-17
8817.888 3.6947e-17
8819.423 4.704e-17
8820.957 5.1825e-17
8822.492 3.933e-17
8824.027 3.0777e-17
8825.562 2.9437e-17
8827.097 4.6581e-17
8828.632 4.6956e-17
8830.167 3.5376e-17
8831.701 3.8718e-17
8833.236 4.6583e-17
8834.771 4.3974e-17
8836.306 4.0769e-17
8837.841 3.7475e-17
8839.376 3.338e-17
8840.911 3.3737e-17
8842.445 3.6551e-17
8843.98 3.9849e-17
8845.516 3.7139e-17
8847.05 4.3821e-17
8848.585 4.2667e-17
8850.12 3.7016e-17
8851.655 3.4169e-17
8853.189 3.1594e-17
8854.725 3.515e-17
8856.26 3.6236e-17
8857.794 3.4857e-17
8859.329 3.2727e-17
8860.864 3.5709e-17
8862.399 3.6807e-17
8863.934 4.1863e-17
8865.469 4.0588e-17
8867.004 3.4993e-17
8868.538 2.7972e-17
8870.073 2.7959e-17
8871.608 3.1618e-17
8873.144 3.4265e-17
8874.678 3.4888e-17
8876.213 3.2395e-17
8877.748 3.5845e-17
8879.282 3.8086e-17
8880.817 4.2382e-17
8882.353 4.1836e-17
8883.888 3.6348e-17
8885.422 4.2375e-17
8886.957 3.8669e-17
8888.492 2.6782e-17
8890.026 2.91e-17
8891.562 3.1647e-17
8893.097 3.2247e-17
8894.632 3.335e-17
8896.166 3.6929e-17
8897.701 3.649e-17
8899.236 3.6361e-17
8900.771 3.5295e-17
8902.306 3.2536e-17
8903.841 3.4916e-17
8905.376 3.6815e-17
8906.91 3.5777e-17
8908.445 3.4848e-17
8909.98 3.3045e-17
8911.515 3.5928e-17
8913.05 3.9712e-17
8914.585 3.543e-17
8916.12 3.3315e-17
8917.654 3.7469e-17
8919.189 3.8303e-17
8920.725 3.1027e-17
8922.26 2.6838e-17
8923.794 3.1194e-17
8925.329 3.3663e-17
8926.864 3.2573e-17
8928.398 3.2385e-17
8929.934 3.0748e-17
8931.469 2.8532e-17
8933.004 2.9369e-17
8934.538 3.0975e-17
8936.073 3.401e-17
8937.608 3.9784e-17
8939.143 4.0594e-17
8940.678 3.8998e-17
8942.213 4.0047e-17
8943.748 3.9016e-17
8945.282 3.7094e-17
8946.817 3.3922e-17
8948.353 2.8015e-17
8949.887 2.8169e-17
8951.422 4.035e-17
8952.957 4.5101e-17
8954.492 3.548e-17
8956.026 3.3761e-17
8957.562 4.12e-17
8959.097 4.0611e-17
8960.631 2.7935e-17
8962.166 2.6363e-17
8963.701 3.3788e-17
8965.236 3.4977e-17
8966.771 3.1947e-17
8968.306 3.3648e-17
8969.841 3.4028e-17
8971.375 3.2134e-17
8972.91 2.8521e-17
8974.445 3.0316e-17
8975.98 3.2392e-17
8977.515 3.3734e-17
8979.05 3.2697e-17
8980.585 2.8388e-17
8982.119 3.0791e-17
8983.654 3.3808e-17
8985.189 3.2262e-17
8986.725 3.4737e-17
8988.259 3.3388e-17
8989.794 3.0987e-17
8991.329 2.9075e-17
8992.863 3.1046e-17
8994.398 3.6081e-17
8995.934 3.3146e-17
8997.469 3.1738e-17
8999.003 2.7686e-17
9000.538 2.7073e-17
9002.073 3.1937e-17
9003.607 2.8636e-17
9005.143 3.0178e-17
9006.678 3.3555e-17
9008.213 3.1512e-17
9009.747 3.3671e-17
9011.282 3.5019e-17
9012.817 3.1814e-17
9014.352 2.9432e-17
9015.887 2.8463e-17
9017.422 2.832e-17
9018.957 2.761e-17
9020.491 2.4754e-17
9022.026 2.9106e-17
9023.562 3.0976e-17
9025.096 3.1651e-17
9026.631 3.2193e-17
9028.166 3.292e-17
9029.701 3.0385e-17
9031.235 2.9622e-17
9032.771 2.9167e-17
9034.306 2.86e-17
9035.84 2.7016e-17
9037.375 3.0092e-17
9038.91 3.0148e-17
9040.445 2.8393e-17
9041.979 3.1854e-17
9043.515 3.1933e-17
9045.05 3.0906e-17
9046.584 2.777e-17
9048.119 3.3142e-17
9049.654 3.9658e-17
9051.189 3.2653e-17
9052.724 2.8121e-17
9054.259 2.8723e-17
9055.794 2.6548e-17
9057.328 3.048e-17
9058.863 3.5291e-17
9060.398 2.872e-17
9061.934 2.9358e-17
9063.468 3.4102e-17
9065.003 3.1641e-17
9066.538 2.9488e-17
9068.072 2.8992e-17
9069.607 3.0826e-17
9071.143 3.0631e-17
9072.678 2.8039e-17
9074.212 2.939e-17
9075.747 3.067e-17
9077.282 3.296e-17
9078.816 3.0137e-17
9080.352 2.6142e-17
9081.887 2.5831e-17
9083.422 2.6252e-17
9084.956 2.8973e-17
9086.491 2.8046e-17
9088.026 2.7927e-17
9089.561 2.8981e-17
9091.096 3.1606e-17
9092.631 3.3428e-17
9094.166 3.0532e-17
9095.7 3.1194e-17
9097.235 3.0415e-17
9098.771 3.0694e-17
9100.305 2.8358e-17
9101.84 2.8929e-17
9103.375 3.1068e-17
9104.91 2.9458e-17
9106.444 3.1282e-17
9107.979 3.5398e-17
9109.515 3.0563e-17
9111.05 2.8392e-17
9112.584 3.2947e-17
9114.119 3.0837e-17
9115.654 2.9552e-17
9117.188 3.0761e-17
9118.724 3.2193e-17
9120.259 3.1598e-17
9121.794 2.8184e-17
9123.328 2.844e-17
9124.863 2.9364e-17
9126.398 2.9032e-17
9127.933 2.7968e-17
9129.468 2.628e-17
9131.003 2.6974e-17
9132.538 2.8033e-17
9134.072 2.7989e-17
9135.607 2.8781e-17
9137.143 2.9549e-17
9138.677 2.8832e-17
9140.212 2.921e-17
9141.747 2.8987e-17
9143.282 2.6681e-17
9144.816 2.8123e-17
9146.352 2.8881e-17
9147.887 2.9398e-17
9149.421 3.0491e-17
9150.956 2.7425e-17
9152.491 2.8826e-17
9154.026 3.1868e-17
9155.561 3.2006e-17
9157.096 3.1699e-17
9158.631 3.0554e-17
9160.165 2.9314e-17
9161.7 2.9985e-17
9163.235 2.6778e-17
9164.771 2.6418e-17
9166.305 3.2102e-17
9167.84 2.8873e-17
9169.375 2.3064e-17
9170.909 2.719e-17
9172.444 3.0155e-17
9173.979 2.9848e-17
9175.515 2.997e-17
9177.049 2.9325e-17
9178.584 2.8186e-17
9180.119 2.8574e-17
9181.653 3.3163e-17
9183.188 3.301e-17
9184.724 2.8063e-17
9186.259 3.1495e-17
9187.793 3.1684e-17
9189.328 3.543e-17
9190.863 3.5999e-17
9192.397 2.7172e-17
9193.933 2.4271e-17
9195.468 2.7575e-17
9197.003 2.7196e-17
9198.537 2.8965e-17
9200.072 3.0477e-17
9201.607 2.9578e-17
9203.142 2.956e-17
9204.677 2.9136e-17
9206.212 2.7783e-17
9207.747 2.8599e-17
9209.281 2.8171e-17
9210.816 2.9272e-17
9212.352 2.9596e-17
9213.886 2.5053e-17
9215.421 2.5849e-17
9216.956 2.4768e-17
9218.491 2.7513e-17
9220.025 2.7766e-17
9221.561 2.627e-17
9223.096 2.8491e-17
9224.63 2.7528e-17
9226.165 2.8179e-17
9227.7 2.6081e-17
9229.235 2.4929e-17
9230.77 2.9187e-17
9232.305 3.3866e-17
9233.84 2.8605e-17
9235.374 2.5456e-17
9236.909 2.8056e-17
9238.444 2.5642e-17
9239.979 2.6193e-17
9241.514 2.9537e-17
9243.049 2.6982e-17
9244.584 2.7551e-17
9246.118 2.5124e-17
9247.653 2.6902e-17
9249.188 2.6485e-17
9250.724 2.9055e-17
9252.258 2.8767e-17
9253.793 2.538e-17
9255.328 2.5778e-17
9256.862 3.1092e-17
9258.397 3.0716e-17
9259.933 2.8219e-17
9261.468 2.7825e-17
9263.002 2.9496e-17
9264.537 2.8566e-17
9266.072 2.9785e-17
9267.606 3.0132e-17
9269.142 2.7326e-17
9270.677 2.4026e-17
9272.212 2.686e-17
9273.746 2.848e-17
9275.281 2.9212e-17
9276.816 2.8512e-17
9278.351 2.428e-17
9279.886 2.5203e-17
9281.421 2.7347e-17
9282.956 3.1576e-17
9284.49 3.4746e-17
9286.025 3.3778e-17
9287.561 3.0816e-17
9289.095 2.812e-17
9290.63 2.9672e-17
9292.165 3.0595e-17
9293.7 2.7485e-17
9295.234 2.5708e-17
9296.77 2.9506e-17
9298.305 3.0956e-17
9299.839 3.8577e-17
9301.374 4.546e-17
9302.909 3.1654e-17
9304.444 1.1076e-17
9305.979 2.3694e-17
9307.514 4.4986e-17
9309.049 3.6376e-17
9310.584 2.8301e-17
9312.118 2.9023e-17
9313.653 3.7528e-17
9315.188 3.3917e-17
9316.723 2.4199e-17
9318.258 3.2429e-17
9319.793 3.0997e-17
9321.328 2.312e-17
9322.862 3.2625e-17
9324.397 4.0687e-17
9325.933 2.4702e-17
9327.467 2.0441e-17
9329.002 3.2784e-17
9330.537 3.3428e-17
9332.072 2.4803e-17
9333.606 2.0798e-17
9335.142 2.4146e-17
9336.677 3.5085e-17
9338.211 4.1638e-17
9339.746 3.6912e-17
9341.281 3.0982e-17
9342.816 3.1159e-17
9344.351 3.4822e-17
9345.886 3.7679e-17
9347.421 4.2187e-17
9348.955 3.9879e-17
9350.49 3.157e-17
9352.025 3.0226e-17
9353.561 3.2868e-17
9355.095 3.5098e-17
9356.63 3.9464e-17
9358.165 3.7577e-17
9359.699 3.5941e-17
9361.234 3.7705e-17
9362.77 3.5206e-17
9364.305 3.3436e-17
9365.839 2.1853e-17
9367.374 7.9604e-18
9368.909 2.5538e-17
9370.443 3.9106e-17
9371.979 2.9759e-17
9373.514 2.569e-17
9375.049 4.4937e-17
9376.583 4.5174e-17
9378.118 3.4166e-18
9379.653 9.1088e-18
9381.188 2.8505e-17
9382.723 2.6793e-17
9384.258 2.7155e-17
9385.793 3.1026e-17
9387.327 3.2448e-17
9388.862 3.2025e-17
9390.397 3.4267e-17
9391.932 2.8674e-17
9393.467 2.6669e-17
9395.002 2.9253e-17
9396.537 3.5407e-17
9398.071 3.514e-17
9399.606 3.1535e-17
9401.142 2.6513e-17
9402.676 3.0999e-17
9404.211 3.2495e-17
9405.746 2.8895e-17
9407.281 3.1357e-17
9408.815 3.1247e-17
9410.351 2.7837e-17
9411.886 3.0708e-17
9413.42 3.4209e-17
9414.955 3.4223e-17
9416.49 3.4849e-17
9418.025 4.0567e-17
9419.56 4.0937e-17
9421.095 3.101e-17
9422.63 2.1829e-17
9424.164 2.4565e-17
9425.699 3.0798e-17
9427.234 2.6268e-17
9428.77 2.7493e-17
9430.304 3.413e-17
9431.839 4.1262e-17
9433.374 4.5213e-17
9434.908 3.5473e-17
9436.443 2.4846e-17
9437.979 2.5807e-17
9439.514 5.0929e-17
9441.048 5.2732e-17
9442.583 3.2616e-17
9444.118 2.5785e-17
9445.652 2.8199e-17
9447.188 3.0014e-17
9448.723 2.7162e-17
9450.258 3.0899e-17
9451.792 3.4012e-17
9453.327 3.8998e-17
9454.862 3.7898e-17
9456.396 3.0827e-17
9457.932 3.7986e-17
9459.467 4.0217e-17
9461.002 3.4014e-17
9462.536 3.2837e-17
9464.071 4.0596e-17
9465.606 3.8205e-17
9467.141 3.5033e-17
9468.676 3.4498e-17
9470.211 5.0596e-17
9471.746 5.5939e-17
9473.28 4.3695e-17
9474.815 4.3889e-17
9476.351 4.0608e-17
9477.885 2.6959e-17
9479.42 2.2186e-17
9480.955 2.9569e-17
9482.49 3.8263e-17
9484.024 4.0088e-17
9485.56 3.8386e-17
9487.095 3.9239e-17
9488.629 3.8662e-17
9490.164 3.1348e-17
9491.699 2.752e-17
9493.234 2.526e-17
9494.769 2.7293e-17
9496.304 4.3797e-17
9497.839 4.0733e-17
9499.373 3.5535e-17
9500.908 4.1525e-17
9502.443 3.864e-17
9503.979 3.2807e-17
9505.513 2.7213e-17
9507.048 3.1529e-17
9508.583 3.2892e-17
9510.118 2.7408e-17
9511.652 3.553e-17
9513.188 4.7069e-17
9514.723 3.7934e-17
9516.257 2.9526e-17
9517.792 3.9549e-17
9519.327 4.1445e-17
9520.862 2.9147e-17
9522.396 2.22e-17
9523.932 2.8191e-17
9525.467 3.3715e-17
9527.001 3.1356e-17
9528.536 3.1831e-17
9530.071 3.6395e-17
9531.606 4.0237e-17
9533.141 3.9978e-17
9534.676 3.4377e-17
9536.211 3.2321e-17
9537.745 3.5457e-17
9539.28 3.3779e-17
9540.815 3.6306e-17
9542.351 3.7751e-17
9543.885 3.2767e-17
9545.42 3.775e-17
9546.955 4.4816e-17
9548.489 3.8663e-17
9550.024 4.187e-17
9551.56 3.1814e-17
9553.095 2.3883e-17
9554.629 2.5182e-17
9556.164 2.9904e-17
9557.699 3.3842e-17
9559.233 2.8972e-17
9560.769 3.2948e-17
9562.304 3.9706e-17
9563.839 3.5435e-17
9565.373 3.5619e-17
9566.908 4.3636e-17
9568.443 3.4433e-17
9569.978 2.8815e-17
9571.513 3.4436e-17
9573.048 3.7177e-17
9574.583 3.4069e-17
9576.117 3.1847e-17
9577.652 3.5771e-17
9579.188 3.6259e-17
9580.722 3.2001e-17
9582.257 3.3666e-17
9583.792 3.7634e-17
9585.327 3.6626e-17
9586.861 3.3497e-17
9588.396 3.5259e-17
9589.932 2.8039e-17
9591.466 3.0742e-17
9593.001 4.137e-17
9594.536 4.334e-17
9596.071 3.5016e-17
9597.605 2.9969e-17
9599.141 3.0384e-17
9600.676 3.6453e-17
9602.21 3.8719e-17
9603.745 3.1804e-17
9605.28 3.5533e-17
9606.815 3.9794e-17
9608.35 3.1526e-17
9609.885 2.9702e-17
9611.42 3.2993e-17
9612.954 3.4434e-17
9614.489 3.5186e-17
9616.024 3.357e-17
9617.56 3.0281e-17
9619.094 3.8398e-17
9620.629 3.9571e-17
9622.164 3.0161e-17
9623.698 3.0953e-17
9625.233 3.3651e-17
9626.769 3.5839e-17
9628.304 3.4399e-17
9629.838 3.5171e-17
9631.373 3.7761e-17
9632.908 3.5168e-17
9634.442 2.8383e-17
9635.978 3.2128e-17
9637.513 3.6479e-17
9639.048 3.7869e-17
9640.582 4.4415e-17
9642.117 4.1961e-17
9643.652 4.1261e-17
9645.187 4.0515e-17
9646.722 4.1714e-17
9648.257 4.8985e-17
9649.792 4.8553e-17
9651.326 4.6939e-17
9652.861 3.9813e-17
9654.396 3.3494e-17
9655.931 3.7715e-17
9657.466 3.9284e-17
9659.001 3.2604e-17
9660.536 2.4914e-17
9662.07 2.4367e-17
9663.605 2.3524e-17
9665.141 1.6033e-17
9666.675 1.1432e-17
9668.21 1.1472e-17
9669.745 8.3334e-18
9671.28 5.1497e-18
9672.814 3.6116e-18
9674.35 2.3414e-18
9675.885 1.5822e-18
9677.419 8.9968e-19
9678.954 4.5772e-19
9680.489 2.7497e-19
9682.024 1.1814e-19
9683.559 4.7019e-20
9685.094 3.0252e-20
9686.629 1.3701e-20
9688.163 5.0563e-21
9689.698 1.7541e-21
9691.233 8.0898e-22
9692.769 3.1156e-22
9694.303 7.2966e-23
9695.838 2.3883e-23
9697.373 5.2703e-24
9698.907 9.0057e-25
