 texplosion  fnickel    Pspin  log(Bfield)      Mns  thetaPB  mejecta    kappa  kappagamma     vejecta  temperature    alpha  cutoff_wavelength  log(nhhost)      A_V         MJD0  kenergy  mnickel              TSD   log(L0)  Peak_mag     Peak_MJD  log(E_rad)  log(Peak_lum)  Rise_Time    E_fold  tau_1  delta_m15     r_peak     frac 
  -40.18429  0.09453  3.88219     13.83719  1.67313  0.25801  4.51359   0.2945      0.0108  5764.28017   4687.79463  3.17783         3554.34406     17.63405  0.00024  57575.21571  0.89462  0.42667    4955825.27174   44.6191  23.07998  57675.46598    50.54262       43.52112   65.13137  81.41421   63.5    0.12066  -20.13437  0.94596 
  -34.85975  0.11523  4.27865     13.92108   1.6089  0.28285  6.10133  0.29826     0.01176  7256.35727   6608.59851  3.71585         3351.52016      17.6957  0.00028  57580.54025  1.91641  0.70308    3933709.60357  44.61796  23.10795  57675.46598     50.6226       43.63467   62.43329  74.61396   67.5    0.13314  -20.23123   0.9047 
  -40.52887  0.00569  2.64842     13.25321  1.88802  0.44781  5.14417  0.21816     0.01138  6259.69025    3734.1734  2.36644         3519.61103      19.3075  0.01128  57574.87113   1.2024  0.02927   38315789.83012   44.1155  23.04761     57673.27    50.67908       43.72999   56.31473  67.16348   67.5    0.11814  -20.16556  0.99743 
  -38.68002  0.00227  2.93864     13.60053  1.77056  0.28337  4.41971  0.31718     0.01352  6942.40164   5174.51465  2.43746         3551.96588     20.35877  0.12691  57576.71998  1.27069  0.01005    8936153.86692  44.62951  23.07528  57677.80935    50.74787       43.76754   61.06066  73.27279   72.5    0.13319  -20.32694  0.99915 
  -39.40548   0.0066  3.01821     13.33888   2.0017  0.49651  3.83532  0.31186     0.01318  6216.91268   4133.37358  4.39517         3297.52026     17.55053   0.0002  57575.99452  0.88426   0.0253   35559370.91502  44.05979  23.07831  57675.46598    50.50405       43.55284   59.70375  67.84517   66.5    0.12264  -20.14778   0.9977 
  -37.36768  0.00707  3.62113     13.63089  1.85702  0.37378  5.27151  0.24836     0.01221  6824.89367   4949.00064  2.02921         3619.71279     18.09942   0.0007  57578.03232  1.46472  0.03728   12374886.03656  44.32743  23.08789  57675.46598    50.56167       43.53253   65.13137  82.77111   69.0    0.13216   -20.1962  0.99591 
  -36.18381   0.0101  2.34947     13.19269  1.46019  0.40918   3.9723  0.28365     0.01308  6364.87379   3491.79779  2.54949         3741.52123     17.20567    9e-05  57579.21619  0.95995   0.0401   30816838.51775  44.20253  23.11083  57677.80935    50.48232       43.52119   65.13137  67.84517   63.0    0.13429  -20.16713  0.99634 
  -39.52605  0.00324  4.57629     13.79852  1.53048  0.45887  5.46627  0.25587     0.01095  6111.09984   3093.95383  3.27226         3448.62128     16.01903    1e-05  57575.87395  1.21775  0.01773    7527174.31058  44.25601  23.06451  57677.80935    50.54358       43.54114   66.48827   77.3435   58.5    0.13311  -20.14633  0.99698 
  -34.87552  0.00117  5.25062     14.53854  1.77558  0.14358  4.20843  0.29542     0.01552  5863.46994   4856.08125  2.75647          3601.5288     20.81411   0.3621  57580.52448  0.86309  0.00492     380631.27433  45.49726  23.09463  57677.80935    50.52301       43.53791   65.13137  73.27279   58.0    0.12712   -20.4864  0.99921 
  -41.39972  0.00519   4.6453     14.36394  1.48881  0.12098  5.82876  0.23646     0.01325  5922.84311   3847.23728  3.23595         3463.62549     16.71978    3e-05  57574.00028  1.21973  0.03023     558224.34379  45.36085  23.13128  57675.46598    50.55282       43.55795   66.48827  74.62969   62.0     0.1167  -20.15478  0.99448 
  -39.51544  0.00118   3.9469     13.54386  1.61275  0.60644  4.31956  0.33482     0.01317  6396.25749    4972.4615  3.64511         3347.66121     19.26428  0.01021  57575.88456  1.05419   0.0051   19062233.34362  44.00373  23.08346  57675.46598    50.67865       43.63052   61.07638  86.82609   64.5     0.1265  -20.16641  0.99932 
  -32.35135  0.07038  4.29921     13.64398  2.06923  0.44689  4.60957  0.19284     0.01559  6511.35598   6066.52868  3.50511         3444.81994     19.06394  0.00644  57583.04865  1.16582  0.32441   18299965.40694  44.05543  23.08144     57673.27    50.55484       43.53181   63.77446  81.41421   77.0    0.13392  -20.15072  0.95692 
  -36.02348  0.09689  2.77761     13.42064  1.63712  0.31749   5.7555  0.21457     0.01022  6423.77236   5496.10372  3.48804         3437.10853     17.37842  0.00013  57579.37652  1.41674  0.55764   16902797.84816  44.36763   23.0716  57675.46598    50.50131       43.53785   61.06066  69.20208   75.5    0.12069  -20.17282  0.94509 
  -27.75054  0.46844  6.40565     14.57291  1.47506    0.142  6.14499  0.32638     0.01166  7460.45736   7105.88682  2.87083         3502.48707     20.40615  0.14154  57587.64946  2.04023  2.87858     401723.27098   45.2206  23.10389  57675.46598     50.5385       43.54448   62.41756  74.62969   58.0    0.14483  -20.34021  0.52379 
  -36.44281  0.02174   4.8528     14.39373   1.8007  0.12304  4.75402  0.29629     0.02178  7517.30963   4606.08542  1.94317         3556.98217     19.94798  0.04928  57578.95719  1.60256  0.10333     642378.61276  45.34451   23.0626  57675.46598    50.59103       43.54854   63.77446  85.48492   60.5    0.13419  -20.28949  0.98394 
  -35.55078  0.00953  2.75742     13.59071  1.56721  0.23422  4.57764  0.26411     0.01291  6904.63492   5757.05839  2.30841         3532.47146     19.83131  0.03767  57579.84922  1.30182  0.04364    7286661.61108  44.72044  23.14423  57675.46598    50.59875       43.52333   65.13137  94.98324   73.5    0.13684  -20.22695  0.99589 
  -39.32933  0.16557  3.56534     13.51996  1.51418  0.42128  4.98885   0.2618     0.01013  5773.13017   6619.11919  3.36534         3458.87457     17.39207  0.00014  57576.07067  0.99186  0.82599   16303294.33665  44.13254  23.11044  57677.80935    50.60751        43.5448   67.84517  90.91253   75.0    0.12038  -20.10685  0.89506 
  -37.06766  0.00912  4.76096     14.52586  1.50221  0.09971  5.84894  0.28926     0.01169  6492.07047   4602.57725  3.50264         3377.18405     19.31946  0.01159  57578.33234  1.47052  0.05331     280681.80907  45.64197  23.09952     57673.27    50.53266       43.53011   59.71948  77.32777   56.5    0.13139  -20.19601  0.99054 
  -39.18591  0.00144  2.05829     13.56415  1.64227  0.14132  4.73811  0.31776     0.01072  6756.65659   7001.27079  3.17294          3383.0902      19.0052  0.00562  57576.21409  1.29032  0.00681    4808010.86108  45.17531  23.08016  57677.80935    50.57742       43.54568   67.84517  82.77111   80.0     0.1279  -20.19504  0.99952 
  -36.77231  0.00278  5.12605      14.0233  1.85595  0.33783  4.47819  0.30109     0.01124  5954.25354    6922.4314  2.52166         3700.53263     16.69602    3e-05  57578.62769  0.94707  0.01246    4067748.24287  44.50849  23.10761  57677.80935     50.5686       43.54014   66.44024  81.46224   65.5     0.1344  -20.14039  0.99797 
  -33.37125  0.02719  2.96776     13.35465  1.59611  0.43076  3.09569  0.28653     0.01821  6195.01499   6552.79394  3.12539         3540.51471     17.19589    9e-05  57582.02875  0.70871  0.08417   25493583.34585  44.12062    23.145  57680.15272    50.54923       43.54087   67.84517   77.3435   77.5    0.12869  -20.14846  0.99069 
  -37.83804  0.02156  3.12685     13.59563  1.53296  0.30503  5.45675  0.24898      0.0135  6984.63281   5386.66264  3.44816         3287.76972     19.99068  0.05438  57577.56196  1.58799  0.11765    8959650.42696  44.51187  23.11806  57675.46598     50.4992       43.56309   62.41756  65.13137   74.5     0.1279  -20.26597  0.98742 
  -31.20302  0.12665  1.55011     12.85255  1.36402  0.47294  4.79839  0.19452     0.01007  6706.81924   5094.15646  2.54748         3593.45475      20.9052  0.44661  57584.19698  1.28753  0.60772    60016412.4856  44.24467  23.10816  57675.46598    50.54202       43.55237   65.13137  74.62969   70.5    0.12875  -20.60929  0.96738 
  -36.90778  0.12743  2.44729     13.79937  1.52133  0.10786  4.81831   0.3232     0.01223  6920.52952    5866.0719  3.94876         3304.98472     18.21387  0.00091  57578.49222  1.37658  0.61401      2131410.611  45.34503  23.06753  57675.46598    50.49982       43.53232   59.71948  70.54325   76.5    0.12537  -20.19183  0.94684 
  -39.42986  0.02231  4.74604     14.47409   1.7029  0.11901  6.93407  0.33723     0.01009  7041.89504   6439.54448  2.91611         3422.76586     16.90932    5e-05  57575.97014  2.05113  0.15468      401324.1352  45.54388  23.11255  57677.80935    50.54225       43.56645   67.79714  70.60701   67.5    0.13211  -20.22628  0.97743 
  -41.35728  0.00431  4.27376      13.6905  1.85776  0.57549  4.67811  0.24719     0.01462  6084.66937   7085.66268  4.61589         3232.86156     20.79887  0.34962  57574.04272  1.03317  0.02018   13104808.94645  44.15878  23.06332  57675.46598    50.53967       43.53695   63.77446   77.3435   72.5    0.11385  -20.48482  0.99762 
  -41.18262  0.02516  3.29838     13.29909  2.05883  0.70671  5.83839  0.26619     0.01088  6776.54312    4058.6923  4.26212         3284.02191     17.54093  0.00019  57574.21738  1.59932  0.14689   52463627.41284  43.82601  23.12271   57673.1226    50.53728       43.52744   62.41756   78.7004   64.0    0.11765  -20.20352   0.9866 
   -35.6848  0.00834  3.73805     13.68316  1.97796  0.43223    4.701  0.33334     0.01166  6966.70665   5309.60275  3.60157         3351.46983      20.5307  0.18855   57579.7152  1.36104  0.03922   11040714.27297  44.37677  23.10501  57677.80935    50.54526       43.53966   67.84517   77.3435   67.0    0.13135  -20.39038  0.99637 
  -40.40794  0.01948  3.83038     14.09595  1.90761   0.1391  4.26944  0.29286     0.01092  5724.48816   3507.62933  2.88698         3684.26532     18.38492  0.00135  57574.99206  0.83459  0.08316    1670693.81596  45.15995  23.07194     57673.27    50.57238       43.54794   65.13137  81.41421   65.5    0.12102  -20.13808  0.99045 
  -40.78251   0.0104  2.43794     13.40636  1.41733  0.32844  5.14469  0.26626     0.01312  6679.45898   4103.09827   3.9267         3225.18325     20.72202  0.29292  57574.61749  1.36921  0.05351   12039831.83353  44.56565  23.13913  57677.80935    50.59648       43.52705   71.86785  90.96057   68.5    0.11108  -20.50059  0.99585 
   -41.3804   0.0025  2.47402      13.1855  1.77983  0.47833  4.20522  0.32857      0.0141  6563.89705    6930.5987  3.31067         3355.93223     17.43387  0.00015   57574.0196  1.08079  0.01052   43051909.91972  44.09842  23.06813  57675.46598    50.56223       43.55659   62.41756   77.3435   82.0     0.1163  -20.17556  0.99914 
  -41.05661  0.00815  4.08107     13.91713  1.36556  0.28886   6.5795  0.26988     0.01089  6689.94382   5387.61924  3.01105         3364.51546     17.89417  0.00044  57574.34339  1.75657  0.05364    3093229.25224   44.6922  23.08855     57673.27    50.58487        43.6237   60.56683   69.6959   64.5    0.12726    -20.199  0.99153 
  -31.52273   0.0549  4.02215     14.23977  1.54576  0.18579  4.47866  0.21936     0.01167  5782.94903   9154.42394  2.77821         3740.64684     21.07479  0.65996  57583.87727  0.89346  0.24586     769713.90579  45.36274   23.0658  57675.46598    50.54985       43.55944   65.13137  74.62969   55.0    0.13288  -20.79922  0.97172 
  -38.06154  0.00112  3.81161     13.61213  1.67391  0.50163  3.81339  0.31733     0.01721  6464.58434   3487.30036  4.51128         3305.22889     20.61058  0.22662  57577.33846  0.95065  0.00426   13474156.67789  44.20086  23.12377  57675.46598     50.5461       43.53878   66.48827   77.3435   62.0    0.12323   -20.3868   0.9995 
  -41.21792  0.00297  1.41021     12.64567  1.40151  0.55717  6.56664  0.23584     0.01018  7322.50913   3117.83324  2.56274         3414.32186     18.03474   0.0006  57574.18208  2.10034  0.01953  132325445.46514  43.99523  23.04526     57673.27    50.47957       43.56838   59.18676  60.22074   65.0    0.12138   -20.2315  0.99876 
  -39.30185  0.00104  5.70955     14.69134  1.71868  0.09649   5.5749  0.25586      0.0103  5459.15839   3186.83133  2.89982         3729.88458       18.967  0.00515  57576.09815   0.9911   0.0058     215543.45611   45.6573  23.06224  57677.80935    50.58935       43.54915   63.77446  85.48492   59.0    0.12643  -20.13048  0.99881 
  -41.42726  0.00531  3.56367     14.08666  1.70763  0.13284  4.73962  0.30492     0.01053  6013.26499   3499.85071  3.48646         3434.98195     19.81696  0.03645  57573.97274  1.02233  0.02516    1351065.66562  45.26677  23.08477  57675.46598     50.6427       43.67603   61.06066  70.55898   64.0    0.11879  -20.19369  0.99723 
  -41.01404   0.0078  3.29598     13.40212  1.77168  0.54228  3.87616  0.32511      0.0116  5706.51057   3461.81464  3.07895         3525.40626     19.66164  0.02549  57574.38596  0.75296  0.03023    28049133.2759  44.03334  23.13498     57673.27    50.62092       43.53268   63.77446  97.69705   67.5    0.11676  -20.15418  0.99691 
   -34.3642  0.00112  5.59496     13.87872  1.61247   0.6258  6.25554  0.22491     0.01517  6828.17193    5121.1304  3.27194         3394.17036     16.86192    4e-05   57581.0358  1.73981  0.00699    8193277.81292  44.06729  23.03824  57675.46598    50.56585       43.56515   62.41756  75.98659   59.5    0.14252  -20.18678  0.99848 
  -32.33576  0.02244  4.90405     14.21573  1.65908  0.25523  5.26119  0.26741     0.01081  6268.61791   4124.06929  2.81012         3679.22817     20.68833  0.27106  57583.06424  1.23326  0.11808    1371931.56875  44.97027  23.03195  57675.46598    50.50977       43.53971   61.06066  70.55898   54.0    0.14341  -20.44205  0.98169 
  -40.88092  0.01034  3.41297     13.62125  1.47761   0.3715  6.00785  0.28956     0.01129  6885.36955   5011.64425  2.51336          3453.6501     16.05392    1e-05  57574.51908  1.69903  0.06214    9144127.70778    44.411  23.10441  57677.80935    50.54163       43.53248   69.20208   78.7004   69.5    0.12874  -20.21609  0.99272 
  -37.70224  0.02481  4.99609     14.35085  1.46003  0.15847  4.55701  0.30896     0.01229  5718.31098   5190.90596  2.72538          3718.3652     16.05878    1e-05  57577.69776  0.88888  0.11306     672585.24369   45.2082  23.10784  57677.80935    50.51796       43.54153   66.44024  70.60701   61.5     0.1317  -20.13766  0.97749 
  -36.59639  0.00557  3.83082     14.04622  1.67898  0.16058  4.84702  0.26684     0.01435  6810.51774   4414.01402  4.37082         3251.56496     19.07296  0.00657  57578.80361   1.3411  0.02698     1849329.2577  45.06029  23.14878  57675.46598    50.60865       43.56608   62.45638  90.87371   61.0    0.13201  -20.20851  0.99657 
  -37.35115  0.08143  2.67297     13.50728  1.91468  0.28383  5.81595  0.30949     0.01111   7404.4679   6333.43613  4.41374         3149.69294     19.94753  0.04923  57578.04885  1.90211  0.47357   12283946.63186  44.60761  23.07356  57677.80935    50.54209       43.57009   63.77446  70.55898   78.0    0.12188  -20.31058  0.96558 
  -40.69973  0.00587  3.68324      13.8234  1.73148  0.26755  4.66148  0.33811      0.0119  6433.74535   3677.56504  2.31634         3509.93444     17.42367  0.00015  57574.70027  1.15101  0.02735    4919188.25727  44.68291  23.09705     57673.27    50.58296       43.54515   65.13137  84.12801   61.5    0.11989  -20.19598  0.99695 
  -39.27867  0.00202    3.251      13.4926  1.51013  0.45676  5.08631  0.30022     0.01125  6635.03039   5704.69016  3.37232         3407.06593     19.97542   0.0525  57576.12133  1.33572  0.01025   15334473.13946  44.23816  23.06949  57675.46598    50.48053       43.51863   61.07638  69.18635   72.0    0.12676  -20.23068  0.99888 
  -35.05455  0.03939  2.72327     14.07156  1.66684  0.06913  4.94247  0.21542     0.01167  6453.39204   5975.14423   3.9394         3342.13503      19.5799  0.02112  57580.34545  1.22785  0.19467     825604.05751  45.70378  23.06273  57675.46598    50.52835        43.5714   61.06066  67.84517   78.0    0.12934  -20.18242  0.98131 
  -37.83926  0.00121  3.00672     13.59986  1.35102  0.30144  5.91323  0.26973     0.01032  7065.40552   4045.07676    2.972         3379.21542      19.4074  0.01419  57577.56074  1.76087  0.00717    7160488.78421  44.58838  23.06654     57673.27    50.59086       43.56361   59.70375  82.77111   58.0    0.13326  -20.22795  0.99922 
  -37.84806  0.00127  4.29552     13.87534  1.55077  0.33086  4.84151   0.3128     0.01428  6735.73996   5895.09045  3.35472         3294.98546     18.94616  0.00491  57577.55194  1.31032  0.00617    4717498.50757  44.51965  23.09911  57675.46598    50.51848       43.53635   61.06066  73.27279   67.5    0.13355  -20.18187  0.99906 
  -35.14571  0.00118   5.5605     13.89042  1.60304  0.60689  4.47899  0.32727     0.02515  6984.86612   5533.41576  4.93355         3159.62583     19.59546  0.02189  57580.25429  1.30354   0.0053    7623472.83789  44.10141  23.07728     57673.27    50.55095       43.52896    61.9411  81.89066   63.0    0.13135  -20.21334  0.99886 
  -39.66015  0.00202  6.23615     14.16488  2.10142   0.4103  5.34374   0.3196     0.01099  6103.41091   7106.38205  2.64798         3708.90493      18.8252  0.00371  57575.73985  1.18746  0.01082    3551488.26447  44.45111  23.10211  57675.46598    50.51162       43.54162   62.41756  70.55898   63.0    0.13359  -20.15836  0.99802 
  -33.00507   0.0035  3.05774     13.79317  1.52627  0.28896  3.08701  0.33336     0.01148  5952.67628   3422.06989  2.65486         3756.34314     21.07115  0.65445  57582.39493  0.65251  0.01082    3434902.24237  44.94576  23.10084  57675.46598    50.54078       43.53684   66.48827  75.98659   61.5    0.14195  -20.79068  0.99915 
   -41.3665  0.00153  2.38147     13.21106  1.55383  0.43501  4.22842  0.33362     0.01123  6305.66653   5075.98546  4.74323         3261.05681     17.40157  0.00014   57574.0335  1.00292  0.00647   30959105.66579  44.21577  23.10399  57675.46598    50.74897       43.76847   60.09976  72.87678   75.5    0.12215   -20.1692  0.99947 
   -41.0705  0.00812  2.01524      13.4027  1.69171  0.20194  5.00641  0.30476     0.01204  7081.03912   7092.96902  3.25553         3288.50916     20.24563  0.09781   57574.3295  1.49743  0.04065    9985879.63015  44.88913  23.06134  57675.46598    50.48387       43.53125   62.41756  66.48827   81.0    0.10698  -20.29628  0.99733 
  -35.88106  0.01883    1.021     13.71725  1.40223  0.02363  4.14736     0.32     0.01075  6671.22724   3441.52043  3.33534         3379.59394     17.06807    6e-05  57579.51894  1.10106   0.0781     499098.16617  46.69943  23.05225  57677.80935    50.52269       43.55539   63.77446  70.55898   65.0    0.12937  -20.18951  0.99562 
  -39.16789  0.00142  5.24923     14.31973  1.93459   0.1739  5.39191  0.28137     0.01548  6873.74369   6123.26096  3.52338         3242.75066     18.97415  0.00523  57576.23211   1.5197  0.00764     1135375.2593   45.0601  23.08344  57675.46598    50.56247       43.52742   63.77446  84.12801   69.5    0.13361  -20.19857  0.99876 
    -39.437  0.00468  3.28823     13.73023  1.63035  0.26201  5.18393  0.30489     0.01026  6378.09886   5383.13559  3.64082         3344.96974     19.39915  0.01393    57575.963  1.25796  0.02427     5669736.0972  44.69364  23.11104  57677.80935    50.54049       43.54314   69.15404  74.67772   72.5    0.12172  -20.20186   0.9975 
  -35.82363  0.10399  7.04924     14.04385  1.84755  0.69445  5.62691  0.28404     0.02723  6430.64291   5850.81756  3.16971         3612.75524     16.72519    3e-05  57579.57637  1.38805  0.58514    6966123.92529  43.99616  23.08978  57677.80935    50.51833       43.55156   66.44024  69.25011   71.0    0.10362  -20.20907   0.8631 
  -37.64177  0.00386  4.54684     14.03004  1.88588  0.26939  4.96224  0.33798     0.01036  6444.74162    4809.1144  2.93736         3467.08025     16.48781    2e-05  57577.75823  1.22946  0.01917    3152561.72984  44.73028   23.0686     57673.27    50.55972       43.53014   61.06066  82.77111   61.5    0.12988  -20.17035  0.99749 
  -34.16581   0.1069  2.01794     12.99473  1.74601  0.44951  4.43846  0.27398     0.01677  7532.36036   6788.81313  2.68862         3454.07476     18.86635  0.00408  57581.23419  1.50218  0.47445   67641390.12174  44.07086  23.06998  57675.46598    50.58479       43.54035   66.48827  85.48492   79.0    0.14007  -20.22325  0.96233 
   -41.3728  0.00207  4.12913      14.0217  1.72602  0.19038  6.01678  0.18956     0.01081  6000.03144   6324.84119  1.97629         3827.57985     18.74364  0.00308   57574.0272  1.29211  0.01245    2472704.42549    44.881  23.08345  57677.80935    50.51039       43.53199   66.48827  70.55898   76.0    0.12029  -20.16196  0.99826 
  -42.02511  0.00746  3.69741      13.4036  2.09824  0.69619  5.31605  0.25986     0.01093  6311.43587   4028.79916  3.56558         3362.34869     17.28105  0.00011  57573.37489   1.2632  0.03964    41519955.0449  43.83665  23.11955  57675.46598    50.59391       43.55238   66.48827  85.48492   64.5    0.11928  -20.17871  0.99596 
  -34.76772  0.08898  5.34315     13.86105  2.00899  0.54595  5.30681  0.32463     0.01324  7189.75427   4164.12007   4.3264         3184.06239     18.64743  0.00247  57580.63228   1.6364  0.47222   10099066.62402  44.11195   23.0508  57675.46598     50.5379       43.54834   63.77446  74.62969   54.5     0.1384   -20.2118     0.93 
  -40.33537  0.02141  4.91814     13.93274  1.80673  0.38822  4.48055  0.33679     0.01096  5804.18899   7181.68505  3.67744         3405.75244     19.09261  0.00688  57575.06463  0.90041  0.09593    5531398.44526   44.3993  23.10056  57675.46598    50.52544       43.54151   63.77446  73.27279   68.0    0.12254  -20.12059  0.98512 
  -40.14354  0.00209  4.07489     14.01435  1.73526  0.19048  5.74405  0.21197     0.01123  6089.31075   3630.98605  3.19974         3545.61686      18.3621  0.00128  57575.25646  1.27052  0.01198    2504502.19844  44.88926  23.09062     57673.27      50.591       43.53413   63.77446  88.19873   63.0    0.12043  -20.16796  0.99837 
  -34.86409  0.07942  4.50073     13.54827  1.79221  0.69726  4.62362  0.23067     0.01426  6746.04825   6352.48204  2.26975         3628.50704      16.2616    1e-05  57580.53591  1.25519  0.36723   26991877.46125  43.78443  23.10158  57675.46598    50.53343       43.53996   63.77446  74.62969   69.0    0.14187  -20.16591  0.94594 
  -35.90655  0.03176   5.2742     14.49624  1.60201  0.17416  6.19331  0.29186     0.01094  6122.15712   4524.39038  4.08635         3352.70966     20.60206  0.22222  57579.49345  1.38471  0.19668     421035.26335  45.40488  23.15159  57675.46598    50.62433       43.54701   66.48827  94.98324   54.0    0.12819  -20.36497  0.96534 
  -34.31284  0.00803   5.6835     13.93534  1.81587  0.61564  7.43661  0.19904     0.01119  6869.37542   4035.82908  2.39477          3592.6988     20.31199  0.11395  57581.08716  2.09333  0.05972    7335842.20036  44.15325  23.06695     57673.27    50.65254        43.5931   62.41756  88.19873   54.5    0.14085  -20.31237  0.98895 
  -35.26304  0.00131  6.73768     14.17396  2.08161   0.5656  6.48776  0.30999     0.01214  6835.64423   4199.53531  2.19334         3608.62665     16.49948    2e-05  57580.13696  1.80834  0.00851    3938353.60993  44.33491  23.16246  57675.46598    50.62507       43.53657   71.86785  95.03128   52.5    0.13824  -20.20839  0.99827 
  -40.04807  0.01663  3.67393     13.60396   1.1966  0.48785  6.53244  0.27639     0.01223   6825.6021    4558.4075  3.47632         3377.64917     17.95377   0.0005  57575.35193  1.81545   0.1086     9291928.4143  44.24842  23.10624  57675.46598    50.49293       43.53048   62.43329  69.18635   59.0    0.12443  -20.23256  0.98304 
  -42.67183  0.00198  3.28437     13.27722  1.70662  0.72957  4.57209  0.28017     0.01204   6031.3681   4173.82407   2.8937         3587.95293     16.32476    1e-05  57572.72817  0.99214  0.00905   47689192.94761  43.78966  23.11494  57677.80935    50.55721       43.54769   65.17019  78.66158   65.0    0.11678  -20.16162  0.99902 
  -33.70347   0.0011  3.91994     14.02444  1.54532  0.25751  4.00761  0.25329     0.01022  5508.36426   3378.76859  3.25192          3606.7952     20.95511    0.501  57581.69653  0.72537  0.00439    1970180.99633   44.9768  23.09438  57675.46598     50.7298       43.77919   58.12329  68.06874   60.0    0.13543  -20.59436  0.99948 
  -37.08046  0.00581  2.01571      13.0408  1.73751  0.41809  3.55637   0.3063     0.01689  6721.10599   5006.01536  4.45499         3334.68799     19.20074  0.00882  57578.31954  0.95833  0.02065   54325449.03907  44.16491  23.14079  57680.15272    50.57652       43.55033   70.55898  81.41421   76.0    0.12947  -20.19429  0.99839 
  -37.64657  0.01958  6.26376     14.36532  2.10396  0.27258  8.19777  0.26679     0.01139  7279.01201   5001.63296  4.69716         3130.84992      17.5716  0.00021  57577.75343    2.591  0.16053    1425249.36357  44.84432  23.13624  57675.46598    50.60365       43.59364   61.07638  78.68467   60.0    0.13542  -20.24643  0.97174 
  -35.86962  0.11052  2.63756     13.25565  1.44891  0.53366  5.02823  0.31311     0.01138  7148.72203   3285.87125  4.90473          3177.8537     20.45054  0.15677  57579.53038  1.53285  0.55574   28838260.79275  44.12751  23.08454     57673.27    50.62917       43.61928   61.07638  78.68467   61.5    0.13497  -20.36901  0.95381 
  -35.11613  0.04094  3.64765     13.58385   1.6563  0.42955  5.67592  0.17874     0.01079   6304.6693   3101.86874   2.4365         3713.60041     20.44588   0.1551  57580.28387  1.34582  0.23239    13908366.5615  44.22068  23.10909  57677.80935    50.53211       43.56079   66.44024  70.60701   62.5    0.13031  -20.30162  0.97239 
  -36.62696  0.08065  5.14775     14.33383  1.59849  0.17596   4.3671   0.3191     0.01196  5577.22114   6396.31218  3.25117         3613.06064     20.10445  0.07066  57578.77304  0.81032  0.35223     845490.15802  45.12221   23.0543  57675.46598     50.5615       43.52789   61.06066  84.12801   64.0    0.12676  -20.20633  0.93699 
  -37.76863  0.04271  3.96512     13.80245  1.48832  0.28905  8.13874  0.16377     0.01055  6698.78283   4467.22742  3.59575         3355.62721     16.63303    2e-05  57577.63137  2.17859  0.34757    5396740.10021   44.5129  23.10626  57675.46598    50.60423       43.57253   65.13137  82.77111   61.0    0.12161  -20.19738  0.94875 
  -37.45084  0.00463   6.0705     14.25847  1.92567  0.27728  5.08783  0.28375     0.02178  6600.66313   6476.69043  2.61448         3654.95422     17.30292  0.00011  57577.94916  1.32232  0.02356    2004010.91036  44.68508  23.08818     57673.27    50.75582       43.74565   55.40948  78.92396   70.0    0.12212  -20.21231  0.99524 
   -34.4533  0.00344  6.09512     14.10904  2.05223  0.54268  6.71247  0.33006        0.01  7052.15286    7179.0914  2.85289         3492.60621      19.9936  0.05474   57580.9467  1.99138  0.02306    4284780.83808  44.37918  23.10897  57675.46598    50.58074       43.53848   65.13137  84.12801   59.0    0.12579  -20.24482  0.99602 
   -39.5868  0.00248  4.57147     13.96763  1.72832  0.31785  5.51211  0.30236     0.01187  6641.27031   5327.66696  3.00566         3420.17094     19.74273  0.03072   57575.8132  1.45026  0.01366    3893010.61688  44.59607  23.11869  57675.46598    50.53315       43.55133   66.48827  73.27279   66.0    0.13421  -20.21546  0.99801 
   -33.5116  0.00144  5.12993     14.04499  1.84964  0.31015  4.60377   0.2617     0.01219  6284.25176   6224.73086  2.87885         3639.49426     16.15749    1e-05   57581.8884  1.08455  0.00664     3674110.0651  44.55056  23.10684  57675.46598     50.6889       43.68447   65.13551  77.33935   64.5     0.1431  -20.16558   0.9989 
  -39.92376  0.01199  5.10879     14.43054  1.66605  0.16636  7.72463  0.32562     0.01191  7271.06668   4141.21082  3.10464         3245.17064     18.00679  0.00056  57575.47624  2.43613  0.09259     555983.81558  45.32884  23.11526  57675.46598    50.59567       43.54167   67.84517  88.19873   54.5    0.12864  -20.25682  0.98459 
  -38.15638  0.00626  4.36505     13.61524  1.67671  0.61117  5.49914  0.23717     0.01204   6420.4098   3443.19975  4.18045         3314.63838     17.00938    6e-05  57577.24362  1.35222   0.0344     17449279.475  43.97155  23.08801  57675.46598    50.62306       43.62909   61.07638  75.97087   59.5    0.13231  -20.17773  0.99488 
   -37.3361  0.07263  4.43988     14.06708  2.16098   0.1941  5.59339   0.2398      0.0108  6751.60817   5214.30831  3.24512         3360.49111     18.80769  0.00357   57578.0639  1.52096  0.40626    2904371.88785   44.8457  23.11324  57675.46598    50.55113       43.51877   65.13137  84.12801   68.5    0.13444  -20.15245  0.95104 
  -41.11837  0.09237  4.42298     13.77949  1.52721  0.42856  6.34038  0.27827     0.01121  6500.44888   6374.71384  3.45533         3325.50708     16.08656    1e-05  57574.28163  1.59819  0.58569    7658830.08548  44.27715   23.1085  57677.80935    50.72421        43.6808   67.84517  85.48492   71.0    0.11906  -20.18522  0.91135 
  -38.81251  0.00276  3.59487     13.97637  1.91419  0.16699  4.47382   0.3027     0.01324  6697.06018   5233.87314  2.83652         3452.47226     16.75571    3e-05  57576.58749  1.19694  0.01237     2561113.7745  45.03104  23.12593  57675.46598    50.60201       43.53376   67.84517  90.91253   72.5    0.13337  -20.20468  0.99871 
  -45.70007  0.02525  2.93029      13.4574  1.54088  0.35582  5.15597  0.27677      0.0108  5804.88794   6071.47537  2.30158         3625.32887     18.09771   0.0007  57569.69993  1.03639  0.13019    14949033.1015  44.34818  23.09816  57675.46598    50.53414       43.54603   66.48827  74.62969   83.5    0.10636  -20.14857  0.98661 
  -35.02384  0.12837  3.60902     14.23338  1.62078  0.08856  3.77175   0.3361     0.01617  6683.74648   5314.92305  3.95903         3315.78154     19.90785  0.04493  57580.37616   1.0051  0.48417     669215.05365  45.53822  23.08923  57675.46598    50.76063       43.84454   56.76638  61.28422   69.0    0.13344  -20.21923  0.94241 
  -35.12309  0.09912  4.45014     13.85923  1.65642  0.39996  5.28287  0.29387     0.01329  7203.21705   4678.60027  4.68101         3199.24355     20.49146  0.17226  57580.27691  1.63512  0.52361     5824568.6099  44.42601  23.09959  57675.46598    50.63251          43.63   62.43329  77.32777   56.0    0.13852  -20.37553  0.92934 
  -36.87198  0.00172  4.69135     14.14337  1.94825  0.22168  5.99024  0.29532     0.01145  7110.64115   6120.46112   3.9963          3292.2065     16.58241    2e-05  57578.52802  1.80671  0.01032    2057384.79602  44.90258  23.14673     57673.27    50.63281       43.55286   66.48827  93.62634   68.5    0.13155  -20.24414  0.99864 
  -39.28582  0.03861  4.70717     13.75802   1.6871  0.50217   7.1527  0.21007     0.01109  6655.67969   3416.61959  3.07371           3513.273     18.49809  0.00175  57576.11418  1.89009  0.27618   10578698.03761  44.12604  23.09729  57675.46598    50.49927       43.52467   63.77446  70.55898   59.0    0.12569  -20.19974  0.95633 
  -41.31637  0.00103  3.57513     14.21622  1.66503  0.09804   4.9543   0.3109      0.0126  6476.09873   6560.97939   4.1572          3249.3733     16.47451    2e-05  57574.08363  1.23947  0.00512     730098.16811   45.5203  23.10415  57677.80935    50.49203       43.51783   66.48827  70.55898   75.5    0.12133  -20.19994  0.99942 
  -33.58063  0.08531  4.60619     13.79727  1.72778  0.37543  5.22503  0.19917     0.01441  6660.66157   7057.95902  2.87158         3590.77928     17.84186  0.00039  57581.81937  1.38277  0.44576     8658581.7877   44.2422  23.10422     57673.27    50.59844       43.54218   65.13137  88.19873   70.5    0.13222  -20.16861   0.9295 
  -42.10861  0.00191  2.74335     13.59827  1.49783  0.22274  6.45119  0.21271     0.01083  6580.88482    4064.3629  3.10672         3331.56717     16.74956    3e-05  57573.29139  1.66662   0.0123    6657396.95107  44.74444  23.09227  57675.46598    50.53992       43.51256   65.13137  81.41421   65.0    0.11934  -20.19938  0.99877 
   -39.4237  0.08649  4.49809     14.22859  1.62827  0.15381  5.56157  0.28953     0.01098   6189.9626   4913.57373  3.10372          3350.2525     17.22964    9e-05   57575.9763  1.27116  0.48102    1067627.93029  45.14609  23.09433  57675.46598    50.54166       43.55184   63.77446  74.62969   64.0    0.12133  -20.17366  0.92922 
  -36.25442  0.00396  3.80356     14.03379  1.55288  0.18647  3.54882  0.31935      0.0165  6161.36705   3772.94442   2.7884         3667.06787     20.62253  0.23295  57579.14558  0.80365  0.01405    1785482.49927  45.04785  23.11378  57675.46598    50.60387       43.53604   65.13137  90.91253   61.0    0.13067  -20.39386  0.99824 
  -31.83147  0.05611  4.20217     13.91551  1.98837  0.32809  3.64045  0.23406      0.0112  5749.93263   3904.51716  3.72055         3542.01674     20.91523  0.45704  57583.56853  0.71797  0.20427    4811087.48596  44.63815  23.13187     57673.27    50.62661       43.59905   63.79019  82.75538   62.0    0.13603  -20.55739  0.97885 
  -38.13762  0.02048  4.14488     14.08929  1.99407  0.23034  4.10029  0.25965     0.01273  5760.04502   7104.71196  2.89854         3518.17133     20.95745  0.50371  57577.26238  0.81151  0.08399    2108646.77672  45.00956  23.07374     57673.27    50.57417       43.52641   65.13137  85.48492   69.5    0.11798  -20.63598  0.99177 
  -29.73913  0.20346  5.51442       14.033  1.58757  0.35837  5.11883  0.31768     0.01679  7545.22174   5269.40458  3.65048         3301.91459     16.73068    3e-05  57585.66087  1.73837  1.04145    3850823.88752  44.40102   23.1244  57675.46598    50.56803       43.54394   63.77446  81.41421   58.0    0.15051  -20.22349  0.80916 
  -39.12247  0.00105  3.46171     13.83626   1.6974  0.20991  4.26368  0.30586     0.01353  6372.11543    3159.9939  4.44129         3279.73885     19.01726  0.00578  57576.27753  1.03271  0.00446    4014808.92774  44.81639   23.1356  57675.46598    50.56883       43.52683   63.77446  85.48492   63.5    0.12669  -20.16748  0.99949 
   -38.3158  0.01396  5.51821     13.91139   1.6046  0.62244  5.16129  0.32223     0.01144  5738.06559   4662.78159  2.59694         3727.33902     17.00229    6e-05   57577.0842  1.01372  0.07204    6823250.03978  44.15663  23.07476  57675.46598     50.5099       43.52751   65.13137  71.91588   56.5    0.12789  -20.13715  0.98525 
  -37.31644  0.02053  6.00621     14.69777  1.88265  0.09822  4.48188  0.30214      0.0181  6202.84614   6541.25843  2.61744         3676.00921     17.94595  0.00049  57578.08356  1.02865  0.09202     253656.46312  45.58217  23.08913  57677.80935    50.63401       43.69291   61.06066  65.13137   68.0    0.12594   -20.1879  0.98151 
  -37.95608  0.00768  3.86287     13.74152  2.04939   0.2861  4.41274   0.2051     0.01891  6349.44847   3745.69383  2.61951         3601.84527     17.83822  0.00038  57577.44392  1.06122  0.03387    9337371.39173  44.43643  23.09712  57680.15272    50.54275       43.52767    69.2409  78.66158   69.5    0.11307  -20.15559  0.99583 
  -38.75226  0.00111  4.86491     13.98779  1.91335  0.33604   5.4512  0.32041     0.01568  7427.76934   4730.78969  2.84025          3348.7614     18.76345  0.00322  57576.64774  1.79406  0.00606    4448104.73687  44.52832  23.09396  57675.46598    50.53595       43.53387   65.13137  75.98659   62.0    0.13797  -20.24174  0.99913 
   -33.7497  0.01143  1.95544     13.32771  1.81716  0.21909  5.05478  0.21383     0.01336  7304.49902   5116.22968   3.1413         3273.92012     20.48051  0.16797   57581.6503  1.60883  0.05777   14265533.86046  44.79146  23.07967  57675.46598    50.55621       43.52618   61.06066  82.77111   76.0    0.12925  -20.38512  0.99624 
    -36.879  0.00508  3.08428     13.46737  1.70119  0.40007  4.62318  0.29119     0.01148  6660.94144   5587.13958  4.56302         3318.99243     17.91219  0.00045    57578.521   1.2236  0.02349   17463861.54823  44.27915  23.07583  57675.46598    50.57808       43.53306   65.13137  85.48492   74.0    0.13596  -20.17426  0.99769 
  -33.30667  0.00262  5.69105     13.89306  1.67768  0.59242  6.00233  0.20777     0.01513  6782.16443   6806.85923  3.39581         3424.77942     16.57969    2e-05  57582.09333  1.64696  0.01574    8256336.82768  44.06638  23.09524  57675.46598     50.5293       43.60624   57.00567  63.75874   64.0    0.13816  -20.18254  0.99661 
  -33.45364  0.18994  4.54823     13.85148  1.42832  0.33324  4.88509  0.29083     0.01809  7029.28275   5394.40549  2.96513         3501.08986     17.77143  0.00033  57581.94636  1.43986  0.92786    5437101.15186  44.37262  23.14367  57675.46598    50.57701       43.57932   63.77446  75.98659   66.5    0.13014  -20.21111  0.84383 
  -36.54212  0.01029  3.06129     13.53122  2.06216  0.33036   4.5902  0.28466     0.01272   6775.7687    3431.6363  3.55294         3329.79938     16.23912    1e-05  57578.85788  1.25712  0.04723   15541691.63088  44.41986  23.09915     57673.27     50.5824       43.56022   61.07638  81.39848   62.5    0.12583  -20.20752   0.9959 
  -31.39643  0.02787  6.43575     14.56503  1.84331  0.19364  6.72953  0.24352     0.01081  6843.81678   3837.32244  3.27626         3403.49432     20.03726  0.06053  57584.00357  1.88022  0.18756     525468.49054   45.1967  23.06995  57677.80935    50.51335       43.54529   65.13137  69.20208   50.5    0.15476   -20.2354  0.96002 
  -35.89871  0.00433  3.75265     13.82767  1.89905  0.24177  4.12968  0.27405     0.01802  6698.81691   5302.98162  3.35428         3367.06013     17.18314    8e-05  57579.50129  1.10545  0.01788    5491351.92819  44.65903  23.09932  57675.46598    50.49189       43.55693   62.41756  63.77446   75.0    0.12561  -20.21041  0.99792 
   -34.7779  0.00434  4.13391     14.24948  1.41577  0.14727  4.45367  0.23879     0.01617  6171.19503   4950.10479  3.20685         3441.90265     20.76826  0.32583   57580.6221  1.01177  0.01933     712164.53903  45.33454  23.07566  57675.46598     50.5727       43.54613   66.48827  82.77111   60.0    0.12492  -20.45794  0.99709 
  -33.97923  0.01685  2.37307      13.0663  1.65353  0.50659  4.85485  0.17132     0.01897  6972.16376   3061.61652  4.12285         3222.83881     19.30391  0.01118  57581.42077  1.40779  0.08181   63717088.64501  43.93238  23.08703  57675.46598    50.50307       43.53968   63.77446  67.84517   68.5    0.12057  -20.17192  0.99193 
  -36.91242  0.01228  5.16134     14.05514  1.58376  0.38312  6.77374  0.30045     0.01251  6921.21103   6290.94799  3.40105         3383.54126     17.08188    7e-05  57578.48758  1.93562  0.08318    3039135.97485  44.56026   23.0864  57675.46598    50.52341       43.53521   63.77446  74.62969   63.5    0.13542  -20.22597  0.98466 
  -35.43288  0.04381  3.09648     13.44848  2.04335   0.3915  4.78867  0.23714     0.01045  6441.18466   5358.69543  3.15784         3455.36021     17.21657    9e-05  57579.96712  1.18515  0.20978   23064554.22493  44.23451   23.1168   57673.1226     50.6012       43.55037   61.07638  86.82609   73.5    0.13711   -20.1534  0.98067 
  -40.15108  0.00214   3.5872     13.42418  1.73515  0.59144  4.61455  0.25406      0.0148  6344.68788   3052.08824  4.05108         3260.93787     17.24068   0.0001  57575.24892  1.10809  0.00986   29396989.54195  43.93037  23.15071  57675.46598    50.56251       43.53017   66.48827  84.12801   65.5    0.11955  -20.18145  0.99883 
  -39.63177  0.00132  5.23507     13.89495  1.59895  0.52807  4.59617  0.33698     0.01533  6060.86776   5119.61334  2.98917         3543.45779     17.25077   0.0001  57575.76823  1.00715  0.00606    6600909.14443  44.21523  23.08474  57675.46598    50.58448       43.53701   67.84517  85.48492   61.0    0.12253  -20.16513  0.99882 
   -39.3431  0.00129  3.91238     14.24913  1.92078  0.10212  4.55553  0.29808     0.01859   7077.3663   4352.22469   2.9459         3464.87774      17.0839    7e-05   57576.0569  1.36116  0.00589     866780.47597  45.42953  23.09409  57675.46598    50.52524       43.55025   62.41756  71.91588   61.0    0.12961  -20.23617  0.99931 
  -37.39061  0.02968  4.66002     13.72172  1.80449   0.5701  5.21843  0.27093     0.01074   6214.1241   5912.10138  4.15992         3379.12168     19.80893  0.03578  57578.00939  1.20206  0.15491   13107238.64992  44.07091  23.08103  57675.46598    50.50855       43.51919   65.13137  74.62969   69.0    0.13119   -20.2022   0.9777 
  -35.26862  0.00179  5.20236     13.90724  1.84597  0.44878  7.04776  0.19597     0.01128  6892.58713   6234.20596  4.69009          3243.3558     19.23917  0.00964  57580.13138   1.9973  0.01261    7111524.16257  44.25071  23.09898  57677.80935    50.56116       43.52921   66.48827  82.77111   68.0    0.14124  -20.19633  0.99786 
  -37.75091  0.00907  1.88705     12.84526  1.48043  0.61171  3.66749   0.3338     0.01521  6706.98292   6348.70615  4.75908         3240.72666     16.71295    3e-05  57577.64909  0.98412  0.03326   99829290.58641  43.88841  23.09313  57670.77923    50.52368       43.53539   59.70375  74.62969   82.0     0.1299  -20.17601  0.99744 
  -36.65559  0.00872  3.78922     13.65294  1.40303  0.40676   6.7904  0.19476      0.0103   6828.9329   6586.63375  2.80588         3502.84504     17.27814  0.00011  57578.74441  1.88898  0.05922    9249061.12728  44.29271  23.06386  57677.80935    50.56502       43.62848   62.41756  63.77446   70.0    0.13505  -20.19118  0.99131 
  -40.19211  0.00227  3.36819     13.55503  1.95078  0.35254  3.82771  0.28318     0.02245   6669.7466   6109.91276  4.66935         3175.91475     19.84404  0.03879  57575.20789  1.01574  0.00868   15950076.61444   44.3015  23.10103  57675.46598    50.54549       43.59618   62.41756  66.48827   86.5    0.11796  -20.20798  0.99907 
  -37.86804  0.00133   1.8429     13.16335  1.88296  0.28064  4.78093  0.22092     0.01016  6282.60896   3975.40365  3.95959         3326.39869     20.40267  0.14041  57577.53196  1.12569  0.00634   27986830.42891  44.56573  23.08829  57675.46598    50.48764       43.55033   62.41756  65.13137   70.0    0.12111  -20.29087  0.99959 
  -46.14982  0.01002  2.17092     13.41064   1.6535  0.21846  5.03216  0.32322     0.01163  6420.77633   6085.48482  2.39787         3549.41167     18.25212  0.00099  57569.25018  1.23753   0.0504   10919970.26426  44.77574   23.0887  57677.80935    50.55062       43.55371   67.79714  74.67772   86.5    0.10873  -20.18538  0.99622 
  -36.56834  0.00199  6.65034     14.48489  2.14133   0.1999  6.91371  0.18679     0.01001   6210.3289   7329.61753   2.2634         3719.11066     18.11396  0.00072  57578.83166  1.59062  0.01376     942790.77806  44.97943  23.10862  57675.46598    50.57553       43.52815   66.48827  86.84182   61.5    0.13383  -20.15525  0.99718 
  -35.66336   0.1908  4.54515      14.2064  1.73598  0.14873  6.49978  0.28604     0.01153  7015.32368   4232.14109  3.42235         3432.48167     18.83103  0.00376  57579.73664  1.90819  1.24015    1287213.63014  45.08364  23.06805  57675.46598    50.68358       43.75227   58.34685  63.77446   58.5    0.12396  -20.22564  0.83478 
  -34.42721  0.00667   3.4053     14.10377  1.63975  0.15586  3.36131  0.29663     0.01126  5627.32477   4903.20549  2.64615         3717.08773     20.98779  0.54016  57580.97279  0.63495  0.02243    1094899.57121  45.37994  23.07512     57673.27    50.60132       43.53905   63.77446  89.55563   64.0    0.12696  -20.65155  0.99799 
  -41.69891  0.00872  4.60031     13.82038  1.49472  0.47416  5.76937   0.3135     0.01396  6526.48496    6735.5897  3.37756         3298.03262     16.17616    1e-05  57573.70109  1.46593  0.05029    6717119.20063  44.29065  23.12663  57680.15272    50.55419       43.53692    69.1366  78.76587   69.0    0.12196  -20.19228   0.9914 
  -42.38405  0.08437  5.32477     14.34352   1.9089  0.16401  7.80575  0.24162     0.01157  6625.32128   6636.48545  4.17052         3207.67429     19.35151  0.01248  57573.01595  2.04388  0.65861    1033154.37964  45.08286  23.08134  57677.80935    50.57278       43.53258   66.48827  85.48492   73.0    0.11542  -20.21786  0.89864 
  -37.20097  0.04827  3.36285     13.37063  1.80858  0.57403  5.23462  0.23865      0.0107  6336.78937   4841.71747  4.67217         3249.15422     17.64327  0.00024  57578.19903  1.25386  0.25265   34459274.28485  43.93546  23.07327  57677.80935    50.57548       43.54715   66.48827  82.77111   68.5    0.12481  -20.15159  0.97309 
  -34.65429  0.07241  4.16303     14.18018  1.20364   0.1614  4.49565  0.33723     0.01194    6154.913   4573.25057  3.35542          3515.6137     19.35102  0.01247  57580.74571  1.01593  0.32552     844821.91286  45.18376  23.05155     57673.27    50.60545       43.54356   61.07638   89.5399   54.5     0.1351  -20.15673  0.94115 
  -35.43638  0.04052  3.62013     14.08042  1.69357  0.13851   4.8063  0.29981     0.01234  6908.91374   6621.52361  4.73037         3315.53049     19.77902   0.0334  57579.96362  1.36854  0.19473    1423047.68869  45.22698  23.07558  57677.80935    50.58759       43.66008    59.2273  62.89401   71.5    0.14126  -20.25606  0.97833 
  -34.54991  0.01311   4.3005     14.12372  1.65041  0.18411  4.25883  0.29345     0.01021  5944.10009   5052.17484  3.42942         3515.22384     19.73842  0.03042  57580.85009  0.89761  0.05582    1603265.23338  45.01439  23.12408  57675.46598    50.57108       43.54965   67.84517   80.0573   61.0    0.14059  -20.16537  0.99202 
  -43.22419  0.00735  4.77341     13.79756  1.90861  0.53347  5.53944  0.33587     0.01023  6150.67982   3848.93993  3.25285         3387.99103       18.173  0.00083  57572.17581  1.25008  0.04072   10258098.68832  44.18084  23.08973  57677.80935    50.48611       43.52248   63.77446  69.20208   60.0     0.1195  -20.16167  0.99439 
  -36.28588  0.00479  6.06086      14.0665  1.77467  0.48341  7.13418  0.21639     0.01371  6534.32137   6466.79895  2.54461         3605.71649     16.65435    3e-05  57579.11412  1.81707  0.03419    4456613.78338  44.30389  23.07387  57675.46598    50.56149       43.54807   63.77446   80.0573   64.5     0.1282  -20.19796  0.99261 
  -30.36322  0.01413  5.26795      14.4093  1.35418  0.15421  7.89605  0.16268     0.03683  7539.67448   4499.74645  1.88649         3711.32425     19.74369  0.03079  57585.03678  2.67758  0.11155     529871.68358  45.23307  23.09065  57675.46598    50.63536       43.58826   65.13137  85.48492   68.5    0.10903  -20.26868  0.97338 
  -34.28872  0.04236  4.98891     14.16917  1.60528  0.23903  8.02564  0.21917     0.01172  7438.30178   4309.28427  3.97335         3162.33837     18.56543  0.00204  57581.11128  2.64883  0.33993    1702281.12468  44.84736  23.08105  57675.46598     50.5677       43.54799   66.48827  81.41421   54.5    0.13471  -20.26262   0.9419 
  -38.38727  0.01313  2.33599     13.70162  1.38074  0.13387  4.74347  0.32709     0.01202  6978.83661   5831.66202  4.33445         3249.47729     16.83422    4e-05  57577.01273  1.37813  0.06227    2764596.71475  45.23038  23.11214  57675.46598    50.57238       43.55734   65.13137   80.0573   76.0    0.12971  -20.20757  0.99471 
   -36.0046    0.008  5.49211     14.29915  1.75423  0.20368  3.62391  0.31953     0.01304  5464.36871   7490.71204  2.81834         3761.58434     17.77532  0.00033   57579.3954  0.64548    0.029    1239024.83277  44.94037  23.06231  57675.46598    50.58176       43.54119   62.41756  85.48492   63.5    0.13842  -20.12043  0.99441 
  -33.81422  0.15171  5.02283     13.76646  1.79321  0.62254  4.64012  0.32723     0.01147  6521.49341   4436.74546  2.53064         3616.16833     20.07348   0.0658  57581.58578   1.1772  0.70397    12314805.8876  44.03015  23.09468     57673.27    50.56219       43.55608   63.77446   77.3435   55.0    0.14074  -20.24621  0.89679 
  -33.15197  0.00399  2.54274     13.39434  1.70806  0.30648  5.74827  0.20454     0.01215  7606.42002   6590.19856  2.57725         3433.71032     17.88657  0.00043  57582.24803  1.98392  0.02293   16681996.56252   44.4685  23.10731  57675.46598      50.529       43.54035   63.77446  74.62969   75.0    0.14888  -20.24752  0.99804 
  -33.58454  0.04139  6.25917     14.14273  1.89343  0.35595   8.1155  0.14387      0.0114  6589.69411   5550.19215  2.39396         3600.74725     18.47627  0.00166  57581.81546  2.10219  0.33591    3569686.11399  44.40043    23.116  57675.46598    50.52623       43.54989   63.77446  71.91588   65.0    0.12785  -20.17369   0.9297 
  -38.20809  0.00162  3.14452     13.42944  1.59878  0.44121  4.42388  0.24573     0.01073  6000.54061   6981.85036  2.66604         3651.53517      18.6774  0.00264  57577.19191  0.95019  0.00718   20315261.76646   44.1697  23.13105  57675.46598    50.49158       43.52581   65.13137  69.20208   75.0    0.12666  -20.15037  0.99922 
  -34.10573  0.13133  5.53912     14.37016  1.70133  0.16376   5.3874  0.28149     0.01513  6993.51417   3919.30354  3.56165         3360.91361     19.24425  0.00975  57581.29427   1.5718  0.70752     881374.77914  45.06759  23.09719   57673.1226    50.76522       43.84186   54.27614  63.77446   54.0    0.13998  -20.19583  0.87073 
  -39.34921  0.01245  5.20221     13.90648  1.97897  0.43567  7.41155  0.19268      0.0103  6644.32141   3873.79973  4.43308         3263.84795     16.30343    1e-05  57576.05079  1.95181  0.09228    7650248.16785  44.24923  23.06749     57673.27    50.58331       43.53382   66.48827  85.48492   58.0    0.13056  -20.18473  0.98547 
  -38.01836   0.0366  3.09453     13.61666  1.63482  0.38521  3.42735  0.33259     0.01329  6016.88657   8183.19837  3.27586         3441.32581     20.97809  0.52823  57577.38164  0.74017  0.12545    8494844.02204  44.57197  23.14581     57673.27    50.64749        43.5856   66.48827  89.55563   67.0    0.12145  -20.64584  0.98996 
  -35.28162  0.00238  5.32889     14.09698  1.56115  0.43499  7.07868  0.30978     0.01082  6907.86506   4536.65417   1.8307         3576.13987     19.38754  0.01356  57580.11838  2.01496  0.01682    2633786.89609  44.58844  23.12363  57675.46598    50.54324       43.54511   66.48827  75.98659   52.0    0.14363   -20.2122  0.99673 
  -32.92288  0.08701  4.05253     13.66008  1.72539  0.45949  3.98097  0.31877     0.01441  6805.04208   3889.93911  4.64747          3215.9111     20.10595  0.07091  57582.47712  1.09971   0.3464   12589240.69127  44.19028   23.0759     57673.27    50.54501       43.56475   59.70375  73.27279   57.0    0.14376  -20.22962  0.95638 
