 texplosion  fnickel     Pspin  log(Bfield)      Mns  thetaPB   mejecta    kappa  kappagamma     vejecta  temperature    alpha  cutoff_wavelength  log(nhhost)      A_V         MJD0  kenergy   mnickel             TSD   log(L0)  Peak_mag     Peak_MJD  log(E_rad)  log(Peak_lum)  Rise_Time     E_fold  tau_1  delta_m15     r_peak     frac 
  -20.16574  0.25287   3.62675       13.788  1.81192  1.03799  67.06889  0.02924     0.01955  2537.54362   9768.63644  3.99065         3483.43515     19.38806  0.01358  58325.94454  2.57617  16.95964   5874783.27646  44.63896  17.77533   58462.3125    51.48427       44.22918  103.04809  135.22932  136.0    0.02121  -21.51775  0.46098 
   -17.3132  0.45856    7.7813      14.2483  1.70476  0.45282  59.16469  0.02231     0.10615  2466.65777   9508.30228  3.89527         3357.83926     16.87898    4e-05  58328.79708  2.14737  27.13034   3054807.10596  44.23342  17.77933  58459.42344    51.49036       44.25672  100.96501  133.27381  138.0    0.02445  -21.49196  0.09102 
  -16.47454  0.45734   8.09464     14.55921  1.74294  0.25299  55.45653  0.02418     0.02463  2260.30821   9436.43702  4.20385         3587.43711     16.54151    2e-05  58329.63574  1.69011  25.36232    807379.44543  44.78665  17.77339   58462.3125    51.64278       44.46737   77.36703  114.64951  140.0    0.02437  -21.49538  0.09461 
  -16.94595  0.35933   3.91904     13.98478  1.52604  0.62868  77.54514  0.01652      0.0124  2213.39827   9927.24457  4.66972         3101.77297     20.22516   0.0933  58329.16433  2.26621  27.86451   2334472.55973  44.89786  17.75804   58462.3125    51.66368       44.49188   81.40563  114.64951  142.0    0.02015  -21.55835  0.25883 
  -17.45062  0.41623     9.047     13.90106  1.61188  1.13545  65.28115  0.02189     0.33525  2499.14043   9960.45616   4.3724         3408.03611     17.93673  0.00048  58328.65966  2.43218  27.17184  19321442.53955  43.27713  17.73647   58462.3125      51.689       44.50509   82.32096  109.69559  134.0     0.0206  -21.50674  0.06089 
   -17.8253   0.2821   7.99372     14.31396  1.62477  0.24956  95.25825  0.01432     0.38588   2271.1843    9619.6322  4.50523         3455.12906     16.91783    5e-05  58328.28498  2.93113  26.87244   2270800.81162  44.31796  17.76274  58459.22145    51.47205         44.244   96.92641  130.59748  142.0       0.02  -21.48524  0.07226 
  -19.01995  0.37374   5.30252     14.08942  2.12629  0.85269  63.22453  0.02546     0.03186   2516.3444   8978.81252  4.79191         3109.46365     16.78096    3e-05  58327.09033   2.3881  23.62979   3677502.40108  44.58195  17.76789  58459.22145    51.50443       44.28655   95.56909  130.59253  142.0    0.02217  -21.47967  0.26878 
  -24.06508  0.00161   1.85938     13.56644   1.7765  1.06438  42.41146  0.05024     0.01031  3183.93928   9124.36899  0.40065         3868.18089     17.28685  0.00011   58322.0452  2.56472   0.06829   4199963.10693  45.35643  17.77356     58456.25    51.48974       44.26494   96.92641  129.48693  124.0    0.02633  -21.56224  0.99875 
  -23.87591  0.43475   2.21167     13.98676  1.83532  0.79873  54.38196  0.03341     0.02764  2822.00749    8945.7529  0.73268         3489.42399     17.23868   0.0001  58322.23437  2.58344  23.64271    886021.36204  45.89567  17.76882  58459.22145    51.46806       44.23568   95.56909  130.59253  132.0    0.02158  -21.46597  0.63855 
  -18.83011  0.33066   6.50065     14.03068  1.69888  0.96171  75.95231  0.01629     0.01295  1960.57708    9258.5569  4.00287         3642.76984     18.19255  0.00087  58327.28017  1.74155  25.11462   5788038.38536  44.11056  17.76484  58463.42487    51.60552       44.38783    88.8492  122.01454  146.0    0.02553  -21.47144  0.13992 
  -18.13507  0.41913   6.65311     14.10398  1.70212  0.69923  60.26316  0.02465     0.02537  2405.10582   9342.03318  4.84505         3406.94936     19.38149  0.01337  58327.97521  2.07945  25.25839   4334058.28662  44.21689   17.7614   58462.3125    51.52866       44.29606   94.32782  125.53602  138.0    0.02165  -21.51177  0.13251 
  -15.78525  0.36797   6.64997     14.20405  1.63566  0.65385  73.14626  0.01795      0.1963   2323.4743   9723.82736  4.17728         3352.23952     18.12797  0.00075  58330.32503  2.35556   26.9159   2624543.10111  44.41785  17.77457  58459.42344    51.45624       44.21233  103.04809  135.22932  138.0    0.02143  -21.49004  0.12183 
   -18.9576  0.29605   8.66673     14.52667  1.70692  0.16925  88.06775  0.01486      0.0367   2188.4245   9892.73976   3.9478          3632.3043     17.96746  0.00052  58327.15268  2.51598  26.07288   1052918.17667  44.60295   17.7459  58465.27472    51.67743       44.50581   77.36703  108.40858  140.0    0.02391  -21.47077  0.06819 
  -19.15578   0.4671   7.91979     13.97524   1.6461  0.94223  64.59878  0.02133     0.04258  2414.40928    9790.2198  3.74869         3382.84343     20.11243  0.07197   58326.9545  2.24633  30.17431  10745131.47741  43.65666  17.77362  58459.22145    51.47539       44.23885   96.92641  133.46854  140.0    0.02579  -21.54935   0.0761 
  -18.65886  0.26952   6.27597     14.57233  1.67193  0.22615  93.38089  0.01326     0.01008  1927.58138   9302.83435  4.64319         3545.30276     19.56124  0.02023  58327.45142  2.06972  25.16763    438270.99543  45.25496  17.77931  58459.42344    51.47521       44.23343  104.58591   133.6915  146.0    0.02554  -21.48031  0.14529 
  -14.70789  0.40997   8.65853      14.0554  1.79337  0.98451  68.52464  0.01723      0.0202   2108.4421   9514.26513  4.64404         3561.48366     20.19236  0.08651  58331.40239  1.81718  28.09315   9673280.57587  43.66205  17.76032  58459.22145    51.42712       44.20156   99.00949  131.38546  142.0     0.0264   -21.5825  0.07857 
  -17.23133  0.41626    8.1278     14.14878  1.81968  0.67069  63.29552  0.02027     0.07968  2221.75973    9315.9342  4.49559         3444.53999     19.30045   0.0111  58328.87895  1.86378  26.34708   5626066.14315  43.95869  17.78324  58459.22145    51.47561       44.24896   95.56909  131.94475  142.0    0.02051  -21.49225  0.09494 
  -15.87642  0.46494   6.83093     14.30539    1.681  0.31694  52.83889  0.02471     0.02308  2419.51493   9443.51959  4.30661         3495.28546     18.88245  0.00424  58330.23386  1.84517  24.56717    1784650.8635   44.5739  17.77577  58456.28906    51.49568       44.27205   95.56909  130.59253  140.0    0.02562  -21.50742  0.12147 
  -18.25076  0.37157   6.97025     14.01416  1.63962  1.36551  74.71553  0.01816     0.43257  2254.06084   9299.40514  4.58203         3369.28995      19.8465  0.03901  58327.85952  2.26448  27.76227    6930038.9319  43.95636  17.75261   58462.3125    51.60339        44.4015   89.83029  121.64563  142.0    0.02297  -21.51637  0.10932 
  -20.43212    0.285   3.99871     13.66924  1.67931  1.26999   70.6022  0.02407     0.05739  2702.57794   9446.82694  3.73716         3352.46758     19.09954  0.00699  58325.67816  3.07611  20.12176  11436727.25978  44.23183  17.79616  58455.44561    51.50358       44.26842   96.92641  129.23521  138.0    0.02116  -21.51534   0.3389 
  -20.69605  0.30168   3.95181     13.86926  1.66066  1.01738  80.22914  0.01908     0.25623  2202.09978   9709.99108  3.74117          3406.9278     20.03301  0.05994  58325.41423  2.32078  24.20355   4397179.72282  44.65236  17.78487  58459.22145    51.49886       44.27007   99.60769   131.9548  140.0    0.01957   -21.5145  0.31043 
  -18.13611   0.3706   7.28217      14.4996  1.60754  0.41401   79.2647   0.0148     0.11116  2162.35832   9833.98387  2.83543         3583.01339     16.70547    3e-05  58327.97417  2.21087  29.37552    793031.21193  44.85119  17.77843  58459.22145     51.4666       44.22995  100.96501  133.27381  140.0    0.02152  -21.46486  0.09504 
  -19.07453  0.26789    5.7386     13.93604    1.887  1.20326  88.79902  0.01791     0.01111  2425.18354   9776.91529  4.57593         3360.82784     17.72413  0.00029  58327.03575  3.11548  23.78816   7746756.81891  44.13789  17.77958  58459.22145    51.45624       44.21865  100.96501  133.46854  134.0    0.02414  -21.49161  0.20416 
  -18.35109  0.32152   6.20494     13.98509  1.64967  0.85458  85.96979  0.01617     0.01724  2293.18624   9635.14344    4.597         3268.54417     19.71115  0.02857  58327.75919  2.69682  27.64079   6316937.84634  44.10026  17.79944  58459.22145    51.51193       44.27766   97.91218  132.28803  140.0    0.02297  -21.50804  0.13238 
  -18.96048  0.45672   5.94713     13.92185  1.83346  1.09185  54.10042  0.03035     0.02604  2664.43474   9499.06348   3.7272         3407.27818     16.19839    1e-05   58327.1498  2.29107  24.70895   8629880.95822   44.0475  17.76802  58456.28906    51.47661       44.23957   95.56909  131.94475  136.0    0.02458  -21.51462  0.17831 
  -17.04655  0.27755   7.77052     13.80268   1.5581  1.46729  94.77041  0.01147     0.01309  1964.68706   9298.80135  4.82142         3415.72209     16.15412    1e-05  58329.06373  2.18216  26.30374  21674672.89899  43.34459  17.77872   58462.3125    51.65577       44.47405     80.772  113.08081  148.0    0.02322  -21.44735  0.08039 
  -20.48853  0.32144   4.58527      13.9709  1.61412  0.73323  75.03143  0.02027      0.1104  2349.01384   9669.58888  4.41486         3269.02032     17.90354  0.00044  58325.62175  2.46968  24.11825   3603137.79735  44.59737  17.76508  58456.28906    51.46056       44.23705   95.56909  131.94475  138.0    0.02324  -21.48179  0.24078 
  -15.50114   0.3416   4.42468     14.01827  1.62536  0.72763  68.52489  0.01931     0.01034  2239.68632   9579.45661   4.8106         3243.90024     17.92456  0.00047  58330.60914  2.05045  23.40793   2716395.66001  44.75404  17.79386  58459.42344    51.47807       44.25989   96.92641  130.58743  140.0    0.02132  -21.48069  0.26445 
   -18.3396  0.48846   8.45907     13.83621  1.69168  1.50605  61.87446  0.02128     0.04201   2288.1046    9625.7829  4.78108         3345.55735     20.19244  0.08653  58327.77068  1.93237  30.22309  23897945.13803  43.26416  17.79168  58459.42344    51.47771       44.24979   99.60769  131.94475  142.0    0.02066  -21.57238  0.06645 
  -19.36526  0.33775   3.87518     13.90513  1.89611   0.9209  65.22835  0.02636     0.01511   2563.6048   9784.41363  4.34675         3047.11952     19.80605  0.03555  58326.74502  2.55721  22.03063   4092655.08881  44.75812  17.77262  58456.28906     51.5018       44.27777   93.79345  128.58129  136.0    0.01989  -21.51141   0.3841 
  -16.77718  0.35316   6.40376     13.85968  1.59363  1.20181   67.5217  0.01779     0.03272  2091.05753   9320.14573  3.91478          3667.6869     17.99925  0.00055   58329.3331  1.76117  23.84563  11580283.08362  43.79464  17.76562  58456.28906    51.49242       44.27336   96.92641  129.23521  144.0    0.02209  -21.46884  0.13453 
  -19.50236  0.02627   1.97792     13.79929  1.93707  0.80394  72.10013  0.03515     0.01072  2821.65544   9063.23592  1.37227         3351.32259     18.34022  0.00122  58326.60792  3.42429   1.89426   1773324.66094  45.71478  17.78835  58459.22145    51.48123       44.26546   95.56909  130.59253  124.0    0.01959  -21.51281  0.96717 
  -21.82644  0.07511   2.08153      13.6519  1.96715  1.44682  55.62282  0.03933     0.01006  2892.72369   9103.08741  1.01042         3247.63364     19.01707  0.00578  58324.28384  2.77648   4.17802   3932036.90122   45.3313  17.77804  58456.28906     51.5017       44.27209   92.88781  129.23521  126.0     0.0218   -21.4995   0.9247 
  -18.32422   0.3805   7.57162     14.13623  1.75652  0.75038  71.60583  0.01882     0.06007  2243.81717   9340.32823  4.44229          3343.2535     19.55144  0.01978  58327.78606  2.15055  27.24606   4993263.32427  44.05674  17.76379  58459.22145     51.4514       44.22676   96.92641  130.59748  142.0    0.02429  -21.47927  0.10252 
  -19.03349  0.35868   8.65703     14.05395  1.75943   1.1822  80.22548  0.01685     0.17641  2203.33557   9347.01481  4.75732         3416.62432     20.02881  0.05937  58327.07679  2.32328  28.77538   9550243.52554  43.65946  17.78615   58462.3125    51.44444       44.21084  100.71991   133.5189  142.0    0.02019  -21.54176  0.07637 
  -21.49693  0.47698   2.94644     13.60011  1.32761  1.22822  46.57679  0.03617     0.01551  2784.80014    9769.2318  1.98858         3538.76695     19.36775  0.01296  58324.61335  2.15469  22.21631   6749196.09051  44.62407   17.7762  58459.22145    51.53492       44.29822   93.87358  132.28803  130.0     0.0243  -21.53059  0.38545 
  -15.87806  0.26946   4.73848       13.691   1.4512   1.3418  81.63568  0.01507     0.01622  2124.87742   9026.35981  4.41957          3586.9127     17.14208    8e-05  58330.23222  2.19875   21.9972  12555176.89712  43.98047  17.75606  58456.28906    51.49861       44.28515   95.56909  130.59253  144.0    0.02354   -21.4958  0.21179 
  -18.93841  0.26629   3.84968     13.72484  1.71963  1.48132  78.12902  0.01929     0.02008    2527.577   9716.91267  3.47507         3264.98175     17.03432    6e-05  58327.17187  2.97748  20.80499   8402578.44763  44.40902  17.76822  58459.22145    51.47764       44.24395  103.04809  131.38546  136.0    0.02055  -21.49032  0.36331 
  -17.79595  0.41803   6.70496     13.81084  1.63472  1.31453   64.9999  0.02154     0.01071   2544.6092   9653.58244  3.67861         3374.51516     18.94984  0.00495  58328.31433  2.51063  27.17172   16307147.1522  43.61712  17.77414  58459.22145    51.46435        44.2121  100.96501  133.46854  138.0    0.02055  -21.51302  0.11148 
  -17.75225  0.35721   7.61832     14.48084  1.49201  0.22048  69.98683  0.01814     0.01684   2085.8327   9316.42974  4.78942         3603.10207     16.70069    3e-05  58328.35803  1.81636  24.99993    878269.66712  44.73527  17.75914  58456.28906    51.50126       44.26494   95.56909  130.59253  140.0    0.02011  -21.48686  0.08427 
   -18.5313  0.43993   3.72909     13.80129  1.62218   1.1218  47.85576  0.03873     0.01216  2644.44664   9880.25543  4.19587         3289.13347     17.41112  0.00014  58327.57898  1.99632  21.05321   5230500.39544   44.6172  17.75519  58459.22145    51.51588       44.28838   93.87358  128.50116  130.0     0.0202  -21.51939  0.35893 
  -18.63337   0.3787   3.30945     13.83214  1.57902  0.76637  55.18175  0.02986     0.01456  2611.55871   9694.43216  3.08819         3305.20602     19.25528     0.01  58327.47691  2.24503  20.89752    3478780.8246  44.88629  17.79904  58459.22145    51.50297       44.27658   95.56909  130.59253  136.0    0.02277  -21.52528  0.40628 
  -17.89759  0.26025   4.34628     13.79255  1.91963  1.19715  71.90556  0.01998     0.03936  2282.71151   9217.99216  4.98615          3344.0725     18.71806   0.0029  58328.21269  2.23507  18.71362   8753079.12532  44.33367  17.78426  58463.42487      51.525       44.29556   92.88781  129.23521  144.0    0.02449  -21.48938  0.36607 
   -18.5018  0.42286   11.4712     14.35662   1.6397  0.78608  70.57901  0.01814     0.03085  2453.90908   9256.59161  4.24286         3194.50789     16.40324    1e-05  58327.60848  2.53524  29.84492   3877478.46844  43.77584  17.77801  58459.22145    51.46812       44.21339   96.92641  137.31241  140.0    0.02473  -21.48358  0.04031 
  -25.69341    0.127   1.85805     13.62496   1.8144  1.33766  64.42706  0.03222      0.0111   3062.0073   9101.80132  0.46142         3261.25367      18.3925  0.00137  58320.41687  3.60336   8.18232   3271423.72168  45.47473  17.76229  58456.28906      51.465       44.21306   99.00949  135.22932  124.0    0.02503  -21.52026  0.87515 
  -18.65592  0.34158   3.41803     13.70629  1.62867   1.3305  63.53949  0.02759     0.12787  2938.54017   9762.55123  2.63318         3230.55405     19.42738  0.01486  58327.45436  3.27291  21.70353   6833180.49603   44.5785  17.79105  58459.22145    51.45512       44.22327  100.96501  133.27381  130.0    0.02339  -21.54658  0.39263 
  -19.21171  0.25737   2.71513     13.72986  1.48579  0.75838  57.99024  0.03164     0.01407  2651.25602   9782.47753  2.61827         3554.79224     16.54336    2e-05  58326.89857  2.43156  14.92521   3528885.78809  45.02559  17.78057  58459.22145    51.47912       44.23747  100.96501  133.27381  132.0    0.02324   -21.5198  0.56507 
  -19.24225  0.49437   5.78599     14.22957  1.59419  0.32238   54.7236  0.02644     0.04475  2602.33478   9953.69374  4.75643         3114.06175     19.67193   0.0261  58326.86803  2.21069  27.05363    1721723.1309  44.71067  17.76756  58456.28906     51.4749       44.22441  100.96501  133.46854  136.0    0.02473  -21.51278  0.14054 
   -18.0494  0.26783   5.71659      13.8309  1.67053  1.38965  87.91932  0.01555     0.01538  2272.68389   9444.03115  4.57769         3450.20082     17.05655    6e-05  58328.06088  2.70888  23.54713  11044380.05372  43.93429  17.75461  58455.44561    51.47581       44.22882   95.56909  134.63113  140.0    0.02404  -21.48523  0.17657 
  -18.62848   0.4621   6.91999     14.00656  1.65665  0.81617  57.42589  0.02475      0.2037    2297.729   9278.33976  4.90167         3442.36004     19.90345  0.04448   58327.4818  1.80856   26.5363   7147153.48065  43.95373  17.77397  58459.42344     51.4656       44.22467  103.04809  135.22932  140.0    0.02031  -21.53917  0.11223 
  -18.74125  0.37086   3.29593     13.64598  1.35435  1.28066  55.19208  0.03364     0.05909  2551.92754   9562.07024  4.04728          3462.8969     19.34589  0.01232  58327.36903  2.14408  20.46833   6974943.83416  44.52108  17.77143  58456.28906    51.49495       44.24836  100.96501  133.27381  134.0    0.02393  -21.53296  0.35911 
  -23.05652  0.00988   1.61194     13.66014  1.81852  1.02085  87.17177  0.03109     0.01039  2956.35654   9358.02347    0.834         3027.04751     19.58797  0.02151  58323.05376  4.54482   0.86126   2098731.23266  45.79191  17.77967  58459.42344    51.54744       44.32437   92.88781  126.96598  118.0    0.02271  -21.54466  0.98891 
  -20.33983  0.42075   3.69122     13.91649  1.76004  0.68644  45.95762  0.04033     0.04229  2734.84874   9608.81542  4.18402         3210.97828      18.7522  0.00314  58325.77045  2.05046  19.33665   3271142.58945  44.86533  17.77589  58456.28906    51.50549       44.27508   93.79345  128.58129  134.0    0.02432  -21.52779  0.40922 
  -17.47432  0.39992   8.54984     13.93571  1.84781  0.93042  65.75762   0.0205     0.05411  2363.73728    8837.4911  4.93224         3359.62502      17.9974  0.00055  58328.63596  2.19165  26.29753  16864453.12174  43.44461  17.78996  58466.59951    51.70394       44.52544   76.45315  113.03553  146.0    0.02108  -21.48872  0.08205 
  -15.79302  0.34536   7.24507     13.82881  1.85395  1.45127  66.42028  0.01975     0.15389  2314.24486   9617.03277  4.58426         3643.65512     18.01738  0.00058  58330.31726  2.12201  22.93911  19877894.90901  43.51849  17.77567  58459.22145    51.51395       44.28119   96.92641  129.48693  140.0    0.02321  -21.50656  0.13011 
  -18.98576  0.23819   4.24935     13.79955  1.76177   1.0238  81.18042  0.01905     0.21029  2259.10955    9878.3402  4.83174         3440.59338      18.6629  0.00256  58327.12452  2.47146  19.33639   7435362.44996  44.38685  17.79558  58459.42344    51.49883       44.25865   99.60769  131.94475  140.0     0.0246  -21.49006   0.3401 
  -18.69469  0.33212   6.28204     14.26118  1.68914  0.32461  78.87642  0.01547     0.08871  2130.75852   9556.24753  4.27746         3379.37999     17.67367  0.00026  58327.41559   2.1362  26.19658   1859159.99155  44.63099  17.79396  58459.22145    51.47144        44.2415   96.92641  130.59748  146.0    0.01985  -21.47039  0.13382 
  -19.92097  0.34242   3.89142     13.82499  1.80392  1.34772  61.61365  0.03033     0.17102  2593.63736   9309.50116  4.30631         3216.48667     19.15444  0.00793  58326.18931  2.47242  21.09782   5678988.21087  44.59058   17.7447   58464.7744    51.63454       44.43634   85.57563  116.35438  136.0    0.02024  -21.50636  0.37591 
  -15.61598  0.26087   3.41147     13.71167  1.67786  1.56659  65.00775   0.0226     0.01026  2230.84448   9015.82078  4.64366         3347.84774     16.83677    4e-05   58330.4943  1.92988  16.95867   6841012.60196   44.5926  17.73993  58463.93046    51.60283       44.39573   86.60912  119.35949  142.0    0.02087  -21.48766  0.46534 
  -18.44516  0.34678   8.07519     14.07207  1.88383  1.02615  70.21368  0.01872     0.11765  2087.12012   9521.61257  4.61517         3640.34458     18.52359  0.00185  58327.66512   1.8245  24.34897   8185042.80094  43.81656   17.7698   58462.3125    51.42096       44.18389  105.00361  133.27381  140.0    0.02092  -21.48669  0.11035 
  -20.98277  0.38721   4.17458     14.03073  1.54331  0.56235  64.85451  0.02636     0.06144  2588.17366   9527.87924    3.066         3429.90951     19.33683  0.01207  58325.12751  2.59152  25.11221   2167872.81799  44.88004  17.76881  58459.42344    51.43843       44.19733  104.58591   133.6915  136.0    0.02289  -21.52775  0.25652 
  -16.45194  0.33668   3.96574     13.83655  1.27454  1.07081  72.90182  0.02092     0.02283  2337.92992   9624.87854   4.9169          3275.3399     16.25215    1e-05  58329.65834    2.377  24.54488   3951086.38963  44.58083  17.77315  58459.42344    51.50435       44.25205   99.60769  134.63113  136.0    0.02052   -21.4816  0.23075 
  -19.30594  0.32639   5.25617     13.92211  1.69978  1.05172  77.46727   0.0197     0.01604  2440.49721   9512.07732  3.65676          3393.0726     19.11427  0.00723  58326.80434  2.75234  25.28484   6242115.35837  44.26257  17.80375  58459.22145    51.46497       44.22325   96.92641  133.46854  138.0    0.02518  -21.49782  0.19869 
  -17.92033  0.45357   8.24789     14.12412  1.76641  0.87088  60.07588  0.02298     0.06961  2497.16037   9419.95075  3.87894         3321.92866     16.35368    1e-05  58328.18995   2.2347  27.24859   6300184.25113   43.8839  17.76271  58459.22145    51.47847       44.24685   99.00949  131.38546  138.0    0.02387  -21.47716  0.08845 
  -17.44983  0.36176   5.76103     13.90265   1.4396  1.41096  82.14501  0.01618     0.03597  2257.00865   9880.67725  3.64452         3447.67011     20.12634  0.07431  58328.66045  2.49617  29.71701   6946482.93026  44.06432  17.76175  58456.28906    51.44943       44.22265   96.92641  130.59748  140.0    0.02388  -21.55187  0.12178 
    -17.602  0.36122   6.86121     14.04454  1.75619  1.22624  73.87056  0.02036     0.01037  2496.47516   9167.64727  4.47637         3268.21963     16.78996    3e-05  58328.50828  2.74633   26.6835   6253232.96985  44.04451   17.7777  58459.42344     51.4853       44.25748   96.92641  133.27381  140.0    0.02006  -21.49142  0.12741 
  -18.99849  0.38699   5.11199     14.04988  1.68923  0.48188  55.86248  0.02468     0.01343  2303.13711   9155.76942  4.01168         3605.93497     16.70659    3e-05  58327.11179  1.76761  21.61849    3257781.4641  44.56643  17.78723  58456.28906    51.46522       44.21526  103.04809  135.22932  144.0    0.02401  -21.49324  0.22419 
  -16.43973  0.38829   9.44923     14.13414  2.16415   1.5632  66.57966  0.02308     0.03286  2408.39763   9977.99692  4.92014         3442.26366     18.33645  0.00121  58329.67055   2.3037  25.85194   9674253.31025  43.66772  17.76257  58459.22145    51.47574       44.25362   95.56909  130.59253  134.0    0.02466  -21.50726  0.09561 
  -16.91856  0.26186   6.96744     14.19449  1.77663  0.70175  95.61324  0.01294     0.02419  2037.57099   9188.05931  4.69273         3537.42001     19.18489   0.0085  58329.19172  2.36794  25.03736   3270281.84729  44.31771  17.81671  58456.28906    51.44896       44.21038   99.60769  134.63113  142.0    0.02265  -21.49127  0.13238 
  -22.25034  0.00906   1.93027     13.60986  1.89045  1.36607  53.87317  0.04237     0.01531  2831.66738   9230.79454   0.9654          3514.2101     18.43773  0.00152  58323.85994  2.57682   0.48792   3943581.74969  45.37828  17.77997  58456.28906    51.45147       44.22042   96.92641  133.27381  124.0    0.02168  -21.51308  0.99139 
  -16.06468  0.31396   8.51025     13.93963  1.74469  1.40842  84.95654  0.01458     0.02922  2204.71753   9228.74184  4.10569         3529.72033     19.56956  0.02062   58330.0456  2.46337  26.67285   15493753.7731  43.46052  17.78649  58456.28906    51.47844       44.25221   99.60769  130.59253  144.0    0.02528  -21.49771  0.08095 
   -20.0001  0.05381   1.99295     13.63151  1.85594  1.38824  84.37901  0.02839     0.01279  2741.72625   9310.07922  1.90444          3010.1733     19.48379  0.01692  58326.11018  3.78364   4.54061    3735473.1318  45.36607  17.77966  58463.42487    51.58316       44.36346   89.35547  123.22067  128.0    0.01925  -21.50858  0.91882 
  -19.02067  0.38736   7.55991     14.06064  1.73942  1.48082  67.48285   0.0228     0.03744   2387.5596   9429.86075  4.81286         3378.23152     18.99331  0.00547  58327.08961  2.29472  26.13984   6981745.23056  43.90825  17.78992  58455.44561     51.4985        44.2591   95.56909  134.63113  138.0    0.01967  -21.48566  0.10799 
  -18.24376  0.00338   1.96378     13.72565  1.83569  0.84005  49.72909  0.05116     0.01218  2834.56663   9037.16094   1.7338         3258.03089     18.45944   0.0016  58327.86652  2.38348   0.16822   2325375.98467  45.57996  17.78285  58459.22145    51.55796       44.33171   94.32782  127.79519  126.0    0.01933  -21.51841  0.99677 
     -20.89  0.00741   1.96797     13.69855  2.08613  1.54808  63.28259  0.04422     0.01384  2695.95046   9175.50156  1.63396         3376.13188     19.94105   0.0485  58325.22028  2.74369   0.46904   3006752.60018  45.52205  17.78263  58463.42487    51.62075       44.40628   85.93898  121.49834  126.0    0.01815  -21.53722  0.99263 
  -19.45238  0.36802   3.77528     13.83988  1.74014  0.99484  64.62719  0.02429     0.13964  2569.57781   9392.69995  3.57011         2998.41488     18.42503  0.00148   58326.6579  2.54546  23.78397   4814267.60112    44.673  17.75892  58463.42487    51.59212        44.3877   84.37289  117.79387  140.0    0.02074  -21.48518   0.3484 
  -20.21573  0.29601   3.69854      13.8302   1.6442    0.832  71.14425  0.02281     0.01243  2491.04931   9675.77109  3.64448         3276.32509     18.39516  0.00138  58325.89455  2.63349  21.05966   4564934.28934   44.6893  17.80252  58459.22145    51.52222       44.28687   97.91218  132.28803  138.0    0.02176  -21.49382  0.36399 
  -19.87076  0.22558   4.80303     13.90121  2.09705  1.26596  93.50892  0.01273      0.1772  1947.58038   7823.95408  3.40061         3569.32131      18.3067  0.00113  58326.23952  2.11578  21.09339   7079960.63257  44.37739  17.78491  58456.28906     51.5035       44.29244   90.43336  128.18588  160.0     0.0205  -21.44516  0.32726 
  -20.33445   0.4054   6.55803       14.144  1.96336  0.89516  68.44816  0.02044     0.01147  2139.92147   9649.77936  3.86595         3523.61337     20.04648  0.06183  58325.77583  1.86975  27.74864   4039891.76199  44.32193  17.77953  58459.42344    51.46794       44.23273  100.96501  133.27381  142.0    0.02391  -21.53319  0.15379 
  -20.32002  0.38563   7.01075     13.99768  1.70015   0.8857  67.29114  0.02327     0.04386  2490.29679    9891.1213  4.43079         3383.44681     18.40041   0.0014  58325.79026  2.48936  25.94926   7842806.40375  43.91333  17.78131  58459.42344    51.50221       44.27217   96.92641  130.59748  134.0    0.02024  -21.49748  0.11594 
  -19.74089  0.42705   7.29835     14.09573   1.7502  0.72529  59.53627  0.02427     0.07321  2274.92417   9755.86723  4.33347         3528.81179     19.10563  0.00709  58326.36939  1.83799  25.42478   5570359.61242   44.0396  17.76671  58459.42344    51.47991        44.2457  100.96501  130.59748  138.0    0.02541  -21.49277  0.11443 
  -19.00698  0.24537   4.67078     14.02569  1.70904  0.62304  98.88431  0.01442     0.41386  2322.70479   9640.20109  3.89953         3240.53033     16.46396    2e-05   58327.1033  3.18231   24.2634   3075803.63605  44.67486  17.79573     58456.25     51.4661        44.2361   95.56909   131.9548  140.0    0.02423   -21.4612  0.24698 
  -15.75086  0.23552   5.31445     13.85519   1.8614  1.15401  93.11201  0.01362     0.02975  2201.93247   9011.24782  4.49942         3450.43428      16.7668    3e-05  58330.35942  2.69303  21.92971   9510291.22517  44.10957  17.78125  58456.28906    51.49524       44.26066   97.91218  132.28803  146.0    0.02224  -21.48582  0.23782 
  -20.42493  0.12403   1.79932     13.64926  1.74927  1.42222  73.61927  0.02923     0.01033  2636.55715   9185.93376  1.33168         3178.97534     19.31797  0.01155  58325.68535  3.05276   9.13132   2644682.69042  45.57911  17.76973  58454.51245    51.48799       44.27356   92.88781  129.23521  130.0    0.02248  -21.49257  0.86453 
  -17.89851  0.47523   9.69369      14.0519  1.59809  1.11805  57.61857   0.0235     0.06242   2348.3364   8988.78027  4.88319         3365.16234     16.13769    1e-05  58328.21177  1.89544  27.38199  10979784.43346  43.45887  17.77598  58456.28906    51.51639       44.28288   96.92641  133.27381  142.0    0.02462  -21.49795   0.0559 
  -15.14055  0.47624   9.04932     14.79528  1.99785  0.44274  60.92702  0.02429     0.13187  2485.72458     9431.834  4.92172         3172.18198     19.26897  0.01032  58330.96973  2.24566  29.01618     389995.1553  45.06512  17.79512  58459.22145    51.53524       44.30599   96.92641  129.48693  136.0    0.02001  -21.48523  0.08863 
  -18.75579  0.29499   5.08104     14.03902  1.39982  0.55803  86.37958  0.01689      0.0112  2359.99691   9403.67915  3.83936          3407.1768     18.79279  0.00345  58327.35449  2.86986  25.48119   2803780.47781  44.55527  17.78371  58456.28906     51.4481       44.21772   95.56909   131.9548  138.0    0.02388  -21.47761  0.16361 
  -18.62414  0.39257   5.76621      13.9358  1.74343  1.50179  68.11372  0.02032       0.087  2313.24871   9914.06084  3.59224         3546.75866     20.04354  0.06141  58327.48614  2.17423  26.73928   7234458.38531  44.12906   17.7627  58463.42487    51.61142       44.41349    84.8106  117.11941  138.0    0.02455  -21.55006  0.16928 
  -19.30782  0.43837   3.37372     13.70382  1.73235  1.34701  38.61804  0.04837     0.01143   2813.6608   9193.51123  3.06916         3394.73034     18.84446  0.00388  58326.80246  1.82373  16.92911   7161920.12206  44.59623  17.78047  58463.42487    51.63792        44.4558     80.772  113.08081  134.0    0.02599  -21.52153  0.48175 
  -16.80849  0.41618  12.18843     15.05478  2.15832  0.89368  72.95356   0.0165     0.34073  2135.96332   9889.11863   3.6186         3482.78766     19.09867  0.00697  58329.30179  1.98546  30.36188    231343.41913  45.06681  17.80041  58459.22145    51.48038       44.25183   96.92641  130.59748  140.0    0.02207  -21.47014  0.05544 
  -17.64224  0.22027   3.77605     13.97332  1.85925  0.80484  89.19795   0.0172     0.03207  2239.03502   9790.58799  3.71724         3412.05239     18.45623  0.00159  58328.46804   2.6675  19.64724   2783480.72192  44.93952  17.77683  58459.22145    51.48796       44.25886  100.96501  133.27381  136.0    0.02312  -21.47751   0.4192 
  -17.09762  0.28236   5.82959     13.98204  1.44631  1.17019  90.49393  0.01516     0.01322  2149.95514   8875.75561  4.45388         3532.39043     16.80366    4e-05  58329.01266   2.4952  25.55173   4957662.59481  44.20255  17.77437  58459.22145    51.50799       44.25211   99.60769  134.63113  142.0     0.0253  -21.49132  0.13794 
  -23.85412  0.22305   2.48154     13.68587  1.87571  0.94866  43.94011  0.04653     0.01033    3148.351   9654.27933  1.17108         3235.54382     16.70616    3e-05  58322.25616  2.59809   9.80064   4556996.03714  45.09389  17.76055  58459.22145    51.54335        44.3296   90.10666  127.97776  124.0     0.0242   -21.5381  0.77026 
  -17.44251  0.40712   5.93495     14.08036  1.72015  0.67812  64.81857  0.02175     0.01345  2418.78883   9608.54537  4.46084         3347.95426     19.99625  0.05508  58328.66777  2.26216  26.38914   3885915.54108  44.36808  17.78135  58456.28906    51.48454       44.26136   95.56909  130.59253  138.0    0.02377  -21.54486  0.15782 
  -18.30081  0.44162   6.93706     13.81536  1.38163  1.41917   61.8011  0.02385     0.03528  2537.14328   9525.74118  4.01082         3338.67006     17.78964  0.00034  58327.80947  2.37309  27.29268  14449227.20306  43.56704  17.77669  58456.28906     51.4697       44.23915   96.92641  130.59748  136.0    0.02559  -21.49076  0.08519 
  -19.76609  0.39855    5.4177     13.85361  1.64535  1.36803  63.59229  0.02312     0.02147  2494.39978   9515.52611  4.07249         3292.61455     18.02003  0.00058  58326.34419  2.36028  25.34485   8799920.58551    44.073  17.77404  58456.28906    51.48653       44.26167   93.79345  132.36816  138.0    0.02129   -21.4949  0.18068 
  -21.05818  0.38129   5.29993      13.9131  1.66943  1.06926  68.05169  0.02155      0.0106   2188.6892   9944.74052  3.82721         3443.25268      18.8965  0.00438   58325.0521  1.94462  25.94763   6497232.29519  44.23015  17.76621  58459.22145    51.44705       44.21846   99.00949  131.19072  138.0    0.02094  -21.48276  0.18775 
  -23.24095  0.24328   2.27435     13.62227  1.78324  1.40532  52.33832  0.03577     0.01034  3107.36213   8991.88379  0.84119         3063.48372     17.97612  0.00053  58322.86933  3.01461  12.73276   4877626.63824  45.11813    17.783  58455.44561      51.566       44.35065   90.43336  128.18588  130.0    0.02029   -21.5098   0.7432 
   -24.8377  0.45267   2.09255     13.58501   1.3876  0.85535  42.25305  0.04171      0.0118  3362.12589   9554.70783  1.59022         2051.85679     16.22566    1e-05  58321.27258  2.84914  19.12674   3814338.55997  45.18834  17.76567  58459.22145    51.46707        44.2354   96.92641  133.27381  122.0    0.02027  -21.53607  0.60805 
   -18.7763  0.00608   1.84032     13.64479  1.97228  1.27526  81.69474  0.03082     0.01394  3092.97264   9292.37007  1.24781         3069.14211     20.18963  0.08597  58327.33398  4.66201   0.49697   3184181.08602  45.53103  17.77897  58459.42344    51.47289       44.22459   99.00949  135.22932  120.0    0.02177  -21.62895  0.99255 
  -17.07644  0.41096   5.75892     14.31246  1.72898  0.44992  61.10256   0.0237     0.23605  2284.84943   9655.86221  4.61962         3387.76582     16.66615    3e-05  58329.03384  1.90284  25.11056   1262909.88776  44.88458  17.79008  58459.22145    51.49941       44.26965   97.91218  132.28803  138.0    0.02515  -21.49725  0.17754 
  -16.10415  0.39214   7.74959     14.11251  1.71572  1.11066  74.94203  0.01817     0.09625  2396.80632   9496.00078  3.71626          3471.6367     20.07507  0.06604  58330.00613  2.56814  29.38766   5699025.67778  43.96893  17.72286  58464.59824    51.67084       44.50034   81.40563  112.12164  140.0    0.02491  -21.56227  0.09123 
  -18.36159  0.25025    5.4373     14.19178  1.69169  0.48104  94.48101  0.01442      0.2725  2204.19992   9316.90136  3.59414         3645.28804     17.00729    6e-05  58327.74869  2.73825  23.64421   1920189.93654  44.74306  17.80123   58462.3125    51.66038       44.48219    77.9236  115.92922  140.0    0.02089  -21.48906  0.19666 
  -15.22346  0.40048   7.87676     14.01877  1.47431  1.04322  62.05227  0.02276     0.07806  2351.99623   9652.19498   4.6549          3593.1226     17.63948  0.00024  58330.88682  2.04766  24.85041   7790428.11338  43.75318  17.77607  58456.28906    51.45628       44.22699  100.96501  130.59748  134.0    0.02545  -21.50646  0.08238 
   -20.8347  0.07928   2.02399     13.58237  1.73906  1.41051  68.78146  0.03393     0.01011   2694.8821   9446.12644   1.5172           3642.848     19.91735  0.04593  58325.27558  2.97974   5.45293   4526960.28455  45.24094   17.7704  58459.22145     51.4606       44.22993   96.92641  133.27381  128.0    0.02372  -21.55484  0.89184 
  -19.71251  0.00179   2.22371     13.66384   1.9594  1.32183  49.29253  0.05464     0.01017  2629.96661   9133.63581  2.27279         3654.69213     19.11815  0.00729  58326.39777   2.0338   0.08847   4230820.38587  45.24039  17.76852  58456.28906    51.48212       44.26456   93.87358  128.50116  130.0     0.0232  -21.52162  0.99802 
  -19.56587  0.30684    6.3757     13.91453  1.80808   1.2115  79.00015  0.02079     0.03606  2451.48532   9621.56484  4.53352         3560.80669     19.78749  0.03406  58326.54441  2.83213  24.24073  10116310.44986  43.91199  17.79125  58459.22145    51.45642       44.21026  100.96501  137.31241  134.0    0.02379  -21.53655  0.15808 
  -23.01053  0.01547   1.60521     13.69069  1.65676  0.75378   55.5682  0.04309     0.01174   2947.6715   9073.53707  0.59082         3585.97618     17.82682  0.00037  58323.09975  2.88013   0.85955   1647233.77664  45.86028  17.79035  58459.22145    51.51793        44.2902   97.91218  132.28803  120.0     0.0229  -21.52686  0.98735 
  -17.44934  0.38807    7.8118      14.0204  2.18838  1.32335  65.78038  0.02074     0.04091  2253.58996   9664.22605   4.5832         3544.84207     20.03604  0.06036  58328.66094  1.99284  25.52734  11288796.39128  43.77082  17.78555  58456.28906    51.45891       44.22779   96.92641  133.27381  138.0    0.02648  -21.54958  0.13509 
  -20.03948  0.40015   6.17678     14.05022  1.90662  0.92267  64.21605  0.02406     0.01442  2159.75822   9792.05053  4.82326         3571.73829     20.16499  0.08123   58326.0708  1.78682  25.69614   5360093.93436  44.23841  17.75538  58456.28906     51.4878       44.26392   96.92641  130.59748  138.0    0.01968  -21.56539  0.17278 
  -17.70278   0.2965   7.53397     14.04377  1.80329  1.22652  85.95371  0.01697     0.01023   2179.3917   8844.30985    4.634         3511.04774     18.55988  0.00202   58328.4075  2.43536  25.48562   7769371.01116  43.88048  17.76207     58456.25    51.46195       44.23168   95.56909   131.9548  144.0    0.02261  -21.47769  0.11513 
   -18.2973  0.41434   3.56305     13.70468  1.49089  1.11095  55.77359  0.03144     0.26217  2730.77418   9730.20414  4.72154         3061.97112     19.93009   0.0473  58327.81298    2.481  23.10928   6847795.57156   44.5031  17.78022  58459.22145    51.47386        44.2476   95.56909  130.59253  134.0    0.01984   -21.5503  0.32707 
  -14.67274  0.41418   8.79938     14.51647  1.83204  0.50592  71.21415  0.01729     0.05511  2226.67055   9708.41779  4.83877         3304.71213     19.86788  0.04098  58331.43754  2.10623  29.49571   1220984.07842  44.55616  17.75568     58456.25    51.45924        44.2245   96.92641  130.59748  142.0    0.02165  -21.53641  0.07981 
  -18.80959  0.42525   6.46733     14.11595  1.74826  0.60579  61.56649  0.02387     0.01049  2316.60505   9831.17869  4.50989           3485.604     19.92824  0.04709  58327.30069  1.97095  26.18144   3980794.18991  44.29003  17.76298  58459.22145    51.49309       44.26781   93.87358  132.28803  138.0     0.0236  -21.54547  0.13793 
  -25.09313  0.00891   1.82281     13.64051   1.6936  0.83858  55.75636  0.04355     0.01071  2986.36634   9288.40579  0.66158         4001.22836     17.98675  0.00054  58321.01715  2.96625   0.49675    2735815.7918  45.53908  17.76354  58454.51245    51.48418       44.25893   93.79345  128.32956  122.0    0.02411  -21.53582  0.99074 
  -21.01927  0.00691   2.20949     13.70445  2.04973  1.03826  58.06016  0.04262     0.01062   3016.7596   9316.47803  1.13579         3587.52575     18.47861  0.00167  58325.09101    3.152   0.40093   3624078.12384  45.33276  17.77082  58456.28906    51.43416       44.19923   99.00949  131.38546  124.0    0.02534  -21.54745  0.99172 
  -18.90146  0.35463   6.47595     14.11595  1.46428  0.76258  69.46294  0.02463     0.02187  2384.58943   9489.53263  4.82812         3604.94814     16.75946    3e-05  58327.20882  2.35617  24.63372   3343151.46573  44.28771  17.75968  58459.42344    51.51706       44.28297   97.91218  132.28803  134.0    0.01984  -21.50632  0.11961 
   -19.1306  0.36534   6.67258     13.89034  1.66574  1.52402  66.54574  0.02229       0.024  2185.90425   9868.11839  4.41326         3651.81777     18.29803   0.0011  58326.97968  1.89675  24.31187  11411213.03172  43.78453  17.77945  58459.22145    51.47268       44.24943   95.56909  130.59253  136.0    0.01992  -21.49635  0.13178 
  -21.37294  0.32009   3.45059     13.88512  1.72209  0.75156  58.05591  0.03403      0.0646  2546.27572   9431.02309  4.48864         3272.96714     19.27806  0.01054  58324.73734  2.24535  18.58331    3231672.2124  44.91969  17.77783  58459.22145    51.49196       44.26338   99.60769  130.59253  136.0     0.0189  -21.51284  0.44634 
  -18.03069  0.39528   5.63582     13.83176  1.78099  1.17488  57.48256  0.02365     0.02692  2248.46798   9176.61034  4.40187         3437.72852     17.94422  0.00049  58328.07959  1.73355  22.72185  11399089.15231  43.96072  17.79183  58456.28906    51.47848       44.25804   93.79345  128.58129  144.0    0.02536  -21.45848  0.19831 
   -18.3052  0.42517   7.51879     14.16782  1.70028  0.66937  64.90113  0.02203     0.02923  2262.42088   9628.92103  4.88166         3443.54142     19.93576  0.04792  58327.80508  1.98165  27.59427   4120869.96645  44.13208  17.78025  58459.22145    51.52035       44.30018   93.87358  132.28803  140.0    0.02368  -21.54808  0.09837 
  -17.02581  0.44782   7.53766     13.95408  1.39114  0.85329  57.56678  0.02207     0.42482  2223.90252   9167.26322   4.4329         3549.72263     17.37312  0.00013  58329.08447  1.69836  25.77953   9067587.56637  43.70025  17.77842  58459.22145    51.47337        44.2533   95.56909  130.59253  142.0    0.02433  -21.49606  0.07723 
  -18.02569  0.38412   9.54269     14.01762  1.71495   1.0682  75.01439  0.01845     0.02174  2363.82274   9623.83684   3.8695         3382.19875     17.77032  0.00033  58328.08459  2.50035  28.81487  13371215.11005  43.41758  17.77131  58456.28906    51.46025       44.21739  100.96501  133.46854  140.0    0.01997  -21.48822   0.0589 
  -19.14168  0.35758   6.58663      13.6997  1.52441  1.27187  70.60128  0.02041     0.46459  2387.14267   9045.29363  4.83227         3496.40769     19.79499  0.03465   58326.9686  2.39992  25.24551  24481673.17537  43.42578  17.76524   58462.3125    51.44814       44.21555  100.54731   133.6915  142.0    0.02221  -21.51943  0.10641 
  -16.16034  0.49675   9.20442     13.83918  1.40274  1.53241  56.46193  0.02304     0.47653   2427.4435   9582.43985  3.76272         3468.47151     17.12731    7e-05  58329.94994  1.98464  28.04748  23143059.81874  43.12341  17.76535  58456.28906    51.45337       44.22775   96.92641  130.59748  138.0    0.02093  -21.50247  0.04751 
  -19.36141  0.35341   6.19924     13.69892  1.36427   1.4205  69.34719  0.01712     0.04385  2006.92894   7403.13924  4.32417         3552.99338     17.53175  0.00019  58326.74887  1.66617  24.50785  19477944.31645  43.52952  17.75922   58462.3125    51.64421       44.45123   81.53368  112.31913  156.0    0.02299  -21.43392  0.10985 
  -17.22784  0.38638   5.08829     13.91253  1.31736  0.75033  62.15062  0.02261     0.06377  2259.22613   9078.93443  4.79856         3444.98413     16.54151    2e-05  58328.88244  1.89231   24.0138   4738007.35856  44.29981  17.77979  58459.22145    51.46865       44.24151   96.92641  130.59748  140.0    0.02061  -21.48128  0.15903 
  -19.17985  0.38894   6.03688     14.04511  1.59108  0.90838  68.37171  0.01932     0.07151  2116.87609   9895.86241  4.22722         3403.55337     17.55075   0.0002  58326.93043  1.82766  26.59257   4374426.86715  44.26799  17.77901  58463.42487    51.62835       44.41729   86.57227  119.39634  138.0    0.02063  -21.46577  0.14065 
  -20.89593  0.00668   2.22685     13.71811   2.1944  1.54653  57.69955   0.0491      0.0101  2810.89324   9081.63317  1.90196         3300.56262     19.66331  0.02559  58325.21435   2.7195   0.38558   3700803.11829  45.34648  17.78961  58459.22145    51.45183       44.22313  100.96501  133.27381  128.0     0.0191  -21.52578  0.99276 
  -16.85322  0.26432   6.85324     14.07938  1.71813  0.69807  96.61711  0.01313     0.04654  2198.39925   9449.06307  4.65748          3350.9955     17.38178  0.00013  58329.25706  2.78544  25.53819   5198899.31492   44.1162  17.77719  58459.22145    51.50465       44.26489   97.91218  132.28803  142.0    0.02615  -21.46179  0.12443 
  -17.70508  0.30114    5.4326     13.95528  1.61211  0.54074  82.95541  0.01533     0.01035  2325.91728   9601.60772  4.84476         3382.88743     20.09306  0.06883   58328.4052  2.67707  24.98113   5428256.94056  44.27156  17.77594  58456.28906    51.52053       44.29183   94.47196  128.18588  144.0    0.02109  -21.54151  0.16637 
    -22.054  0.37006   4.55597     13.82605  1.66051  1.24213  65.40807  0.02599     0.24899  2491.74742   9623.59143  3.92325         3261.47291     17.22928    9e-05  58324.05628  2.42252  24.20506    7130343.0069  44.31881  17.78218  58459.22145    51.49745       44.25651   95.56909  134.63113  136.0    0.02378  -21.47669  0.25032 
  -22.39486  0.20378   1.75406     13.82944   1.6996  0.67945  65.43754  0.03159      0.0201  2768.77496   9768.70305  0.92867          2843.7597     18.65004  0.00248  58323.71542  2.99247  13.33489   1065076.18427  45.98372  17.75841  58456.28906     51.4413       44.19711   99.00949  131.38546  122.0    0.01824  -21.47775  0.81501 
  -21.02944  0.35931   4.84469     14.11682   1.8303  0.44631  56.59325  0.02683     0.01985   2321.9975   9546.97033  3.87458         3639.56792     18.17516  0.00083  58325.08084  1.82018  20.33463   2329281.73536  44.79361  17.76783  58456.28906    51.43643       44.20203   99.00949  131.38546  140.0    0.02181  -21.49447  0.28149 
  -16.38745  0.35295   3.76178     13.67545  1.51202  1.48599  59.99338  0.02442     0.32125  2338.89466   9793.98187  4.70702           3364.393     19.81828  0.03656  58329.72283  1.95773  21.17459   8856411.25607  44.35036  17.75809  58459.22145    51.48473        44.2581   95.56909  130.59253  138.0    0.02378  -21.53743  0.32637 
  -16.89914  0.37333    4.5493     13.85822  1.68069  1.17538  66.83148  0.02431     0.10903   2640.9204   9634.50707   4.4435         3200.08161     19.76921  0.03265  58329.21114  2.78047   24.9503   6205268.41004  44.38568  17.75444  58459.22145    51.53283       44.31147   90.43336  128.17583  136.0    0.02083  -21.55077  0.24946 
  -18.06202  0.39755   5.30072     13.94281  1.79591  1.29538  65.52341  0.02181     0.02326  2263.79532   9951.62464  4.90441         3145.27714     19.37255   0.0131  58328.04826  2.00308  26.04872   6097459.38722  44.28931    17.773  58456.28906    51.48893       44.23969   95.56909   131.9548  140.0    0.02405  -21.47137  0.20632 
  -18.43523  0.29486   2.88135      13.7262  1.64275  1.11685   58.5552  0.03223     0.01208   2481.5747   9950.49287  2.54569          3494.5477     18.11127  0.00072  58327.67505  2.15103  17.26561   4468693.41547  44.91504  17.77838  58454.51245     51.4925       44.28239   90.43336  128.18588  132.0    0.02139  -21.48618  0.53981 
  -18.47993  0.28605   7.71632       13.676  1.73727   1.5171  89.66592  0.01507     0.26591  2330.92292   9191.89556  4.34588         3535.14971     16.31736    1e-05  58327.63035   2.9061  25.64881  42706413.63283   43.1034  17.75255   58462.3125    51.69904       44.53792    76.7334  108.93402  144.0    0.02113   -21.4891  0.08498 
  -15.91334  0.43428   7.96971     13.83048  1.90284  0.98636  57.47641  0.02224     0.17493  2281.08702   9190.36094  4.99145         3540.25186     19.53935  0.01923  58330.19694  1.78402  24.96066  24499103.94273  43.35621  17.75185  58459.22145    51.55304        44.3285    88.8492  126.96598  144.0    0.02178  -21.51938  0.09613 
  -18.82265  0.40374   6.56411     13.97374  1.81233  1.23598  61.01713  0.02302     0.01653  2200.92338   8914.62924  4.99512         3387.11708     17.90331  0.00044  58327.28763  1.76315  24.63532   8183308.12273   43.9798  17.75479  58459.22145    51.51575        44.2865   94.47196  128.17583  144.0    0.02014  -21.46884  0.15115 
  -20.13654  0.30406   3.31476     13.82207  1.37912  0.66285  64.96002  0.02563     0.01439  2312.98321   9268.44417  4.04745         3530.30427     19.71046  0.02852  58325.97374  2.07309   19.7517   3192892.31206  44.86336  17.78709  58456.28906    51.51416        44.2795   97.83205  132.36816  140.0      0.021  -21.51376   0.3696 
  -19.87354  0.21373   3.93589     13.94494  1.62305  0.54247  88.56967  0.01734     0.01233  2311.21006    9025.4919  4.35993         3501.68229     16.02151    1e-05  58326.23674  2.82222  18.93021   3008483.36131  44.81075  17.77545  58456.28906    51.46064       44.22784   95.56909   131.9548  144.0     0.0225  -21.49735  0.35065 
  -18.22155  0.28905   4.39652     13.68357   1.5511  1.21196  72.39741  0.01728     0.03286  2087.43361   8759.70752  4.86124         3498.89533     17.95235   0.0005  58327.88873  1.88181  20.92659  11954618.86035  44.09573  17.77018  58459.22145    51.47643       44.24033   96.92641  133.46854  150.0    0.02687   -21.4958  0.26497 
  -20.15686  0.46605   4.71162     13.91758  1.88005  1.06686   46.3008  0.04252     0.01962  2691.35709   9860.91498  4.77954         3310.42987     17.49039  0.00017  58325.95342  2.00059  21.57829   5664532.14908  44.44351  17.75601  58459.42344    51.48375       44.24095  100.96501  133.27381  132.0    0.02297  -21.51253  0.29688 
  -20.51945  0.43959   4.68596      13.9544  1.91039  0.80375  49.72167  0.02908     0.03146  2141.12624    9912.6658  4.70833         3510.31789     20.05733   0.0634  58325.59083  1.35974  21.85693   4805556.53847  44.52663  17.74996  58467.42122    51.69785       44.51317   77.36703  114.64951  140.0    0.02397  -21.54855  0.29829 
  -18.99635    0.244   2.97976     14.17884  1.79597  0.33347  65.92104  0.02813     0.01423  2705.24133   9296.34188  2.65715         3214.84641     16.36556    1e-05  58327.11393  2.87782  16.08504    649817.22955  45.76199  17.75568  58459.22145    51.51212       44.27021   97.83205  132.36816  136.0     0.0253  -21.49474  0.57223 
  -18.69903  0.34062   4.95248     13.83432  1.70732  1.37983  72.86944   0.0198     0.31532  2386.98567   9717.57351  4.76561         3167.05539     18.67596  0.00263  58327.41125  2.47669  24.82114   8339356.28454  44.19038  17.77746  58459.22145    51.46978       44.23002   96.92641  133.46854  138.0    0.02389  -21.48845  0.22214 
  -17.91654  0.30801   6.18962     14.18137  1.73621  0.57162  82.14938  0.01658     0.01601  2277.95895   9821.50955  3.70776         3504.12155     17.72121  0.00029  58328.19374  2.54286  25.30314   2679237.27152  44.49711  17.77582  58459.22145    51.47675        44.2209  103.04809  135.22932  138.0     0.0258  -21.48043  0.15478 
  -14.91177  0.42489   8.95114     13.90626   1.3636  0.31965  69.20762   0.0178     0.02454  2365.11751   9654.16321  4.52103         3280.30513     19.20875  0.00898  58331.19851  2.30933   29.4057  15621758.37223  43.30605  17.78246  58456.28906    51.49181       44.26341   95.56909  130.59253  142.0    0.02673  -21.48678  0.02576 
