 texplosion  fnickel    Pspin  log(Bfield)      Mns  thetaPB   mejecta    kappa  kappagamma      vejecta  temperature    alpha  cutoff_wavelength  log(nhhost)      A_V         MJD0   kenergy  mnickel            TSD   log(L0)  Peak_mag     Peak_MJD  log(E_rad)  log(Peak_lum)  Rise_Time    E_fold  tau_1  delta_m15     r_peak     frac 
   -5.70614  0.08102  1.25321      14.7744  1.84554  0.92207   3.04548  0.33372     0.34002  21656.91735   4507.31362  1.01851         3623.39397     16.54745    2e-05  59119.79148   8.52071  0.24674     7606.49135  48.45774  19.21078   59141.5446    50.81807       44.41159    8.55781  23.83081   20.0     0.7328  -21.67404  0.99945 
   -7.77827  0.02379  3.93673     14.43817   1.7973  0.63595    2.3413  0.28944     0.01736  13318.01487   3784.53654  3.11266         2995.65409     17.90119  0.00044  59117.71936   2.47721  0.05571   343841.45322  45.79684  19.14446  59147.75723    51.04778       44.56619   11.91541  26.21389   23.0    0.65731  -21.55449  0.99569 
    -7.4593  0.15018  4.76382     14.62993  1.66881  0.43192   1.10086  0.23445     0.07056  13560.86486   7235.11413  1.33702         4026.73237     17.90588  0.00045  59118.03833   1.20763  0.16533   193317.94532  45.84907  19.19713  59144.56112    50.95841       44.45632    10.0634  26.21389   22.5    0.77085  -21.50758  0.97938 
   -6.69197  0.04056  1.89821     14.78474  1.96625   0.8056   3.77864  0.12289     0.06348  13996.41586    8207.4548  0.77084          5037.8726     16.12717    1e-05  59118.80566   4.41567  0.15325    17727.80704  47.75714  19.16786  59145.48961    50.96501        44.5783    9.79399  18.80298   19.0    0.82612   -21.5567  0.99842 
  -11.53399  0.05798  1.28734     14.54481  1.89796  1.09753   3.45748  0.19393     0.45488   16476.8372   9221.28314  0.14065         3228.42626     20.30378  0.11182  59113.96364    5.5993  0.20045    23761.13229  47.95188  19.22917  59143.40564    51.03494       44.64637   11.91541   18.5009   18.5    0.66973  -21.29887  0.99908 
  -12.14489  0.02015  3.99474     14.32351  1.91773  0.30789   2.25117  0.16693     0.01202  13506.05201   3122.02029  2.31177         3194.07417     17.61213  0.00023  59113.35273   2.44958  0.04536   640572.10027  45.54209  19.18557  59148.59376      50.908        44.3199   14.22451  34.84568   27.0    0.60725  -21.52728  0.99655 
  -11.59983  0.12806  4.57992     14.51123  1.61484  0.47365   2.43997  0.24813     0.17791  15698.45976   7200.73648  2.85412          3136.7768     17.67668  0.00026  59113.89779   3.58695  0.31247   298677.14762  45.68005  19.23394  59143.40564    50.93547       44.38269   18.60197  26.67657   30.0    0.49506  -21.49975   0.9627 
  -11.78474  0.24868  5.53016     14.39556   1.8999   0.7095   2.31794  0.25623     0.04957   15332.1297   9127.67439  3.99327         3173.34725     18.51599  0.00182  59113.71289   3.25038  0.57643   872792.03922  45.12119  19.15968  59144.58773    50.71122       44.24706   18.70693  22.33652   23.0    0.55771   -21.5142  0.92406 
   -7.67509  0.04824  3.70607     14.56013   1.9024  1.22198   2.71809  0.18188     0.04501  15428.86659   5054.48284  1.59097          3663.8176     16.97319    5e-05  59117.82254   3.85975  0.13113    183939.5638  46.14564  19.22945  59145.48961    50.96302       44.60452    9.34954  19.06465   20.0    0.77397   -21.4934  0.99198 
   -7.81758  0.07565  2.17259     14.62467  1.55248  0.74869   3.75332  0.09898     0.01395   12365.1807   5270.98952  1.06862         4335.67139     18.49953  0.00175  59117.68005   3.42329  0.28395    38321.82338  47.20247  19.25324  59145.48961    50.98242       44.49925   16.09603  22.03327   18.5    0.91134  -21.43507  0.99277 
  -11.50833  0.31187  3.80629     14.26038  1.80577  1.16817   1.96181  0.16806     0.05708  13747.90127   6608.52814  0.17309          5121.3125      17.6936  0.00027  59113.98929   2.21186  0.61184   732342.78326  45.49979  19.23442  59145.48961    51.27486       44.86985   11.25389  20.31661   27.0    0.57387  -21.46023  0.95776 
   -5.29268  0.11141  0.87235     14.68534   1.6617  0.78847   5.51504  0.27537     0.05567  21962.03952   4017.00113    0.614         4427.60882     16.47989    2e-05  59120.20494  15.86796  0.61441     5001.26315  48.90893  19.26808  59143.40564    50.71092       44.24077   15.86844  22.07807   21.5    0.59212  -21.75993  0.99937 
   -4.41943  0.01615  1.82404     14.24797  1.31866  1.54919   4.65693   0.0761     0.43543  10236.53564   4855.98051  1.06349          5428.9875     16.20019    1e-05   59121.0782   2.91094  0.07519   130037.47573  46.75284  19.22607   59141.5446    50.80768       44.45788    8.55781  21.44773   22.5    0.65308  -21.69547  0.99815 
  -10.34948  0.14737  0.94513     14.90184  2.06812  0.73178  12.96058  0.07991     0.36326  19448.13225    6545.8357   0.3804         3787.55604     17.76279  0.00032  59115.14814  29.24202  1.91005     2695.89396  49.20273  19.20885  59143.44421    51.03515       44.58955   16.68157  21.44773   28.0     0.5529  -21.15262  0.99886 
   -3.06219  0.20817  1.12002     14.74594  1.87882  1.33353   7.14313  0.12237     0.03235  17270.71207   3326.07916  2.19649         3421.00815     19.37766  0.01326  59122.43543  12.70973    1.487     7051.20817  48.59601   19.2319  59141.41823    51.01879       44.70524    8.24769  18.10235   23.5    0.61888  -21.34335  0.99831 
  -10.17852  0.05664  0.91033     14.31311  1.55699  1.13313   7.95616   0.0417     0.33042  11410.58773   7993.71334  0.25976         3812.14988     20.50876  0.17926  59115.31911   6.17941  0.45063    28332.60959  48.09045  19.13394  59143.40564    50.74289       44.43829   12.18567  16.41131   27.0    0.59219  -21.35439  0.99857 
   -5.93172  0.05343  1.05453     14.67878  1.93098  1.35989    9.2094    0.049     0.44002   14507.9027   6749.24875  0.58672         4510.81523      18.1412  0.00077  59119.56591  11.56293  0.49203     8752.73241  48.56636  19.22142  59141.41823    50.89355       44.51564   12.44648  16.68157   19.5     0.8079  -21.41889  0.99942 
  -15.22945  0.32724  4.40124     14.21207  1.92234  1.46485   1.71993  0.22899     0.14269  14793.21882   4434.67954  0.05285          5240.3284     17.59854  0.00022  59110.26818   2.24525  0.56282  1302137.61502  45.15087  19.19885  59143.40564    51.05058       44.71671    7.53383  20.31661   32.5    0.48328  -21.44158  0.95273 
   -8.50211  0.01827  4.85233     14.62214  1.77125  0.56554   1.46192  0.23267     0.11981  12877.29745   9924.06965  2.64716         3200.77346     19.23027  0.00944  59116.99552   1.44611   0.0267   220660.68226   45.8015  19.24501  59144.56112    51.04736       44.56116   16.68157  23.83081   22.0    0.65268  -21.39511  0.99679 
   -6.44081  0.02716  1.39084     14.60153  1.60109  1.03457   7.94063  0.05975     0.14313  13774.84436    7603.1526  1.02452         4274.15505     18.82226  0.00369  59119.05681   8.98784  0.21566    18018.81402  47.93098  19.23351  59143.40564    50.88105       44.26795   20.81739  31.61039   20.5    0.77159  -21.45836  0.99876 
   -9.38842  0.19712  2.48183     14.44547  1.65768  1.18136   5.38379  0.12165     0.29049  12309.19039     9868.481  1.51549         4080.00154     17.16804    8e-05  59116.10921   4.86602  1.06127    121876.5901  46.61288  19.24499  59144.56112    50.71697       44.28556   17.30766  20.36342   25.0    0.47266  -21.48409  0.96611 
   -5.96951  0.04474  1.51596     14.57175  1.55162  0.90568   7.86238  0.06077     0.03599  13304.07948   4051.99423  0.90948         4187.42042     19.74918  0.03118  59119.52812    8.3014  0.35174    23794.53873  47.72178  19.19904  59140.57988    51.00459       44.63014    13.0696   18.5009   21.5    0.68711  -21.45352   0.9967 
   -8.07643  0.01415  4.14626     14.43993   1.6154  0.89446    2.2694  0.19002     0.04164   11187.0978   5821.31157  3.76971           3408.517     18.74007  0.00305  59117.42119   1.69423  0.03211   340054.95097  45.71026  19.13932  59141.41823    50.89724       44.44916   12.44648  19.06465   25.0    0.57524  -21.44963  0.99678 
  -10.40026  0.02791  4.94698     14.36944  1.55907  0.55541   1.92745  0.19554     0.22719  13308.83784   7706.84223  3.64891         3341.08444     19.06409  0.00644  59115.09737   2.03653  0.05379   646380.77279  45.26254  19.20852  59144.56112    50.93917       44.56505    8.55781  19.06465   32.5    0.50733  -21.47904  0.99181 
  -11.20931   0.0243  3.61056     14.07387  1.75532   1.0421   3.67346  0.06211     0.17609  11434.29454   4769.51386  0.41768         3581.39592     19.85091  0.03941  59114.28832   2.86498  0.08927  1512072.68111  45.21848  19.21594  59146.59011    50.83753       44.35852   13.06896  27.44342   54.5    0.32309  -21.51034  0.99393 
   -7.30873  0.04635  1.73032       14.665  1.75372  0.58943    5.8301  0.09861     0.25724  13910.62487   8946.03476  0.36456         3977.91367     17.14025    8e-05   59118.1889   6.72971   0.2702    22804.73371  47.67852  19.25043  59144.56112    50.81505       44.34566   16.68118  23.56055   21.0    0.59978  -21.54482   0.9964 
   -6.36422  0.32071  3.55876     14.92243  1.77075   0.3741    2.8415  0.10387     0.28188  14570.30911   5240.17489  0.98365         4225.09189     16.31061    1e-05  59119.13341   3.59842  0.91129    29764.71272   46.9407  19.07172  59148.59376    50.99107       44.47551    17.5821  25.31336   23.0    0.84727  -21.52051  0.94538 
   -5.97295  0.20031  2.01344     14.92763  1.64014  0.38256   4.33699  0.07927      0.2515   13683.3905   3551.83573  0.62543          5569.8518     16.43437    2e-05  59119.52468   4.84398  0.86876     8616.26372  47.94053   19.2347  59143.44421    50.98833       44.54123   15.45268  19.06465   21.0    0.85721  -21.51848  0.98386 
   -6.09461    0.058   1.2093     14.70159  1.79975  1.02792    3.1956  0.10781     0.12232  11903.63255   7504.38772  0.87186         5078.80551     16.59686    2e-05  59119.40302   2.70109  0.18534     9658.64299  48.37407    19.137  59147.75723    51.02562       44.57726   11.91541  23.83081   17.5    0.87461  -21.78434  0.99957 
   -5.80001  0.04499  1.34319     14.56408  1.41835  0.78278    1.6288  0.30107     0.45271  13444.69175   4229.94917  0.82319         5929.60667     19.10311  0.00704  59119.69761   1.75629  0.07328    17689.29014  47.91664  19.17224  59143.40564    50.80197       44.47447   13.60003  15.52802   20.0    0.75842  -21.68981  0.99942 
   -5.40302  0.04734  2.39409     14.85221  2.00789  0.60196   3.71122  0.09988     0.34388  12403.30229   5700.22558  1.02131         5935.84893     16.50625    2e-05  59120.09461    3.4058  0.17569    21106.11141   47.4889  19.20993  59143.44421    50.87677       44.53386    8.55781  19.06465   20.0    0.81474  -21.75353  0.99638 
   -7.56803  0.17867  4.89217     14.56262  2.11752  0.96031   1.31828  0.31661     0.03423  15468.85123   8599.18466   1.7596         3010.79246      18.1985  0.00088  59117.92959    1.8817  0.23553   352694.55949  45.66827   19.2281  59139.44645    51.04316       44.75083    7.68032  15.55051   17.0    0.99766  -21.43169  0.97848 
    -7.5015  0.00702  3.89169     14.40808  1.50141  0.50349   1.79723  0.33667      0.0146  13928.11427   9457.29375  2.93504         3612.03366     18.80747  0.00357  59117.99613   2.07978  0.01262   322428.44941  45.75664  19.19492  59140.57988    50.85594       44.58042    10.0634  16.28664   18.5    0.84469  -21.56431  0.99874 
   -6.17199  0.03357  0.70932     14.73449  1.68127  0.63078    15.607  0.07294     0.22757  14908.17474   9238.78558  2.47916         2412.04217     19.52458  0.01859  59119.32564  20.69167  0.52399      2667.8353  49.36664  19.13262  59148.59376    51.02785       44.47211   12.44648  28.59697   23.0    0.30507   -21.6943  0.99973 
    -5.2417  0.47085  1.36151      14.6539  1.67322  1.13365   2.30727  0.17876     0.24394   16250.5178   9284.64605  0.66602         5881.75139     17.06815    6e-05  59120.25593   3.63463  1.08638    14177.67017  48.07275  19.18644  59143.44421     50.8477       44.36871   16.95183  23.56055   17.0    0.96761  -21.69691  0.99565 
   -3.29695  0.31689  0.98874     14.74316  1.65339   0.8968   1.89821  0.26083     0.07744  17112.62616   7673.94803    0.666         5969.37019      18.6738  0.00262  59122.20068   3.31593  0.60153     4898.27201  48.80701  19.17958  59143.40564    50.77577       44.36711    17.5821  20.54719   16.5    0.96261  -21.65835  0.99935 
   -8.85887  0.06097  1.08642     14.62865  1.59039  0.68719   8.69654  0.04458     0.31076  10229.21375   9276.25498  1.07909         4034.58896       20.437  0.15196  59116.63876   5.42823  0.53019     9638.65971  48.41434  19.21931  59143.44421    50.73306       44.34683    8.35777  22.67726   23.0    0.59088  -21.37935  0.99816 
   -9.31759  0.00285  1.67781     14.44876  1.63254  1.39571   4.11555  0.11952     0.32645   9476.06903   6657.27289  1.82929         3607.35689     19.87216  0.04139  59116.18003   2.20451  0.01173    54030.69642  47.29959  19.22295   59141.5446    50.96988       44.64057    9.53232   18.5009   26.5    0.46641  -21.22929  0.99985 
   -4.70189   0.0532  1.76458     14.72074  1.44694  0.55906   2.95948  0.24868     0.24164  16646.99341   4577.13382  1.38086         3724.48697      18.5939  0.00218  59120.79573   4.89231  0.15744    15138.02167  47.75594  19.19499  59144.56112    50.95638       44.47588   13.60003  20.29418   21.5    0.66313  -21.52197  0.99744 
   -3.81787  0.05884  0.93761     14.78215  1.64797  0.77844   4.83642  0.22912     0.31083  19556.35551   6027.57961  1.70671         3848.09545     17.63353  0.00024  59121.67976  11.03385  0.28458     3668.65295  48.97724  19.30894  59144.56112    50.91986       44.47962   14.29849  21.44773   22.0    0.65141  -21.55004  0.99974 
   -8.82961  0.10389   2.5463       14.553  1.75665   0.7797   4.57118     0.06     0.09822  12968.46511   7862.59735  0.35352         5834.89669     19.18014  0.00841  59116.66801   4.58599  0.47492    82856.67919  46.78338   19.2703  59145.48961    50.83561       44.30639   18.44192  26.83662   24.0    0.73409  -21.46195  0.98486 
  -13.57305  0.13434  2.12104     14.34246  1.39818   0.8255   3.38006  0.26326     0.03198  15835.67622   7289.66439  0.99043         2718.23027      18.5999  0.00221  59111.92458   5.05621  0.45407   120659.78366  46.67975  19.20336   59141.5446    50.93416       44.52895   11.91541  21.44773   21.5    0.61729  -21.30613  0.98571 
  -10.23543  0.07901  4.93378     14.30654  1.74423  0.93054   2.37204  0.14262     0.01228  12243.33946   6192.15696  2.20487         3512.05623     18.31974  0.00116   59115.2622   2.12104  0.18742    960946.6614  45.14139  19.26833  59143.40564    51.03795       44.67146   14.29849  16.68157   20.5    0.84337  -21.40548  0.97652 
   -9.44742  0.09289  1.44138     14.55344  1.73054  0.88829    4.4618  0.09636     0.10727  12187.31852    7887.1758  0.38314         5683.01361     18.59128  0.00217  59116.05021   3.95324  0.41444     26101.6718   47.7728  19.17645  59146.59011    50.97217       44.41705   18.73629  25.31336   23.0    0.63075  -21.36648  0.99675 
    -5.2859  0.08009  0.83909     14.70652  1.73233   0.9507  10.27433  0.12283     0.05371  21751.63656   7651.32206  0.82603         3325.66454     18.34505  0.00123  59120.21173  28.99777  0.82292     4375.46836  49.01884  19.19456  59144.56112    50.79934       44.32803    16.5823  22.07807   20.5    0.61222  -21.62233  0.99949 
   -2.61162  0.03882  0.70573     14.86504    1.966  0.87614   7.43199    0.184     0.27862  25826.87587   5914.75904  0.85953          3207.6782     18.55611    0.002  59122.88601  29.57168  0.28853     1692.77583  49.63655  19.28861  59139.44645    50.78678       44.32651    10.0634  26.21389   20.0    0.70258  -22.33425  0.99995 
  -10.94883  0.15021  3.78779     14.21827  1.64037  0.82989   2.08516  0.30015     0.02273  15940.92789   5386.38142  4.91491         2054.39418     17.82015  0.00037   59114.5488   3.16077  0.31321   799810.92794  45.42403  19.13942  59143.44421     50.9766        44.6488    7.14924   18.5009   22.5    0.71549  -21.47957   0.9747 
   -6.38122    0.066  1.01297      14.6781  1.69736  1.08587   3.78699   0.3164      0.2254  23874.21604   7341.78457  3.32746         2443.24141     16.82622    4e-05  59119.11641  12.87595  0.24996     7121.79055  48.63484  19.20001     59140.59    50.69577       44.23649    15.7301  21.94098   19.0    0.61553  -21.53233  0.99969 
   -8.57084  0.15227  3.07164     14.46995  1.50588  0.53205   1.27953  0.31881     0.41371  15171.28576   5178.01054  0.48383         5041.96681     20.21261  0.09064  59116.92678    1.7568  0.19483   151509.16367  46.29146  19.24196  59147.75723    51.05566       44.47776   14.29849  28.59697   27.0    0.62182  -21.69451  0.98819 
   -8.78624  0.01348  4.07664     14.65273  1.78319  0.47366   2.02473  0.16423      0.1788  14263.98665   4163.78587  0.77739         3900.35772      19.6933  0.02742  59116.71138   2.45741  0.02729   136193.04056  46.16528  19.22893  59143.44421    50.89745       44.41842   16.21889  23.30419   27.0    0.64695  -21.49388  0.99771 
   -4.35126  0.48161  1.08364     14.75047  1.85741  1.03301    2.8937  0.25682     0.17313  18400.16301   7082.41626  0.71374          4418.3948     17.55898   0.0002  59121.14637   5.84419  1.39363     6390.71679  48.66243  19.21388  59148.59376    51.02717       44.50873   11.91541  28.59697   20.5    0.72261  -21.57505  0.99828 
   -9.70398  0.28061  3.11541     14.64196  1.82213  0.67324   2.30596  0.23118     0.05723  16196.99025   8483.41472   0.5628         4200.22776     18.03603   0.0006  59115.79365   3.60867  0.64707    85408.64842  46.61089  19.20493  59143.44421    50.86953       44.49506   14.26412  19.63009   19.0    0.76491  -21.50902  0.97076 
   -4.68181  0.25822  0.76064     14.92887  1.97146  0.66899   6.52746  0.26612     0.01221  20332.95316   9035.98523  1.82022         3881.21779     16.90019    4e-05  59120.81581  16.09801  1.68552     1469.63052  49.63407  19.16686   59141.5446    50.75919       44.32294   14.82956  21.44773   19.5    0.65219  -21.81637  0.99956 
   -7.54049  0.00413  2.20626     14.22285  1.42534  1.24219   3.34469  0.05714     0.12902   7894.05588   3724.56321  0.97881         4787.01124     20.09655  0.06939  59117.95714   1.24332  0.01381   230862.70462   46.3721  19.22538  59144.56112    50.81431       44.35597    17.5821  21.94098   27.5    0.62971   -21.4866  0.99953 
   -6.39747  0.16147  1.32386     14.83458  2.04526  0.79693   2.55194  0.31409     0.03678  21324.61547   3143.47004  0.09331         3944.12709     17.01095    6e-05  59119.10016   6.92246  0.41206     7129.86651  48.48283  19.14173  59145.48961    51.04582        44.6178     12.752  21.14221   15.5    1.22701  -21.51274  0.99895 
   -8.84525  0.02068  3.48658     14.41621  1.77595   1.0538    3.0334  0.09803     0.04456  12501.90309   6445.95271  0.70106         4265.33363     16.76138    3e-05  59116.65238   2.82819  0.06273   294870.06681  45.96385  19.20094  59140.57988    50.73841       44.35852    7.14924  23.83081   24.5     0.7034  -21.43792  0.99616 
   -8.94737    0.019  1.41937      14.5827  1.50916  0.74307   4.06986  0.26987     0.03036  19387.35474   7818.71829  1.93095         2799.61114     20.21114  0.09034  59116.55025   9.12523  0.07733    19289.92906  47.85806   19.1241  59146.59011     50.8391       44.38343   11.32987  24.41635   18.5    0.76838     -21.48  0.99931 
   -7.49664  0.42777  2.41097     14.62663  1.54453  0.53903   2.21113  0.09397      0.0359   8462.45215    6923.1381  1.06602         5776.23834      19.8296  0.03753  59118.00098   0.94457  0.94586     46531.0757  47.02552  19.18487  59146.59011    51.06729       44.53319    9.99001  23.83081   24.5    0.68692  -21.64874  0.96781 
    -7.4324  0.04548  3.23948     14.36433  1.72791  0.90131   2.51304  0.29122     0.01112     15218.57   8142.40104  2.15025         2746.33676     17.18131    8e-05  59118.06523   3.47196  0.11429   314500.38034  45.98779  19.21584  59145.48961     51.1014       44.78687   12.70815  15.85615   19.5     0.7862  -21.46017   0.9937 
   -6.65897  0.24829  1.48541     14.64485  1.85489  1.12206   5.24788  0.22831     0.01353  18839.67942   4942.59446   1.4391         3501.98362     17.12276    7e-05  59118.83866  11.11113    1.303    19503.75449  47.90335  19.16881  59143.40564    50.79045       44.49908   14.17063  14.88403   20.5    0.88004  -21.65888  0.99293 
   -4.65319  0.21703  1.16658     15.06238  1.75498  0.37768   5.58156  0.16159      0.4475  19681.85132   6998.90935    0.693         3406.26144     18.85108  0.00394  59120.84444  12.89777  1.21139     1663.98179  49.15814  19.26881   59141.5446    50.94298       44.58024   14.29849   18.5009   20.5    0.72821  -21.68249  0.99748 
  -13.54701  0.01996  4.04897     14.11947   1.8848  1.15629   1.91204  0.17195     0.02715  13070.79442   4829.14889  0.70891         2458.44621     17.13465    8e-05  59111.95062   1.94863  0.03816  1655157.08774  45.11058  19.23076  59139.44645    51.01653       44.66823    8.24769  18.49727   27.0     0.5905  -21.44288  0.99706 
   -4.10621  0.07586  2.21055      14.6368  1.84822   0.9844   7.32946  0.05013     0.05151  12510.67839   4950.48359  0.97062         4472.08493      19.5734   0.0208  59121.39142   6.84323  0.55599    44665.92216  47.19662  19.22704  59139.44645    50.83792       44.42291    10.0634  21.44773   21.5     0.7431   -21.5366  0.98921 
  -11.00814  0.06151  4.73025     14.02423  1.67832  1.28689   1.74063  0.13495     0.02259  12203.31639   3722.69058  2.08839         3317.68989     17.59642  0.00022  59114.48949   1.54628  0.10707  3118932.18886  44.64995   19.1858  59144.56112    50.89662       44.42589    9.53232  27.60768   25.5    0.67846  -21.44048   0.9866 
  -11.60646  0.23105  1.11797     14.49337  1.63767   0.9912   6.86637  0.08222     0.11178  10238.99582   6048.93137  1.10797         3110.73917      18.3988  0.00139  59113.89116   4.29407  1.58649    19595.98702  48.09405  19.21171  59145.48961    50.97731       44.42592    13.0696  28.59697   36.5    0.38548  -21.03513  0.99374 
  -13.08006  0.39669   3.7577     14.32032  1.69351  1.11822   7.17392  0.02433     0.10652   8777.64019   5998.04223  0.93827         4230.06079     18.69815  0.00277  59112.41757   3.29716  2.84582   507927.65384  45.64199  19.16333  59147.75723    50.96482       44.53227   10.94089  23.83081   57.5    0.45046  -21.30226   0.8201 
  -10.13733   0.0929  3.42002     14.33759  1.68922  1.13453   8.38117  0.02185     0.03925    9451.4794   5976.01294  0.87508         4188.05132     18.75615  0.00317   59115.3603   4.46613  0.77859   387600.55034  45.84009  19.18499  59141.41823     50.8661       44.46536    10.0634  21.44773   36.0    0.59185  -21.31197  0.95261 
   -7.46373  0.00673  3.61823      15.0244  2.01601  0.26934   3.53961  0.05971     0.03698   9779.86589   3074.62118  0.93583         5188.52318     19.16354   0.0081   59118.0339   2.01952  0.02382    21903.21585  47.11584  19.25501   59141.5446    50.90615       44.64071    7.14924  16.28664   25.0    0.68384  -21.53952   0.9987 
   -8.97853  0.04272  3.11136     14.46572  1.38851  0.59243   1.68058  0.28145     0.12748  18006.10657   3641.87232  0.51939         5745.73136     20.07834  0.06654   59116.5191   3.25031   0.0718   146160.33379  46.26066  19.20067   59141.5446    50.96559        44.5927   11.91541   18.5009   20.5    0.79453  -21.71219  0.99494 
    -4.1462  0.25229  1.00381     15.05965  1.91301  0.41243   4.48022  0.33989     0.02391  23243.82284   9230.65976  1.19382         3074.93627     17.30696  0.00011  59121.35143  14.43915   1.1303     1359.99737  49.41373  19.22416  59143.40564     50.8054       44.47191   14.24402  17.26711   15.5    0.87113  -21.85803  0.99886 
   -8.14303  0.08083  2.40299     14.28618  1.36456  1.41325    2.3641   0.2194      0.4313  15724.29682   4879.58191  2.27208         2271.28222     18.92011  0.00462   59117.3546   3.48687  0.19109   195863.97176  46.35038  19.19213   59141.5446    51.04054       44.65913   13.95605  19.06465   23.5    0.64108  -21.41205  0.99199 
   -7.52437  0.03186   3.5819     14.37036  1.63397  1.25365    2.1053  0.19824     0.37541  15539.94061   3393.22832    2.028         2680.77047     16.95908    5e-05  59117.97326   3.03277  0.06707   353646.36345  45.82529  19.20761  59143.40564    50.91377        44.6136   12.22093   15.8123   24.5     0.6887  -21.44145   0.9951 
   -1.40218  0.00355  0.92887     14.67083  2.02069  0.84049   1.63616  0.32947     0.10258  19101.31183   3099.60955  4.24361         2326.10649     21.09157  0.68596  59124.09545   3.56105   0.0058     7371.45568  48.77089  19.20918  59143.40564    50.71938       44.28317    19.5885  19.69499   19.5    0.73455  -22.19142  0.99999 
    -7.0737  0.00428  4.48787     14.61872  1.56762  0.48345   1.73607   0.2936     0.28418  12584.31353   9124.63719  4.10164         3684.75136     17.78746  0.00034  59118.42392   1.64004  0.00744   169706.93442  45.93031  19.20001  59143.40564    50.88841       44.53669   11.91541  16.68157   25.0    0.56049  -21.53182  0.99908 
   -9.88331  0.16446  1.18744     14.49861   1.5887  0.95234   3.40222  0.25981     0.02679  16130.92734   6426.87813  0.39392         3304.29961     16.44203    2e-05  59115.61431    5.2809  0.55954     20934.6536   47.9998  19.18162  59145.48961    50.99318       44.58324   11.91541  21.44773   20.0    0.75885  -21.30425  0.99721 
   -6.81128   0.1057  3.22695     15.09103  1.84568  0.25015   1.89993  0.25187     0.15228   17826.7532    4031.6494  0.45159           5971.795     19.45009  0.01566  59118.68634   3.60171  0.20082    11735.48528  47.44792  19.16681  59143.44421    50.73495       44.22096   17.30766   23.7358   19.5    0.87588  -21.64979  0.99031 
    -7.7553   0.2078  2.79857     14.38686  1.68667  1.01733   2.46955  0.18447     0.30875  14228.85181   5326.52372  0.67832         5464.59708     20.35074  0.12459  59117.74233   2.98253  0.51316   206536.91402  46.28701  19.11179  59143.44421    50.94497       44.41008   14.33336  25.90837   25.0    0.66121  -21.79512  0.97867 
   -13.5143  0.24055  3.84472     14.43725  1.15903  0.24443   1.61844  0.30579     0.40364  16792.78007   7288.73326  2.60552         3294.61758     17.89075  0.00043  59111.98332   2.72251  0.38932   212396.14905  45.83606  19.21134  59143.44421    50.93349       44.56432    8.55781  21.44773   36.0    0.46031  -21.55244  0.94637 
   -8.71653  0.05312  3.90552     14.34768  1.20488  0.32787    1.2951  0.31962     0.04979  15826.97611   9594.33878  4.79133         2913.94055     19.24818  0.00984  59116.78109    1.9352  0.06879   344158.27901  45.62967   19.2081   59141.5446    50.73521       44.28623    15.7301  21.94098   19.5    0.72151  -21.52237  0.99036 
  -10.98066  0.25065  3.84172     14.40154  1.82251  0.89717   1.66563  0.18169     0.10766   14823.5151   6863.49921  0.65854         3910.75216     20.31943  0.11592  59114.51696   2.18328   0.4175   393052.63007  45.76601  19.24863  59143.44421    50.81979       44.25336   19.06465  26.21389   26.5     0.6676  -21.57137  0.97073 
   -8.03055  0.37948  3.01396     14.60599  1.61603  0.74371   3.51075  0.09168     0.07002   9924.66403   7572.20125  1.50628         4548.49953     19.20305  0.00887  59117.46707   2.06281  1.33226    83668.38457  46.59646  19.20552  59148.59376    51.20672       44.67498   16.60623  24.07105   26.5    0.60065  -21.49882  0.93575 
     -5.998  0.08625  1.60692     14.73828  1.88898  0.83857   4.36998  0.12482     0.14443  14921.11355   8047.87877  0.64122         4332.96212     16.30587    1e-05  59119.49963   5.80375  0.37689    15117.42857  47.95361  19.14551  59147.75723    51.09548       44.67389   12.44648  19.06465   19.5    0.72223  -21.44094  0.99743 
   -6.30237  0.03066  1.17101     14.75358  1.84444  0.70523   5.45206   0.3247     0.03146   20510.3898   8565.78911  1.27857         3312.27736     17.37859  0.00013  59119.19525  13.68156  0.16715      7305.3326  48.53395  19.11782     59140.59     50.9121       44.54746   11.91541  16.11782   20.5     0.5299  -21.63185  0.99955 
   -9.38705   0.1097   2.4855     14.41887  1.64944  1.07662   3.27398  0.32637     0.02359  14925.80661   6593.15717  2.70554         2960.73033     18.78949  0.00342  59116.11058   4.35089  0.35914   137479.02554  46.55712  19.23594   59141.5446    50.97308        44.6257    8.55781  16.68157   23.0    0.58182  -21.42002  0.98795 
   -9.60792  0.11624  3.52942     14.24398   1.5998  0.95691   1.99105   0.2705     0.22553  14062.41655   4126.19084  0.69755         5075.19698     18.05011  0.00062  59115.88971   2.34871  0.23144   601622.16197  45.59818  19.21481     59140.59    50.93781       44.63419    7.53383  18.10235   30.0    0.48711  -21.70942  0.98309 
  -11.30217  0.09026   3.5305     14.32284  1.61085  0.89887   2.07461  0.17685     0.25154  13327.68255   3488.60432  0.43666         5044.20726     17.55872   0.0002  59114.19545   2.19823  0.18726   421569.97323  45.75536  19.18729  59143.44421    50.93204       44.56694    8.55781  19.06465   30.0    0.56244  -21.45647  0.98644 
    -9.7336  0.13569  0.77941      14.6782  2.15973  1.04093   5.86386  0.24794     0.01542  17957.04734   9701.45221  0.09717         3446.61197      16.9619    5e-05  59115.76403  11.27927  0.79564      5362.2237  49.09037  19.11497   59141.5446    50.93544       44.57818   10.94089  16.68157   16.5    0.68906  -21.26368  0.99963 
   -8.15034  0.26197  4.27283     14.80451  2.05064  0.39937   1.57608   0.3336     0.02356  15992.51484   9441.25022  0.80814         3944.25151     18.20269  0.00089  59117.34729   2.40458  0.41288    85531.33074  46.38718  19.25263  59141.49296     50.7543       44.43044   13.60003  15.52802   16.5     0.9796  -21.52829  0.97004 
   -5.94537  0.16037   1.6229     14.78044  1.73002  0.68219   2.36824  0.33467     0.15351  23347.80904   7296.52665  0.09995         4172.16675     17.19292    9e-05  59119.55225   7.70096   0.3798    11629.60353  48.02075   19.1347  59143.40564    50.67784       44.30042   16.58991   17.3043   16.5    0.97193    -21.564  0.99695 
   -8.30667  0.01436  1.51479     14.84835  1.71923   0.4852  10.04759  0.03082     0.33047  12857.63806   3529.02069  0.54566         5047.92623     19.66156  0.02549  59117.19096   9.90858  0.14425     7364.81385  48.27631  19.24538  59148.59376    51.01428       44.49701   11.73262  28.59697   19.0    0.85449   -21.4631  0.99889 
   -8.62387  0.05847  3.17808     14.53476  1.70985  0.71528   1.94958  0.23528     0.02018  17248.47265   7674.66257  0.33229         4988.87413     17.98286  0.00053  59116.87375   3.45995  0.11399   136639.10867   46.3619  19.17175  59141.41823    50.93699       44.61164    8.55781  16.28664   15.5    1.21522  -21.51355   0.9939 
    -8.7971  0.11184  1.28301     14.52051  1.79074  1.21213  11.15614  0.09881     0.11706    14707.194   6929.93082  0.69929         4348.19252     17.63858  0.00024  59116.70053  14.39464  1.24765    24905.06911  47.90913  19.16045  59141.41823    50.90057       44.54315    9.53232   18.5009   29.0    0.42674  -21.50114  0.99411 
  -17.84254  0.08393  2.96799     14.56351  1.20388  0.16125   0.97418  0.33262     0.12582  13898.48158   7659.43559  0.09693         2312.95041     17.22385    9e-05  59107.65509   1.12254  0.08176    73502.13795  46.53821  19.19118  59143.40564    50.87957       44.58378    7.14924   18.5009   29.5    0.44875  -21.47767  0.99338 
   -6.03372  0.00109  0.70341     14.76483  1.76431  0.71192    8.1563  0.10226     0.31916   22641.2011   5091.84493   1.1174         2143.78466     20.55918  0.20133  59119.46391  24.94132  0.00893     2394.17586  49.44184  19.28321  59141.41823    50.77413       44.34831   14.24402  19.65019   17.5    0.91153  -21.63798      1.0 
   -8.41236  0.17463  4.25836     14.37759  1.64825   0.8955    1.8105   0.1252     0.08796  12459.59801   3344.08456  1.11375         3771.98193     18.47567  0.00166  59117.08526   1.67661  0.31617   487682.27788  45.53925  19.17513  59143.40564    51.00423       44.66836    6.74211  18.49727   28.5    0.67542  -21.41394  0.96836 
   -8.34587  0.00151   3.8925     14.47116  1.59766  0.65274   1.91861  0.24551     0.01214   8231.34694   7330.74342  4.40954         3613.01107     18.64253  0.00244  59117.15176   0.77545   0.0029   256700.13668  45.88245  19.14629  59146.59011    50.80952       44.37995   18.70693  19.95344   23.5    0.56656  -21.46736  0.99974 
   -9.57283  0.35963   1.8305      14.5524  1.86407  1.02218   5.62473  0.13819     0.03942  14982.35049   7306.68993  0.33572          4624.5411     16.25309    1e-05  59115.92479   7.53162  2.02283    45562.81622  47.35556  19.15791   59141.5446    50.79643       44.42579   14.24402  17.26711   26.0    0.51204  -21.48311  0.97402 
   -7.26398  0.38686  1.05852     14.73585  1.91365  1.11629    6.2885  0.15313     0.09082  18795.21429   7397.64114  0.90696         3616.36671     19.69684  0.02764  59118.23365  13.25161  2.43274     6720.10724  48.67393  19.21324   59141.5446    50.89292       44.54919    9.53232   18.5009   24.5    0.58843  -21.64017  0.99732 
    -4.8074  0.01822  1.90289     14.41013  1.58092  1.50998   5.80035   0.0714      0.0795  11365.93143   4913.15786  0.88711         5035.26896     17.37041  0.00013  59120.69022   4.46983  0.10569    80405.10193  47.00365  19.22183  59143.40564    51.13859       44.74613    9.05117  20.69999   22.5    0.62919  -21.54731  0.99799 
   -9.70665  0.16009  2.63601     14.49276  1.72206  0.90637   4.06645  0.08559     0.13942  12441.72844   8918.21179  0.49372         4594.48221     18.75064  0.00313  59115.79098   3.75495  0.65099   114877.84512  46.60276  19.17828  59143.44421     50.8206        44.3617    19.5885  21.08878   23.0    0.63843  -21.37105  0.97714 
   -5.60136  0.00722  0.96796     14.53624  1.65276  1.01115   8.16161  0.16198     0.13707  11615.94923    6851.7802  2.47297         3684.47422     16.04299    1e-05  59119.89626    6.5692   0.0589     12169.3164  48.43007  19.24758  59144.56112    50.83929       44.28693   19.59611  26.83662   34.0    0.26441   -21.7958  0.99988 
  -13.69662  0.04627  4.19507     14.50607  1.49561  0.30806   1.65542  0.24171      0.2488  15452.45821   7403.93082  2.48864         2655.67133     19.10376  0.00705  59111.80101   2.35793  0.07659    237673.3694  45.82221   19.2556  59145.48961    50.75682       44.24222   21.71313   24.7196   35.5    0.45507  -21.50726  0.99107 
   -6.12023  0.01736  1.04837     14.71405  1.91352  1.02581   4.13234  0.19328      0.4662  20518.95743   9829.16788  0.03349         2570.99867     16.90818    4e-05   59119.3774  10.37848  0.07173     7287.60346  48.64707  19.19558  59140.57988    50.76996       44.40069   12.44648  19.06465   14.5     0.8966   -21.7919  0.99991 
   -3.85962  0.14356  4.02608     14.72448  1.42999  0.33365    1.4925  0.12441      0.0134   9452.69226   4416.15237  2.01026         3982.52472     19.19876  0.00878  59121.63801   0.79552  0.21426    76550.58893  46.33046  19.20062  59140.57988    50.84407       44.52322    10.0634  16.68157   18.5    0.98051  -21.45107  0.97614 
  -10.07243  0.09531  4.05625     14.75415  2.07417  0.43528   1.50366  0.33074     0.34502  13612.15963   9268.35741  1.46199         2746.39474     19.81555  0.03633  59115.42519     1.662  0.14332    98314.07134  46.37682  19.23606  59145.48961    51.02307       44.61456   15.45268  19.06465   25.0    0.49925  -21.46594   0.9906 
  -11.37182   0.0085  1.74671       14.402  1.78428   0.9179  14.95926  0.01812     0.45573   7831.76963   7183.06513   0.5414          4346.0887     17.43181  0.00015  59114.12581    5.4734  0.12714    79383.80973  47.13614    19.084  59147.75723    50.90117       44.43452   10.94089  26.21389   35.5    0.44832  -21.18339  0.99815 
   -6.08006  0.07081  3.96978     14.63265  1.52969  0.56772   3.42238  0.16019     0.09207  13768.10882   9980.30825  4.39801         3300.30575      17.1604    8e-05  59119.41756   3.86994  0.24235   121522.86989  46.17126  19.07518  59146.59011    51.00582       44.60893   10.68588  20.29418   22.5    0.59678  -21.43154  0.97642 
   -5.27027  0.03592   1.6317      14.7144  1.69608  0.82179    3.1247  0.20158     0.03436  16211.20331   8288.72239  1.22117         3681.60148     17.94158  0.00049  59120.22736   4.89853  0.11225    15622.00954  47.87927  19.21422  59143.40564    51.00577       44.48843    9.53232  26.21389   17.0    0.82505  -21.49604  0.99907 
  -13.90287  0.16591  3.66257     14.16287  1.70627  1.19982   1.76184  0.23672     0.09351  15535.44226     4179.661  0.58011          2601.6772     20.16186  0.08065  59111.59476   2.53654  0.29231  1003915.68139  45.37162  19.23875  59143.44421    50.80755       44.35507    9.77062  24.91908   28.0    0.55696  -21.57328  0.97915 
   -6.97505  0.00128  1.51828      14.6301  1.89023  1.09076   9.50448  0.02731     0.03305   8959.65123   6370.65155   0.9847         5272.54228     19.75169  0.03136  59118.52258   4.55133   0.0122    22224.16769  47.83583  19.27132  59144.56112    51.38489       45.05344    7.89698  18.06786   21.0    0.77592  -21.47263  0.99992 
  -10.43558  0.04238  5.05881     14.17618  1.76314  1.14916   1.42302  0.22061     0.11182  14841.57633   3640.74093  1.28627         3838.06771     17.70495  0.00028  59115.06205   1.86982  0.06031  1861389.94754   44.8372  19.28379  59144.56112    51.00888       44.51998   18.39705  21.44773   29.0    0.56371  -21.54022  0.99201 
  -10.32893  0.09281  3.78583     14.13811   1.5651  1.09011   2.43403  0.30407     0.02034  16542.81474    6611.1006  4.61768         2592.31294     18.49629  0.00174   59115.1687   3.97349  0.22591  1102704.16461  45.26461  19.21002  59146.59011    50.91938       44.45273   10.87447  26.21389   21.5    0.74773  -21.54485  0.98035 
   -1.59206   0.0269  0.95215     14.92542  1.49721  0.46077   6.13793  0.17236     0.02402  20373.00713   6765.61518   2.4691         3265.26756     18.71389  0.00287  59123.90557  15.19706  0.16514     1776.92898  49.23705  19.23354  59141.44442    51.10229       44.71372    8.20804  20.35626   20.0    0.72452  -22.18106   0.9998 
   -6.31994  0.01299  1.05938     14.46552  1.33544  0.94652   3.71232  0.18929     0.08262  20593.31306   9714.36772  1.48611         2339.43246     20.39516    0.138  59119.17768   9.39129  0.04823    16311.86774  48.13186  19.22662  59143.44421    50.81289       44.39769    9.83784  21.14221   15.0    0.83099  -21.67364   0.9998 
   -6.93012  0.15284  0.70419     14.69438  1.81959  1.46522  23.08928  0.03252     0.08357   16992.7012   7400.19488  0.45773         5766.23923     18.52562  0.00186  59118.56751  39.77063   3.5289     3422.93285  49.29904  19.22351  59143.40564    50.79681       44.45196   14.82956  16.68157   29.0     0.5476  -21.55454  0.99922 
   -7.47884  0.14844  3.34459     14.24515  1.81763  1.14546   1.85626   0.1082     0.01914   11168.5313   7818.61355   0.4777         5757.98542     20.20088  0.08823  59118.01878    1.3812  0.27555   610530.40694  45.69396  19.18322  59143.40564    50.79534       44.38681   12.17707  21.18606   24.0    0.71643  -21.60496  0.98507 
   -6.89252  0.12134  3.70192     14.23195  1.64089  1.12034   1.99149  0.24025     0.01414  16620.61748   8119.43657  0.60496         4502.59886      18.6987  0.00278   59118.6051   3.28171  0.24164   717539.77657  45.49123  19.25878  59145.48961    50.92012       44.45854    9.53232  21.44773   16.5     1.0724  -21.53715  0.98134 
  -13.72593  0.14132  3.97385     14.38817  2.14825  1.29977   3.19524  0.13891     0.01288  13672.82339   3928.14088  0.24037         5970.69753     18.66448  0.00257  59111.77169   3.56325  0.45154   527221.00001  45.68051  19.22737  59144.58773    50.99541       44.57402   17.83512  20.29418   20.5    0.83299  -21.37835  0.97347 
   -8.76745  0.00104  1.92209     14.39874  1.58272  1.43517   2.32265   0.0881     0.32543   7056.22855    4944.2042  1.34881         4040.33922     18.74783  0.00311  59116.73017   0.68985  0.00242    86555.56797  46.96341  19.14407  59144.56112    50.94833       44.59078    9.53232  19.06465   23.5    0.64623  -21.23958  0.99995 
   -8.54677  0.00518  2.38222     14.52899  1.73968  1.25097   4.14332   0.1066     0.04093  10298.27262   3012.98631   2.1323          3581.6258     19.08455  0.00675  59116.95085   2.62123  0.02147    80216.28498  46.85109  19.22753   59141.5446    50.79833       44.37456   18.10602  18.79439   24.5    0.56421  -21.35537  0.99943 
   -6.82029  0.38202  0.85788     14.71082  1.99413   1.4691   4.20382  0.31245     0.05959  20883.50603   7206.29361  1.47054         2887.48253     17.04531    6e-05  59118.67734  10.93648  1.60596     5161.60574  48.98897  19.24203  59144.56112    51.12785       44.62886   11.21423  25.68617   21.5    0.61141  -21.58927  0.99929 
  -11.20616  0.07682  1.03337     15.10372  2.08241  0.35239   10.7346  0.15054      0.1908  19329.41384   9504.16345  0.80511         2997.02528     17.56658   0.0002  59114.29147  23.92491  0.82462     1280.74767  49.45143   19.2041  59139.44645    51.13473       44.64827   12.48278  20.31661   27.0    0.37475  -21.06765    0.999 
   -5.10335    0.006   0.7925     14.54813  1.61681  1.13665   6.77362  0.19333     0.17274  22684.68304   6035.03064   1.1729         2034.12138     19.81154    0.036  59120.39428  20.79282  0.04063     7554.41255  48.80131  19.23215  59140.57988    51.05028       44.66824   11.91541  16.68157   20.5     0.6626  -22.10173  0.99997 
   -8.05259  0.11495  1.98889     14.71997  1.81218  0.83274   4.11238  0.13305      0.0896  14073.12646   5321.40788  1.04312         4440.70607     17.29993  0.00011  59117.44503   4.85849  0.47271    24171.32137  47.54652  19.16384   59141.5446    50.98893       44.64628   12.44648  16.11782   22.0    0.69973  -21.46371  0.99331 
   -4.39021  0.16145  0.95728     14.69808  1.72254  1.00134   2.56607  0.14998     0.01184  12857.34765   6911.10917  0.74332         5936.13166     17.78051  0.00034  59121.10741   2.53046  0.41429      5887.1102  48.77303  19.19685   59141.5446     50.8847        44.5123   12.44648  19.06465   15.5     1.1248  -21.48986  0.99958 
   -9.73093  0.10579  2.36714     14.57808   1.5237  0.62607   1.85579  0.30753     0.49668  19211.75949   8598.82406  0.09521         3747.09356     16.70848    3e-05   59115.7667   4.08593  0.19632    55335.37724  46.96029  19.19741  59144.58773    50.80538       44.40075   10.68588  20.29418   18.0    0.80268  -21.47466   0.9933 
   -7.99663  0.35454  4.12017     14.90291  2.06131  0.31325    2.4405  0.23939     0.01317  15711.10722   8536.28814  1.01082         3328.34257     18.34771  0.00124    59117.501   3.59352  0.86527    50812.18259  46.64719  19.29222   59141.5446    50.91487       44.50842   12.44648  19.06465   17.5    0.89102  -21.47259  0.94369 
   -8.99017  0.00872  1.37648     14.84104  1.64711  0.29124   3.67875  0.28922     0.01227  16406.76908   5796.92782  1.12622         3650.60351     20.77787  0.33311  59116.50746   5.90709  0.03209     6025.56376  48.42803  19.23971   59141.5446    50.87746       44.47782   12.70815  18.80298   20.5    0.73241  -21.79381   0.9997 
   -6.69883  0.07641  3.42434     14.28435   1.5004  0.98196   1.69978  0.11528     0.01711  10516.42194   6197.88293  0.84122         5395.08344     18.86468  0.00407   59118.7988   1.12139  0.12988    441027.6326  45.73143  19.18922  59141.41823    51.24963       44.96692    7.20422  16.68157   20.0    0.86031  -21.53002  0.99013 
   -4.23705  0.03652  0.87396     14.62357   1.8523  1.18735   7.83359    0.287     0.02419  25783.93186   6864.69783  1.12231         3273.40637     19.01367  0.00573  59121.26057  31.06605  0.28608     7436.55386   48.7822  19.19339   59141.5446    51.02764       44.67714    10.0634   18.5009   19.0    0.75436  -21.81968  0.99977 
  -11.64188  0.03341  4.42392      14.2038  1.69755  0.99348   1.48963   0.3017      0.0136   9758.16619     3157.393  3.02552          3617.3039     18.66924  0.00259  59113.85574   0.84614  0.04977  1206857.65242   45.1254  19.24916  59141.41823    50.93601        44.4858   11.64476  23.83081   23.5    0.67187  -21.40271  0.99467 
    -3.6875  0.11343   0.7466     15.16561  2.14281  0.54685   2.40994  0.32218     0.07689  16451.39746   5235.17435   2.1608         3741.24991     16.77612    3e-05  59121.81013    3.8908  0.27336      517.30533  50.13991  19.24223  59141.49296    50.86458       44.45792    10.0634  21.44773   21.0     0.6705  -21.67695  0.99997 
  -10.52765  0.15488  4.44505     14.19881  1.55288  0.98352   1.88417  0.22951     0.06055  15100.99731   6090.81778  1.76935         3281.95993     18.83102  0.00376  59114.96997   2.56306  0.29183  1140501.29896  45.10713   19.2167  59143.40564    50.89298       44.57943    9.53232  16.68157   24.5    0.64166  -21.50867  0.96507 
   -8.62657  0.38599   3.5977     14.51441  1.70193  0.79859   3.80761   0.0961     0.11328  11554.33514   6497.59103  0.98825         4577.53883     19.27452  0.01045  59116.87106   3.03228   1.4697    191423.6855  46.10574  19.18181  59143.40564     50.7899       44.34301    9.53232  23.83081   30.5    0.55285  -21.48807  0.90712 
   -9.85034    0.073  3.41202     14.38311  1.81959  1.47886   1.98384  0.27332     0.14284   14510.9273   9094.36529  1.40881         2519.20963     17.32656  0.00012  59115.64729   2.49186  0.14481   336964.15996  45.93521  19.23966   59141.5446    51.07898       44.75619    8.24769  16.11419   22.0    0.54351  -21.36446  0.99187 
  -10.36267  0.21542  4.85978      14.2289  1.65454  1.12116    2.9408  0.12664     0.05469  11540.55965   4234.87133  1.78571         3810.19767     16.81471    4e-05  59115.13495    2.3364  0.63352   1264517.3675  45.01236  19.19311  59143.40564     50.9428       44.48954   14.29849  23.83081   32.5     0.4845  -21.41779  0.92134 
  -10.66694  0.27832  2.69151     14.38018  1.44233  0.82429   2.12803  0.26308     0.06951  16206.54542   4804.11717  2.16005         2178.52764     17.26128   0.0001  59114.83069   3.33415  0.59228   168463.49804  46.34141  19.24334     59140.59    50.70896       44.33783   16.21889  17.14424   22.5    0.62878  -21.42818   0.9714 
  -13.83205  0.03947  4.02641     14.34558  2.11643  1.15528   1.90213  0.16269     0.03593  13648.12285   6709.55456  0.05014         5923.49202     16.04234    1e-05  59111.66558   2.11355  0.07507   648789.72225  45.57251  19.21434  59144.56112    51.10754       44.73475   10.06004  20.35626   24.0    0.67943  -21.38082  0.99525 
  -12.09164  0.02787  3.52873     14.50911  1.52371  0.40817   2.41768  0.24773     0.27495   13619.7266   6629.37294   1.1315         3477.54416     17.11029    7e-05  59113.40599   2.67524  0.06739   168942.38313  46.12877  19.19832  59145.48961    50.88973       44.43393   10.94089  23.83081   32.5    0.43739  -21.51896  0.99464 
    -8.7276  0.03938  3.72318     14.53674  1.94398  0.88141   2.90519  0.28832     0.03356  14551.11965   7275.63967  2.63825         3562.02703       20.149  0.07829  59116.77002   3.66939  0.11439    211275.6932  46.09086  19.17756  59145.48961    50.84798        44.4337    7.20422  23.83081   23.0    0.55431  -21.62225  0.99305 
   -7.75038  0.00308  1.45507     14.56629  1.54418  1.05638   5.29079  0.14313     0.08484  12652.98413   3251.94011  3.20677         3224.46375     16.10338    1e-05  59117.74724   5.05282  0.01631    22371.55238  47.78208   19.2299  59143.44421    50.83829       44.43724   18.03569  18.79439   26.5    0.44118  -21.41617  0.99988 
   -4.60762   0.0235  0.85177     14.54825  1.59717  1.54281   5.74716  0.07677     0.22799  13167.49498    4763.2312  0.78414         4822.28496     16.70482    3e-05  59120.89001   5.94411  0.13507     8615.90155  48.67625  19.20752  59140.57988    50.82419       44.41274    9.53232  23.83081   18.5    0.74696  -21.93531  0.99988 
   -8.33785  0.01766   5.7224     14.51824  1.70292  0.58287   1.38003  0.20287     0.09468  12272.57513   6384.24908  4.55212         3478.22427     18.74546  0.00309  59117.15977    1.2399  0.02437   476090.20862  45.30719  19.15535  59145.48961    51.02897       44.60502     12.752  21.14221   26.5    0.64169  -21.47883  0.99566 
  -10.18607  0.27156  1.22697      14.3616  1.43238  1.15694   5.89979  0.18301      0.3298  14468.48333   3455.74045  1.65116         2505.40928     18.95262  0.00498  59115.31156   7.36733  1.60212    37873.22396   47.6689  19.21638  59143.40564    50.93021       44.52351   12.70815  18.80298   32.5    0.36571  -21.28682   0.9883 
  -10.81557  0.03976   4.7422     14.28656  1.79536   0.9348   2.41038  0.11631     0.05443  11303.10061    3319.7995   1.3064         3816.89783     17.61558  0.00023  59114.68205   1.83699  0.09584  1001857.04592  45.17023  19.13079  59144.58773     50.9198         44.503    7.14924  23.83081   33.0    0.48062  -21.42449  0.98923 
  -10.64172  0.11675  1.36271     14.67655  1.92743  0.73679   5.77281  0.25946     0.09084  19653.13496   9835.83519  0.32336         3033.19991     20.24691  0.09809  59114.85591  13.30081  0.67399     14740.0635  48.11651  19.14964  59143.40564    50.91254       44.52663   11.91541  21.44773   21.0    0.46815  -21.41678  0.99642 
   -7.33928  0.01742  3.79148     14.48474   1.7656  0.77211   2.74126  0.16293     0.03139  15193.88051   5096.77577  1.28229         3625.97087     20.32748  0.11809  59118.15835   3.77498  0.04775   252845.48132  45.95526  19.17794  59143.40564    50.74229        44.2989   10.68588  22.67726   20.5    0.77984   -21.6284   0.9965 
   -8.36376  0.05304   4.7818     14.53916  1.72931  0.67182   1.91494  0.23116     0.09858   15117.8788   6236.18172  2.64382         3460.47493     18.42336  0.00147  59117.13387   2.61074  0.10156   306581.76362  45.66099  19.18565  59143.40564     51.1157       44.75805    10.0634   18.5009   24.0    0.65457  -21.54397  0.98783 
   -4.91612  0.03784  0.83458     14.66306  1.78064  1.02133   7.03129  0.18387     0.18121  19747.24902   6266.60198  0.89089         3798.52574     20.11979   0.0732  59120.58151  16.35593  0.26608     5435.16664  48.94127  19.19454   59141.5446     50.9534       44.59103   12.44648  16.68157   23.5    0.52694  -21.57791  0.99982 
   -4.92997  0.01856  5.53441     14.78606  1.85271  0.42649   2.33465  0.15583     0.08849  12953.02738   4693.16182  3.84921         3487.49588     18.35762  0.00127  59120.56765   2.33664  0.04333   141135.39902  45.90087  19.20866  59143.44421     50.7033       44.25563   15.73564  21.35272   24.5     0.6599  -21.47022  0.99369 
