 texplosion  fnickel    Pspin  log(Bfield)      Mns  thetaPB   mejecta    kappa  kappagamma     vejecta  temperature    alpha  cutoff_wavelength  log(nhhost)      A_V         MJD0  kenergy   mnickel              TSD   log(L0)  Peak_mag     Peak_MJD  log(E_rad)  log(Peak_lum)  Rise_Time     E_fold  tau_1  delta_m15     r_peak     frac 
  -49.89379  0.38881  4.13799     13.29439  1.31477  0.79364  41.01074  0.03025     0.01153  2354.17414   9892.78807  0.35691         2171.63776     17.48098  0.00017  59093.59442  1.35582  15.94544   53883387.05591  43.42266  19.24234  59263.86328    51.35544       44.05608   97.35848  152.12262  134.0    0.01706  -20.70472   0.2088 
  -50.43525  0.27447  4.70481     13.57339  1.72957  0.81011  39.50022   0.0384     0.01229  2531.59477   9944.94651  1.46707         2702.07463     18.35103  0.00125  59093.05295  1.51013  10.84148   25354660.74352  43.75764  19.17517  59258.37257    51.28568       43.95036  109.52829  164.29243  134.0    0.01696  -20.72409  0.36254 
  -42.74725  0.39241  3.95488     13.23544  1.55224  0.82965  33.25415  0.04676     0.01285  2803.71194    9920.8707  1.36109         2154.49568     16.48723    2e-05  59100.74095  1.55934  13.04928   76236054.18565  43.38338  19.21671  59262.23361    51.25779        43.9372  103.44338  164.29243  134.0    0.01868  -20.75028  0.27637 
  -47.75955   0.2659  3.74928     13.34807  1.43098  1.39783  37.29589  0.04903     0.01355  2908.17047   9951.17726  0.57711         2020.45073     16.95255    5e-05  59095.72865   1.8816   9.91703   37601871.77589  43.70138  19.25775  59248.44959    51.26691       43.96861   90.05262  153.34358  134.0      0.023  -20.80475  0.44357 
  -47.56243   0.3269    4.687     13.47789  1.83259  1.51168  30.44812   0.0554     0.01524  2582.03159    9989.4161  1.63508         2640.72692     17.32388  0.00012  59095.92578  1.21091   9.95345   41389759.73367  43.57323  19.20058  59246.50048    51.22093       43.88633   110.9718  162.84892  136.0    0.01817  -20.73985  0.41296 
  -45.90232  0.34988   4.9855     13.45821  1.88873  1.48252  35.86853  0.03394     0.01075  2630.31409   9998.95736  0.40869         2070.30492     17.57475  0.00021  59097.58588  1.48032  12.54962    52842257.3759  43.42662   19.2222  59267.38714    51.30842       43.98373  112.27551  164.58766  130.0    0.02033  -20.74281  0.32386 
  -52.35269   0.2596  4.18261     13.47476  1.68394   1.1217  38.07045  0.03497     0.01076  2440.64533   9876.94021  1.13968         2272.18695     19.13431  0.00757  59091.13552  1.35277   9.88324    30727096.0161  43.76476  19.21216  59250.30035    51.25524       43.95071     93.519  162.04701  140.0    0.01852  -20.70562  0.44744 
  -43.01296  0.27063  5.11054     13.54051  1.86733  1.37167  34.50414  0.04112     0.01568  2486.06288   9962.84362  1.58547         3319.71058     18.31963  0.00116  59100.47524   1.2721   9.33796   37579449.21863  43.54818  19.20565  59255.47389    51.21958       43.90327  103.44338  161.24998  140.0    0.01868  -20.73411  0.39652 
  -56.93056  0.31752  4.26388      13.5284  1.77569  1.16485  29.36684  0.07772     0.01694    2683.959   9890.88371  1.58903         2399.85909     19.51698  0.01827  59086.55765  1.26193   9.32443   26301966.24924  43.83861  19.26339  59258.37257    51.26708       43.96227  100.82617  154.73983  142.0    0.01822  -20.77627  0.48118 
  -37.31196  0.37108  4.94839     13.80561  1.59355  0.42738  30.93616  0.04852     0.03146  2891.93855   9924.56096  2.73294         2376.20123     17.12987    7e-05  59106.17624  1.54338  11.47969    8869358.77608  44.13439  19.21478  59252.48705    51.27838       43.96218  101.99946  159.65145  126.0    0.02323  -20.77748  0.29892 
  -43.76697  0.34465  4.84421      13.3355  1.95301  1.16694  37.37986  0.05539     0.01545  3233.57918   9899.58582    2.183         2158.70896     18.61784   0.0023  59099.72124  2.33148  12.88281   90774370.51355  43.23114  19.21239  59263.86328      51.314       43.99682  103.44338  155.16507  142.0    0.03764  -20.82343  0.28178 
  -46.14044  0.28472   5.0069     13.61099  2.11924  0.98011  32.89797  0.05437     0.01321  2855.12442   9896.19219   3.6435         2285.84034     17.78097  0.00034  59097.34777  1.59973   9.36685   29589995.57632  43.72474   19.2012  59258.37257    51.36595       44.07704   94.48498  148.91121  142.0    0.01939  -20.77977  0.44203 
  -39.84424  0.36095  4.94853     13.31005  1.94756   1.1694  36.32246  0.04202     0.01383   2976.1648   9959.42733  4.00085         2190.85383     17.52641  0.00019  59103.64397  1.91918   13.1105  106208124.62982  43.14323  19.20067  59258.37257    51.28218       43.96038  102.24386   162.4495  130.0    0.02005  -20.80133   0.2542 
   -42.8399  0.30198  4.98705     13.52744  1.74522  0.87261  35.43422  0.03491     0.01042  2341.73433   9964.41975  1.72402         2875.03352     18.57306  0.00208  59100.64831  1.15911  10.70042   35519480.04594  43.56454  19.26944  59257.45174    51.23503       43.90254  109.52829  167.33488  142.0    0.02031  -20.64506   0.3265 
  -45.08063  0.24704  4.46716     13.34243  1.78122  1.41114  43.42012  0.04639     0.01306  3313.69317   9974.20357  1.56755         2430.45948     17.88324  0.00042  59098.40757  2.84409  10.72666   68191765.13864  43.38577  19.15918  59261.36997    51.33043        44.0327   94.95302  151.48563  150.0    0.03916  -20.81117  0.37069 
   -45.5763  0.37606  4.20325     13.52002  1.51708  0.97115  22.05069  0.15337     0.06787  4477.06414   9943.46302  1.30434         3366.64695     17.95607   0.0005   59097.9119  2.63655   8.29232   22695901.54065  43.84673  19.17062  59255.47389      51.237       43.91716  100.40093  167.33488  154.0    0.01669  -20.80212  0.45934 
  -47.51477  0.24985  4.64363     13.49737  1.82271  1.28217  39.46812  0.04497     0.01468  2839.18326   9997.60689  1.26254          2390.0481      17.8494  0.00039  59095.97344  1.89784    9.8613   36940378.92688  43.62835  19.23499  59268.21182    51.28066       43.95489   108.0335  165.78722  136.0    0.02211  -20.77119  0.41995 
  -51.27049  0.23175  3.37242     13.32576  1.25471   0.9553  41.23009  0.03784     0.01204  2711.18614   9996.22075  0.25138         3230.09114     16.23471    1e-05  59092.21771  1.80784   9.55488   29561064.91016  43.84079  19.23421  59261.36997    51.29317       43.97361   106.1906  164.58766  134.0    0.02223  -20.76267  0.45252 
  -45.33149  0.35534  4.80781     13.47826  1.89501    1.453  32.39134   0.0376     0.01561  2748.77164   9984.21903  0.11021         2190.50781     17.28244  0.00011  59098.15672  1.45993   11.5099   44956653.45555  43.52977  19.21842  59254.38278    51.24352       43.90332  118.65564  167.33488  130.0    0.01782  -20.76733  0.37123 
  -37.51029  0.32927  4.39645     13.23632  1.34345  1.37855  37.17501  0.03902     0.01779   2665.7359    9979.5643  0.77178         3324.75465     17.26108   0.0001  59105.97792  1.57584  12.24072   81210141.38335  43.20125  19.21764  59270.70209    51.32303       43.99772  109.93443  160.84383  128.0    0.02203  -20.73246  0.25557 
  -40.20162  0.45229  4.24497     13.47862  1.66941  1.49992  19.09492  0.06811     0.02304   2527.6352   9961.23944  1.44307          2539.8219     18.89103  0.00432  59103.28658  0.72774   8.63653   30823577.66268  43.74678  19.24603  59259.57584    51.25696       43.93741  103.86862  163.86719  136.0    0.02049  -20.71364  0.48126 
  -49.07359  0.41982  4.31238     13.53998  1.75904  0.87761  22.96679   0.0574     0.01477  2470.13114   9966.06673  1.70314         2166.30191      16.9438    5e-05  59094.41462  0.83593   9.64183    25267888.8554  43.84212  19.24126  59254.35462    51.34099       44.05897   88.23112  152.12262  140.0    0.01986  -20.69215  0.44605 
  -47.14258  0.23736  4.52721     13.53537  1.84719   1.0904  42.86282  0.02413     0.01182  2533.31892   9949.67778  0.24204         2624.49858     18.23912  0.00096  59096.34563  1.64092  10.17386   29871257.60501  43.74844  19.18451  59255.47389    51.26878       43.93712  111.55801  165.30516  138.0     0.0189  -20.70518  0.43262 
  -41.03427   0.3291  5.68423     13.76365  1.99762  0.70854  33.52289  0.04345     0.01965  2577.45509   9985.39543   1.0201         3162.17858     16.97358    5e-05  59102.45393  1.32847  11.03233   17798346.02068  43.80963  19.17918  59261.36997     51.2391       43.90965  118.65564  164.29243  130.0    0.02145  -20.73343  0.32619 
  -42.77854  0.27678  4.70798     13.72832  1.99044  0.85656  37.65064  0.01949      0.0104  2326.82896   9995.06894  0.16938         3349.83464     18.20008  0.00088  59100.70967  1.21599  10.42109   14314932.53325  44.06634  19.19955  59244.74084    51.28553       43.94465  115.61319  170.37734  144.0    0.02038  -20.67822  0.45439 
  -49.03448  0.33912  4.30172     13.43234  1.47762  0.89194  37.56213  0.02542     0.01143   2221.8701   9897.49748  1.54893         2379.13293     18.65921  0.00253  59094.45372  1.10615  12.73794   34671750.79978  43.63115  19.20563  59261.36997    51.33424       44.03206   91.27357  155.16507  150.0    0.01852  -20.64953  0.30815 
  -43.93574  0.30476  4.53804     13.40057  1.58829  1.35981    37.011  0.03533     0.01522  2641.43002   9961.07785  1.72788          2269.7802      16.2795    1e-05  59099.55247  1.54041  11.27963   48012013.45701  43.47469  19.19751  59268.33805    51.31697       44.00298  105.28631  153.32215  132.0    0.02152  -20.72623   0.3411 
  -41.99804  0.36818  4.31643     13.46912  1.54992   1.3602  27.58311  0.05897     0.03027  2711.19045   9977.58184  3.54371         2336.96675     18.69875  0.00278  59101.49017  1.20946  10.15543    30912468.1518  43.69877  19.20156  59257.45174    51.33923       44.04461   94.31602  155.16507  126.0    0.01972  -20.79284  0.40543 
  -46.98555  0.35401  4.22035     13.22372  1.49651     1.33  38.39718  0.04805     0.01371  2918.93157   9995.80469  0.50188         2087.84677     17.15215    8e-05  59096.50266  1.95153   13.5928   88337887.50517  43.24708  19.27885  59262.31245    51.30288       43.98757  107.28672  160.44909  132.0    0.02491  -20.80041  0.27033 
  -48.52786  0.32075  4.44421     13.41823  1.61532  1.45716  38.33679  0.03029      0.0155  2573.80249   9955.36994  0.15725         2135.33319      18.0934  0.00069  59094.96034  1.51493   12.2966   43171666.77888  43.54632  19.15547  59264.31639     51.3329       44.03402  103.44338  152.12262  130.0    0.01982  -20.73883  0.34454 
  -52.16287  0.29699  4.18955     13.61521  1.50562  0.67932  31.45491    0.049     0.01403  2385.22705   9984.46339  1.25342         3123.08824     16.67575    3e-05  59091.32533  1.06752   9.34182   14435694.31775  44.04279  19.23385  59253.38681    51.31148       44.02957   85.18867  146.03772  136.0    0.01752  -20.69767  0.42417 
  -41.99593  0.38986  4.61376     13.45637  1.47282  0.77352  33.13764  0.04576     0.01932  2651.86361   9945.97859  1.90721         2395.20588     18.80448  0.00354  59101.49228  1.39012  12.91909   35590118.17459  43.55756  19.23904  59266.31797    51.30682       43.99323  103.64884  154.95962  128.0    0.02034  -20.74598  0.26003 
  -45.05324  0.29972  4.52994     13.50531  1.69295  1.13965  36.54721  0.02782     0.01056  2383.69288   9965.93893  1.42049         2462.22877     18.00426  0.00056  59098.43496  1.23875  10.95396   31479180.47334  43.68728  19.24144  59261.36997    51.28303       43.97746    99.2014  159.40705  142.0    0.02054  -20.69704  0.38515 
  -46.22091  0.28423  4.45911     13.52063  1.63499  1.07522  32.79522   0.0466     0.01555  2486.46229   9965.23736   3.5652         2609.84703     18.76822  0.00326   59097.2673  1.20949   9.32123   27451539.52979   43.7453  19.18033  59266.31797    51.33069       44.02917  104.24427  151.32174  138.0    0.02035  -20.73564  0.42388 
  -45.92245  0.26194  3.73463     13.55192  1.38489   0.7459  32.05808  0.05629     0.01894  2828.42122   9945.00518  2.52573         2594.33287     16.92033    5e-05  59097.56575  1.52986   8.39718   14121363.94628  44.11589  19.18731  59270.70209    51.30731       43.97541  112.57074  161.24998  128.0    0.01866  -20.80533  0.48713 
   -36.9549  0.20259  3.28771     14.05985  1.33426  0.23263  33.43928   0.0436     0.03918    2726.956   9994.34334  1.35843         2118.51588     18.33656  0.00121  59106.53331  1.48334    6.7743    1016591.84902  45.35315  19.19096  59254.38278    51.27463       43.95636  100.40093  158.20753  118.0    0.01913   -20.7625  0.60706 
  -52.55451   0.2648  4.49749     13.57681  1.70021  0.91326  38.90698  0.03648     0.01223   2303.0266   9999.33595  2.31823         2362.59257     17.45181  0.00016  59090.93369  1.23098   10.3027    22420377.0537  43.84277  19.19259  59259.57584    51.27786       43.94961  109.52829  164.29243  140.0    0.01866  -20.67771  0.40815 
  -43.84579  0.23057  3.69233     13.37845  1.47083  0.97779  34.48871  0.03844     0.01002  2638.09084   9927.07548  1.19873         2991.36625     17.04699    6e-05  59099.64241   1.4318   7.95223   32589531.49321  43.78873  19.17172  59259.57584    51.28142       43.96545  102.43066   156.1778  144.0    0.01729  -20.72937  0.50358 
  -40.72545  0.30829  3.90599     13.38733  1.44959  1.34913  28.00829  0.06867     0.02314  3057.40411   9996.24642  0.79424         3008.63456     18.16772  0.00082  59102.76275  1.56178   8.63454   34503985.20597  43.70876  19.17543  59254.38278    51.27376       43.94531  111.57537   165.2878  138.0    0.03032  -20.79854  0.46561 
   -37.5372  0.26681  4.90503      13.6796  1.96594  0.89633  30.33697  0.06159     0.02913  3413.96204   9944.17621  0.85553         3003.39974     18.51296  0.00181    59105.951  2.10919    8.0942   19207315.90366  43.89767  19.26952  59258.32093    51.31453       43.99254  106.48583  158.20753  138.0    0.03925  -20.83473  0.48151 
  -36.15139  0.41385  5.07416     13.37091  1.72083  1.16525  31.14706  0.05691     0.02387  3093.52901   9918.32976  1.98467         2402.75653     16.91627    5e-05  59107.33681  1.77809  12.89035   74552099.07626  43.22139  19.23393  59261.36997    51.30541       43.98352  101.99946   162.6939  130.0    0.02235  -20.81599  0.24912 
  -22.57209  0.26947  5.01369     13.37295  1.62994  1.11735  38.24794  0.02498     0.01203   2752.5021    9934.8517  4.47091         2623.21148     17.70818  0.00028  59120.91611  1.72858  10.30671   68296886.96704   43.2463  19.21591  59258.37257    51.28483          43.96    99.2014   162.4495  142.0    0.02799  -20.69891  0.28735 
  -39.71604  0.30639  4.87908     13.59017  1.68528   0.6374  36.67575  0.05375      0.0178  3137.86737   9979.37327  1.76432         2865.16475     17.15929    8e-05  59103.77217  2.15415  11.23725   24594041.64789  43.72801  19.17493  59265.44266    51.29336       43.97117  106.48583  161.24998  140.0    0.02457  -20.80252  0.30522 
   -39.6464  0.29978  3.80473     13.46886  1.55612  1.55068  22.42917  0.07085     0.03393  2940.10981   9920.34779  0.52009         3319.03816     17.68066  0.00027  59103.84181  1.15656   6.72382   24142730.92405  43.91745  19.23489  59256.31586    51.36953       44.09055   87.76953  149.54176  124.0    0.02251  -20.80782  0.58388 
   -45.0159   0.2849  4.59747     13.52382  1.68526  0.64258  46.26474   0.0289     0.01065  2820.31464   9948.66183  0.93047         2073.94817     16.50011    2e-05  59098.47231  2.19519  13.18076   29639919.24146   43.6986  19.27745  59263.84766    51.30746       43.98211  105.04191   162.6939  128.0    0.02296  -20.77984  0.28331 
  -40.38978  0.34937  4.30633     13.32794  1.49257  1.46469  29.95238  0.08003     0.03965  3710.31356   9990.46144  2.14112         2605.93776     16.18497    1e-05  59103.09843  2.45969  10.46452   56766479.59706  43.42047   19.1847  59261.36997    51.29466       43.95409  112.57074  167.33488  154.0    0.01962  -20.81524  0.35398 
  -46.83806  0.34279  4.78133     13.41174  1.90595  1.21441  30.97056  0.06002     0.01141    2741.693   9962.68834  4.46434         2434.30581     17.28493  0.00011  59096.65015  1.38872   10.6164   60750237.70446  43.40631  19.21083  59262.31245    51.31427       43.99036  102.24386   150.2797  144.0    0.01911  -20.74812  0.36319 
   -35.8185  0.38669  4.24408     13.54405  1.67436  0.84381  19.49457  0.12801     0.05612  4418.19243   9953.07599   1.9916         2564.24249     17.12769    7e-05  59107.66971  2.27002   7.53827   22862736.99203    43.878  19.18521  59262.31245    51.30871       43.99163  102.22684  159.42407  158.0    0.01962  -20.79204  0.50103 
  -41.93154  0.36133  4.68106     13.32984  1.64741  1.37125  31.27693  0.07099     0.02333  3304.97402   9882.61661  2.37707         2542.53488      16.2501    1e-05  59101.55667  2.03792   11.3013   73388852.01837  43.27933  19.10713  59252.29787     51.2851       43.97317  101.68719  159.96372  148.0    0.03034  -20.79065  0.30786 
  -40.76843   0.4487  4.53588      13.5494  1.58717  0.98348   21.4519  0.06675     0.03673  2715.50506    9980.2499  2.53258         2311.32974     17.16765    8e-05  59102.71977  0.94361   9.62541   24152337.53066  43.77319  19.22922  59251.47627    51.35186       44.07486   84.72708  149.54176  126.0    0.01904  -20.72711  0.39875 
  -38.55883  0.31844   4.9548     13.51916  1.68371  0.63684   39.7626  0.04604     0.01515    2997.648   9978.02797  3.94505         2399.33973     17.57952  0.00021  59104.92938  2.13139  12.66189   35140409.99611  43.55925  19.23484  59261.36997    51.32752       44.01989  100.40093  155.16507  132.0     0.0181  -20.79793  0.24667 
  -42.73535  0.39317  4.28505     13.30849  1.38503  1.22116  28.10671  0.05406     0.02101  2775.67328   9970.17009    1.945         3093.64274     19.25782  0.01006  59100.75286  1.29174  11.05071   57043362.83802  43.39019   19.1786  59263.84766    51.30858       43.98086  112.57074  167.33488  134.0    0.02419  -20.80183  0.31359 
   -45.5903  0.33737  5.25492     13.38974  1.98087  1.28983  38.96085  0.04492     0.01111  2752.59114      9974.31  2.41008         2398.27841     17.24862   0.0001  59097.89791  1.76092  13.14429   84395586.72483  43.19825  19.20804  59259.57584    51.26675       43.94223  104.72964  169.09108  132.0    0.01827  -20.77591  0.26372 
   -44.6568  0.28541  4.43112      13.5818  1.81079  0.93964  24.62778  0.06112     0.01575  2612.63823   9975.06339  3.02435         2863.26503     19.04809  0.00621  59098.83141  1.00279    7.0291   22652373.64225  43.87857  19.19991  59266.31797    51.27428       43.95446  109.52829  161.24998  144.0    0.02064  -20.74198  0.53357 
  -47.02643  0.29523  5.17996     13.54883  1.95154  1.12266  39.72953  0.04258     0.01335  2756.15689   9975.03623  2.17974         2060.05289     18.70639  0.00283  59096.46178  1.80031  11.72925   38832371.60248  43.54138  19.20462  59244.74084    51.26508        43.9227  112.57074  176.46224  132.0    0.01946  -20.76918  0.33883 
  -46.22468   0.4298  4.23028     13.07188  1.66081  1.38503  34.97158  0.04355     0.01079   2467.7199   9900.66723  2.76087         2133.13675     18.08263  0.00067  59097.26353  1.27038  15.03073   198201068.8511  42.93932  19.22967  59259.57584    51.29047       43.97856   92.81704  165.79141  130.0    0.01865  -20.71111  0.20214 
  -46.17945  0.31771  4.45068     13.52729  1.65234  0.93363  34.36087  0.04259     0.01455  2483.70885   9913.10049  0.92176         2434.65349     18.45399  0.00158  59097.30875  1.26442  10.91681   26803552.82745   43.7619  19.23631  59274.41084    51.30914       43.99001  112.57074  158.20753  132.0    0.01713  -20.71037  0.38162 
   -36.3356  0.35111  4.91506     13.67326  1.91527  0.70651  22.51643  0.06897     0.02017   3088.3936   9979.23417  1.99091         3373.02506     18.07559  0.00066  59107.15261  1.28113   7.90581   19345396.56003  43.88144  19.17841  59266.27728    51.30816       43.98295    113.857  163.00617  142.0    0.02362  -20.82038   0.4544 
  -51.59795  0.33688   4.8964     13.47196  1.73867  0.99926  41.81527  0.03031     0.01354  2497.93162   9930.46611  1.00141         2048.91368     18.50771  0.00179  59091.89026  1.55641  14.08681   44042169.75047  43.48544  19.20519  59259.57584    51.31782       44.01764   97.08342  155.44013  132.0    0.01635  -20.74068  0.27356 
  -41.06799  0.38574  4.42007     13.71085  1.56486  0.63371  23.82271  0.11559     0.06381  3606.51978   9906.89367  2.78385         2467.02716     17.58876  0.00022  59102.42022   1.8484   9.18948   10750915.96062  44.14102  19.28529  59254.38278    51.32151       44.01755  103.44338  155.16507  150.0    0.01734  -20.79821  0.42393 
  -39.09964  0.41825  4.86424     13.39963  1.70977   1.3414  29.33361  0.04531     0.02242  2785.25643   9980.35016   0.5209         2622.21619     17.70306  0.00028  59104.38857  1.35745  12.26871   59638631.97821  43.35223  19.22509  59268.21182    51.33607       44.01955  103.44338  155.16507  128.0    0.01957  -20.75656  0.29923 
  -58.24528  0.32455  3.73389     13.49943  1.67164   1.2788  22.65627  0.10552     0.02317  2808.71656   9949.57696  0.46249         2110.26775     16.68684    3e-05  59085.24292  1.06618   7.35312   21697655.08586  44.01125   19.2505  59257.45174    51.30149       43.98565  106.48583  161.24998  140.0    0.03454  -20.78671  0.59674 
  -34.43517  0.18495  3.98026     13.58047  1.69991  0.76547  20.96613  0.09764     0.02727   3879.0632   9962.16782  3.34285         3332.08526     18.01298  0.00057  59109.05304  1.88191   3.87768   17263356.72644  44.06232  19.19691  59255.91016    51.33484        44.0486  100.40093  149.08017  164.0    0.02225  -20.80547  0.70026 
  -48.36971  0.34627  4.68764     13.65783  1.74391  0.57965  31.20496  0.05486     0.01786  2791.71924     9950.667  1.56651         2761.49932     16.84642    4e-05   59095.1185  1.45076  10.80537   17202048.22253  43.93288  19.21647  59261.36997    51.30207       43.97424  100.60639  164.08697  136.0    0.01821  -20.77353  0.35583 
  -42.02912  0.29815  4.75959     13.34052  1.67234  1.54438  43.26356  0.02834      0.0121   2770.2765   9975.66351  0.16998         2311.67654      17.3787  0.00013  59101.45908  1.98059  12.89892   73323939.35061  43.27178  19.21311  59256.31586    51.31311        43.9987  100.40093  155.16507  126.0    0.02061  -20.74301   0.2807 
  -51.25882  0.37864  4.81803     13.45045  1.71527  0.74461  39.90747  0.02813     0.01133  2394.84042   9892.01832  1.39671         2083.09726      18.7685  0.00326  59092.22939  1.36532  15.11048   46448999.65679  43.47046  19.26944  59263.84766    51.22705        43.8897  115.61319  167.33488  138.0      0.019  -20.70288   0.2277 
  -39.49267  0.49402  4.52865     13.35313  1.59548  1.56398   25.3403   0.0569     0.02325  2755.49606   9958.73983   2.0775         2125.38337     19.25679  0.01004  59103.99553  1.14773  12.51869   59755321.64005  43.38342  19.26767  59263.28459    51.31792        43.9955    99.6039  165.08946  130.0    0.02098  -20.78502  0.30915 
  -41.91588  0.36076  3.81796     13.39296  1.58422  1.56991  21.27393  0.06706     0.01411  2552.67001    9909.7203  0.92654         3241.21112      18.2866  0.00107  59101.57232  0.82692   7.67469   35105752.81656  43.75962  19.20215  59244.74084    51.26412       43.91688  118.65564  173.41979  140.0    0.01698  -20.75762  0.53899 
  -44.13422  0.41379  4.88875     13.48657   2.0761  1.26047  24.97843  0.05074     0.01374  2567.58871   9909.30329  1.90732         2333.20287     17.88047  0.00042  59099.35399   0.9823  10.33588    49014877.2061  43.51737   19.2201  59263.84766    51.34221        44.0385  100.40093  155.16507  144.0    0.01664  -20.71613  0.40599 
  -42.29476  0.39791   4.9989     13.62381  1.69799  0.59344  29.59292  0.08297     0.03224  3482.47207   9972.33403   1.7529         2893.86184     17.92611  0.00047  59101.19345  2.14087   11.7754   22278250.47037  43.75315   19.2458  59263.28459    51.30377       44.00854   99.18439  147.25426  152.0    0.02144  -20.81726  0.28554 
  -51.54599  0.21565  3.59762     13.59184  1.61752  0.92077  30.39688  0.04773     0.01507  2501.41313   9917.36316  0.20267          2202.5876     17.62303  0.00023  59091.94222  1.13456   6.55517   12735255.10309  44.26066  19.14705  59257.45174    51.25162       43.94402  104.99105  156.65986  126.0    0.02138  -20.71811  0.63599 
  -45.53456  0.28054  4.44109     13.66158  1.81043  0.92028  32.25212   0.0583     0.02407   2956.1063   9990.00658   0.8438         2183.36313      16.6829    3e-05  59097.95365  1.68122   9.04792   15754939.75458  44.03423  19.17025  59250.33925    51.28233       43.95513  110.81454  166.04863  126.0    0.01897  -20.82381  0.48562 
  -50.94371  0.37048  3.96314      13.1582  1.34963  1.00699  41.80839  0.03487     0.01002  2483.13124   9947.68088  1.24054         2215.24894     16.35895    1e-05  59092.54449  1.53777  15.48936   94996676.54151  43.22527  19.16375  59259.57584    51.30181       43.97776  104.72964  163.00617  130.0    0.01895  -20.74708   0.2164 
  -48.27887   0.3492  5.20442     13.57429  2.08527  1.25638  26.13805  0.05295     0.01069   2300.0168   9958.28869  1.24776         3315.10663      17.7372   0.0003  59095.20934  0.82483   9.12728   37252170.45045  43.58411  19.23392  59258.32093    51.33264       44.02661  108.30733  153.34358  146.0    0.01737  -20.67371  0.42667 
  -44.61731  0.36275  4.07643     13.31805  1.67211  1.11554  30.42536  0.05224     0.01115  2804.01343   9904.19325  1.58155         2529.40943     17.35184  0.00012   59098.8709    1.427  11.03686   59641458.38012    43.496  19.18573  59263.28459    51.30327       43.97507  106.48583  170.37734  140.0    0.01774  -20.79316  0.38269 
  -56.20711  0.26022   3.3704     13.51772   1.4152  0.88686  32.36782  0.04601      0.0126  2165.50024   9990.95725  3.42864         2105.34643     17.02887    6e-05   59087.2811  0.90543   8.42276   13758128.54467  44.22574   19.2751  59257.45174    51.25826       43.93546  108.32876  168.53441  140.0    0.01692  -20.69173  0.55688 
  -42.30533  0.29981  4.68249     13.51661  1.98097  1.01233  29.92078  0.07332     0.01768    3391.079   9956.62903  3.03194         2313.51214      16.6548    3e-05  59101.18288  2.05247   8.97058   37361353.13866  43.65235   19.2437  59259.57584    51.29415       43.99506  100.58547  154.98053  162.0    0.02611  -20.77871  0.44941 
  -50.64796  0.33804  4.72301     13.44139  1.63138  1.10567  40.17743  0.04424     0.01499  2592.45429   9859.26187  0.76255          2229.7651     19.32505  0.01174  59092.84025  1.61076  13.58168   44262541.53821  43.48693  19.26884  59263.28459    51.30857        43.9919  102.64635  165.08946  126.0    0.01836  -20.76998   0.2857 
  -40.80909  0.38716  5.07857     13.44713  1.84192  1.22644  27.35641  0.05163     0.01372  2544.41214   9953.72148   1.5886         3094.06986     16.87041    4e-05  59102.67912  1.05648  10.59128   56272982.45462  43.37233  19.25056  59256.24995    51.34494       44.04621   91.27357  158.20753  140.0    0.02241  -20.71238  0.33303 
  -46.30016  0.33592  4.38039     13.52297  1.69407     1.01  32.38398  0.03051     0.01208  2433.86102   9972.75437  0.96038         2253.47947     17.41322  0.00014  59097.18805  1.14432  10.87856   27153606.09281  43.78093  19.22704  59262.31245    51.27733       43.96403  103.44338  155.16507  140.0    0.01736  -20.69752  0.40346 
  -47.53415  0.30425  4.93184     13.45438  1.74343  1.04484   37.6758   0.0531     0.01693  3056.07608    9947.9957  2.27149         2610.92843     18.77065  0.00328  59095.95406  2.09903  11.46278   48581712.05271  43.43776  19.24505  59254.38278    51.37544       44.12832   78.52346  140.53311  140.0    0.02534  -20.80189  0.31095 
   -47.5535   0.3302  4.02604     13.52338  1.55694   1.1115  22.34959  0.09829     0.02374   2695.6282    9963.7764  2.69422         3068.99993     16.31598    1e-05   59095.9347  0.96876   7.37988   21041804.95942  43.92828  19.27224  59250.33925     51.3415       44.04796   91.27357  152.12262  136.0    0.02024  -20.79856  0.53003 
  -41.70754   0.3879  3.99757     13.41706  1.61088  1.21229  22.42881  0.14861     0.06426  4801.21846    9978.7273  0.33007         2057.82822      17.1785    8e-05  59101.78067  3.08416   8.70006   35023024.96823  43.72796  19.23518  59259.57584    51.30366        43.9979   99.17997  156.38603  162.0    0.01609  -20.78348  0.48329 
  -41.13342  0.35765  5.40879     13.45447  2.05513  1.23967  37.17534  0.03269     0.01545  2791.86207   9977.19774  0.72268         2065.11588      17.3979  0.00014  59102.35479   1.7285  13.29586    68852284.8676  43.27757   19.1738  59261.36997    51.29715       43.98622  104.72964  153.87882  126.0    0.02322  -20.76215  0.27368 
   -43.9801  0.36529    4.325     13.51706  1.64302  1.36388   26.9643  0.06225     0.04996  2792.76063    9915.7347  0.24648         2403.32477     16.59529    2e-05   59099.5081  1.25454   9.84969   26381981.96652  43.79121  19.18131  59267.38714    51.31221       43.98718  106.48583  161.24998  122.0    0.02264  -20.78101  0.43924 
  -45.05607  0.37999   5.4569     13.41961  2.05122  1.37835  38.36156  0.03172     0.01023  2551.08527   9976.20735  0.88612          2406.7768     18.74239  0.00307  59098.43214  1.48927  14.57685   82128461.05335  43.19247  19.22054  59258.32093    51.34926       44.05573   94.31602  152.12262  132.0    0.01872  -20.75224  0.24407 
  -51.68984  0.28307  4.12285     13.42488   1.4929  1.06954  38.27417  0.03695     0.01031   2354.9928   9973.14241  0.74942         2689.27693     16.98341    5e-05  59091.79836  1.26623  10.83415   33303661.91929  43.68999   19.2556  59258.32093     51.2676       43.94751  109.52829  161.24998  136.0    0.01997  -20.67698  0.38407 
  -49.58521   0.3428  3.48344     13.45018  1.53894  1.47634  21.61227  0.07846     0.02602  2723.63236   9986.75034  0.44591         2227.66184     17.54445  0.00019  59093.90299  0.95637   7.40869   21811536.69317  44.03336  19.22331  59263.84766    51.29697       43.98274  102.24386   156.3646  122.0    0.02259  -20.81517  0.60258 
  -30.25293  0.48177  5.44799     13.60458  1.79586  0.81401  25.35509  0.03763     0.02947  2606.07211   9983.17383  3.35607         2168.59845     16.35308    1e-05  59113.23527  1.02722  12.21532   30577731.02347  43.56524  19.23258  59251.47627    51.32621       44.04326   91.44253  151.95366  136.0    0.02084  -20.69829  0.27284 
  -43.65224  0.38746  4.63074     13.44877  1.60198  0.60699  36.94744  0.04033      0.0122  2559.11167   9930.83137  1.24471         2371.72125     16.86177    4e-05  59099.83597  1.44341  14.31559   40385638.82085  43.53598  19.21932  59253.38681    51.27176       43.95311   106.1906  161.54521  128.0    0.02055  -20.72454  0.21917 
  -39.00998  0.41364  4.98635     13.53943  1.78624  0.86178  27.88961  0.04779     0.01318  2539.97422   9951.06006  1.83585         2592.23459     18.21105   0.0009  59104.47822  1.07332  11.53613   34392074.65518  43.58876  19.16993  59257.45174    51.27326       43.96184  106.91108  157.78229  136.0    0.01962  -20.71411  0.31791 
  -49.30468  0.32801  3.74188     13.53174  1.38567  0.83627  32.37814  0.05028     0.02432  2650.46238   9995.92418   0.5237         2076.23878     16.41161    1e-05  59094.18352  1.35682  10.62046   15565839.46285  44.07215  19.23333  59264.31639    51.27545       43.96139  100.82617  154.73983  120.0    0.01803  -20.78838  0.43164 
  -44.69066  0.29445  4.56053     13.49193  1.56924  0.78639   36.6502  0.06347      0.0159  3079.69239    9902.0282  1.80108           2866.384     17.94742  0.00049  59098.79754  2.07357  10.79157    31453669.7566  43.64883   19.1959  59261.36997    51.31287       44.03267   95.91456  141.39673  150.0    0.02597  -20.76841   0.3301 
  -45.60326  0.43615   3.9112     13.21291  1.38406  1.45789  27.24625  0.05024     0.01013  2298.86138   9964.04461  1.34507         3047.59041     16.80826    4e-05  59097.88495  0.85893   11.8835   73751504.95542  43.35761  19.20286  59261.36997    51.33852       44.03944   94.31602  158.20753  144.0    0.01911  -20.70859  0.32681 
  -42.24491  0.28517  5.23993     13.70493  2.03159  0.74569  36.46015  0.04619     0.01336  2720.45117   9983.51843  1.81608         2423.42023      17.3936  0.00014   59101.2433  1.60964   10.3972   20157922.21688  43.83358   19.2103  59264.31639    51.29299        43.9637  109.95353  166.90964  134.0     0.0167  -20.74302  0.37954 
  -33.68042  0.29751  5.62006     13.58113  1.92683  1.00477  32.82556   0.0429     0.01193  2486.79762   9956.45843  2.82006         3280.52573     17.03281    6e-05  59109.80779  1.21093   9.76604   38893881.23008  43.46433   19.2391  59258.37257    51.29145       43.96649  105.04191   162.6939  144.0    0.02136  -20.73934  0.33052 
  -46.43832  0.32422  4.47813     13.33146  1.53778   1.5535  36.16658  0.05659     0.02198  3074.14803   9942.45095  2.41555         2356.03857     18.23167  0.00095  59097.04988  2.03885  11.72586   62228753.63371  43.35955  19.22861  59265.44266    51.30688       43.97911  100.60639  164.08697  138.0    0.03036  -20.80862  0.31462 
  -39.18689  0.30111  4.74049     13.67217  1.71444  0.66032  31.14746  0.05285     0.01934  2869.63923   9987.45599  1.14513         3110.92669     18.05043  0.00062  59104.30132  1.53005   9.37885   16190065.58562  43.94207  19.17665  59267.38714    51.30548       43.98998  109.52829  161.24998  134.0    0.02274  -20.76256   0.3976 
  -35.66093  0.30329  5.54066     14.11726  2.13271  0.34555  26.95801  0.03758     0.02346   2456.1546   9888.56475  1.74172         3008.32958     18.11773  0.00073  59107.82727  0.97012   8.17614    3542808.94208  44.56131  19.23193  59265.44266    51.28772       43.95493  111.57537  168.33025  146.0    0.02238  -20.67098  0.44764 
  -35.79905  0.46131  4.59615     13.46705  1.46624  0.63801  24.06778  0.10151     0.03386  3531.78591   9989.99648  3.63455         2890.29585     17.13828    8e-05  59107.68916  1.79082   11.1028   33474683.13242  43.58555  19.22162  59263.28459    51.32995       44.03768   94.31602  155.16507  154.0    0.01792  -20.78189  0.27077 
  -51.29169  0.30934  4.19126       13.414  1.65186  1.40475  33.71884  0.05058       0.012  2600.63159    9934.6688  1.91627          2079.2142     18.58729  0.00215  59092.19651  1.36037  10.43057   40039387.64604  43.63964  19.25912  59261.36997    51.32352       44.00844  103.16833  161.52503  132.0    0.01552  -20.75471  0.42178 
  -38.08325  0.29416  4.93277     13.60325  1.79354  0.64869  34.35492  0.03546     0.01187  2784.28631   9998.13467  1.26167         3338.70512     16.79426    3e-05  59105.40496  1.58871  10.10601   25188734.05533  43.73517  19.21805  59253.38681    51.25935       43.93786  103.14815  161.54521  138.0    0.02099  -20.74678  0.34211 
  -37.09871  0.36761  4.82804     13.71467  1.83105  0.78263  22.95297   0.0538     0.02132  2337.14694   9949.14813   1.9992         2850.07733     18.10144   0.0007   59106.3895  0.74789   8.43769   14747570.26807  43.99528  19.21975  59270.70209    51.29641       43.95228   121.6981  170.37734  142.0    0.02153  -20.67066  0.45734 
   -31.6055  0.34223  4.38252     13.65259  1.59004  0.56252  24.76778  0.07228     0.02564  3358.93799   9935.79379  3.66426         2709.42477      16.2376    1e-05  59111.88271  1.66693   8.47623   14043810.70069  44.03932   19.1938  59259.57584    51.28306       43.97477   100.1057  152.41785  146.0    0.02619  -20.81232  0.42634 
  -44.48085   0.2832  5.12866     13.74553  1.87585  0.58263  37.11346  0.03543     0.01201  2463.20676   9893.53138  1.36893         3239.77946     16.05397    1e-05  59099.00735  1.34326  10.51061   14789982.02607  43.95207  19.16374  59256.31586    51.29588       43.95927  109.52829  167.33488  144.0    0.02205  -20.73121  0.35463 
  -47.06894  0.38867  4.76238     13.67603   1.6606  0.60379  31.40084  0.04877     0.02204  2620.61789    9879.0831  1.10299          2429.0129     16.09907    1e-05  59096.41927   1.2864  12.20463   15547813.73842  43.94179  19.20293  59263.28459    51.28289       43.94923  109.52829  170.37734  128.0    0.01676  -20.75495  0.31822 
  -48.22934  0.47938  4.53312     13.69549   1.5091  0.54577  29.33061  0.03858     0.02855  2391.28527   9943.37522  0.45745         2559.03889      16.0215    1e-05  59095.25887  1.00049  14.06049   11704256.22813  44.06642  19.17356  59256.31586    51.29778       43.98361  100.40093  158.20753  134.0    0.01679  -20.73647  0.28728 
  -42.80391  0.37686  5.44008     13.39969  2.17708  1.54934  32.68299   0.0482     0.01244  2792.69499    9978.3244  1.75008         2730.27401      18.1996  0.00088  59100.68429  1.52053  12.31696   94956839.93731  43.15798  19.29906  59255.86709    51.26351       43.94825  100.40093  161.24998  132.0    0.02131  -20.77294  0.28336 
  -43.17688  0.31439  4.51711     13.43907  1.62136  1.35029  27.77789  0.05399     0.01265  2263.05592   9945.02783  3.95448         2871.78236     18.41591  0.00145  59100.31133  0.84863   8.73312   40670805.43349  43.55972  19.17114  59248.28536    51.28522       43.94748  108.53292  171.37271  148.0    0.01972   -20.6745   0.4201 
  -42.57125  0.44249  4.25911      13.4054  1.53398  1.41442  25.46282  0.05439     0.03176  2945.14809   9968.62444  0.29438         2226.25296     17.47682  0.00017  59100.91696  1.31749  11.26708   39946797.61431  43.59455  19.18224  59241.03209    51.23417       43.90272  115.61319  164.29243  124.0    0.02348  -20.81673  0.37155 
  -50.08979  0.29439  3.62683     13.36418   1.3767  1.50974  32.26236  0.06409     0.02492  2788.25961    9947.0393  0.70225         2420.06986     17.56599   0.0002  59093.39842   1.4962   9.49786   31429931.02693  43.79129  19.21245  59262.31245    51.31011       43.98949  106.48583  164.29243  132.0    0.02193  -20.79265  0.46765 
  -36.30663  0.36143  5.10354     13.48973  1.82663  0.70684  33.98269  0.04357     0.01703  2846.23502   9907.43486  4.88874          2469.2002     18.72798  0.00297  59107.18158   1.6422  12.28245   46318349.53722    43.449  19.24695  59268.33805    51.29088       43.95832    113.857  166.04863  132.0    0.02054  -20.77544   0.2521 
  -44.33491  0.44408  4.63868     13.38115  1.62722  1.01676  27.39294  0.07175     0.02088  3032.10631    9995.5945  0.90211          2743.8161     16.69487    3e-05   59099.1533  1.50229  12.16476   56201789.47106  43.39775  19.26629  59257.45174    51.30408       43.98384  107.28672  160.44909  138.0    0.03019  -20.78879  0.29148 
  -37.53426  0.49711  5.28608     13.51769   1.7431  0.90515   24.5972  0.07301     0.04019  3224.40505   9988.63643  4.49686         2024.04563      16.7339    3e-05  59105.95394   1.5255  12.22753   41689955.76321  43.44387  19.18236  59262.31245    51.26968       43.94948  109.52829  161.24998  130.0    0.02443  -20.80856  0.26658 
  -53.00232   0.3052   3.6911     13.50302  1.49252  0.92206  29.30529  0.06789     0.01806  2692.91993   9988.65917  2.42265          2145.8015     17.61858  0.00023  59090.48589  1.26771   8.94403   18621442.90409  44.03844  19.21402  59257.45174    51.35152       44.04583  100.40093  152.12262  132.0    0.01843  -20.79736  0.50562 
  -44.71975  0.29319  4.33762     13.40693  1.62578  1.45415  36.57057  0.03536     0.01409  2763.36878   9970.92169  0.56259         2545.25605     18.87517  0.00417  59098.76845  1.66585  10.72199   43602899.90583  43.56589  19.18752  59244.74084    51.25362       43.92156  115.61319  161.24998  130.0     0.0225  -20.76776  0.38903 
  -55.83312  0.40317  3.59791     13.44727  1.57095  1.51054  17.29327  0.07524     0.02295  2258.52034    9986.5485   2.2911         2042.63397     18.76699  0.00325  59087.65508   0.5262   6.97218   24073184.30247  43.97137  19.21441  59264.30875    51.31436       44.00659   95.11691  157.40664  140.0    0.01627   -20.6546  0.60532 
  -50.35557  0.41692   4.1734      13.3273  1.35022  1.07155  33.20625  0.04541      0.0216  2538.75222   9918.62915   0.2726         2375.90979     18.78205  0.00336  59093.13264   1.2767  13.84445   48373297.79549  43.47367  19.18528  59264.30875     51.3036       43.97006  120.70273   165.2878  126.0    0.02019  -20.74504   0.2727 
  -50.84439  0.31187  5.15317     13.63128  2.06733  1.12724  32.35422  0.04208     0.01262  2338.57692   9923.42294  1.31656         2755.08218     17.05742    6e-05  59092.64381  1.05551   10.0904   27849729.86538  43.71529  19.17902  59241.03209    51.19047       43.86304  106.48583  176.46224  142.0    0.01986  -20.69439  0.41552 
   -51.1333  0.23429   3.6953     13.56654  1.63369  1.07264  32.32509  0.04308     0.01551  2417.82063   9973.93972   0.8424         2509.05021     17.58637  0.00021   59092.3549  1.12724   7.57328   15247410.92049  44.16352  19.20476  59258.37257    51.28493       43.95018  108.32876  168.53441  132.0    0.01789  -20.74316  0.59305 
  -43.27518   0.3319  4.70735      13.3882  1.74932  1.23906  34.76636   0.0445     0.01762  2861.61992   9927.80514  2.10347         2178.63906     18.04004  0.00061  59100.21303  1.69828  11.53883   60233734.65345  43.38632  19.22766  59262.23361    51.32085       44.02461   91.27357  155.16507  134.0    0.02167  -20.76406  0.32796 
  -40.98956    0.402  4.62496      13.5458  1.65519  0.90434  27.36965  0.04909     0.02904  2606.95886   9916.69529  4.96192         2117.00089     18.83909  0.00384  59102.49865   1.1096  11.00259   26624256.35776   43.7322  19.23909  59253.38681    51.35322       44.05428   94.31602  152.12262  134.0    0.01807  -20.74424  0.36022 
  -43.72796  0.35539  4.84297     13.55404  1.72176  0.69319  29.07187  0.05808     0.01076   2424.3999   9977.05776  1.95416         3286.35759     17.09888    7e-05  59099.76025  1.01932   10.3318   29236935.11563  43.66866  19.19418  59265.44266    51.32137       44.01097   99.18439  156.38161  142.0    0.01839  -20.69522  0.33037 
  -44.60943  0.35267  5.08778     13.55124  2.10137  0.89822  32.71142  0.03844     0.01171  2546.87801   9982.73332  2.06888         2049.34523      17.9463  0.00049  59098.87878  1.26574  11.53629   39892730.06974   43.5774  19.20388  59264.31639     51.2847       43.97581  104.72964  163.00617  138.0     0.0183  -20.69599  0.35008 
  -49.93336  0.49473  3.93036     13.30353  1.35185  1.14447  21.95579  0.11776     0.03118  3191.47067   9970.15085  1.17357          2931.4931     17.69283  0.00027  59093.55485  1.33401  10.86209   47922517.50916  43.53037  19.24557  59261.36997    51.31024       43.98861  101.20182  169.57645  158.0    0.02285   -20.7756  0.35615 
  -51.86409  0.28511  4.87972     13.55109  1.77112  0.95547  45.73677  0.02934     0.01235  2546.36112   9980.69543  0.15497         2113.55658      17.7523  0.00031  59091.62411  1.76902  13.04007   30951006.95569  43.64963  19.16613  59241.03209    51.26089       43.92244  112.57074  164.29243  126.0    0.01977  -20.74296  0.31464 
  -36.49619  0.32619  3.77031     13.41391  1.33435  1.23268  28.75805  0.04505     0.03051   2498.7016   9995.98483  2.89916         2113.54701     16.50662    2e-05  59106.99201  1.07106   9.38049   26182927.34803  43.82334  19.24048  59262.31245    51.32152        44.0331  100.40093  149.08017  130.0    0.01823   -20.7003  0.44364 
  -36.13556  0.40969  5.87517     13.72855  2.12934  0.86269  24.80936  0.06852     0.02497    3056.854   9958.97724  2.26902         2944.89486     18.17229  0.00083  59107.35265   1.3829  10.16425   23823308.00989  43.68205  19.15661  59265.44266     51.3054        43.9968  106.48583  155.16507  132.0    0.02113  -20.83263  0.35033 
  -47.10106  0.26124  3.85867      13.6197  1.52973  0.63744   30.8058  0.06721     0.02345  3247.26857   9961.59941  2.61233         2098.07108       17.707  0.00028  59096.38715  1.93774   8.04768   12187445.35836  44.19467   19.2084  59259.57584    51.33765       44.02557  105.26488  153.34358  142.0    0.03901   -20.8127  0.51075 
  -49.96017  0.46414  4.45685     13.48755  1.60395  1.09955  25.99595  0.06676      0.0168  2426.38179   9970.64738   0.4769         2770.96097     17.26528   0.0001  59093.52803  0.91296  12.06569    31330141.4915  43.68002  19.15893  59251.47627    51.22928       43.91295  102.43066  168.34761  126.0    0.01977   -20.7316  0.35103 
  -43.03556  0.43155  4.85042     13.29848  1.86075  1.46876   31.0709  0.06206     0.01789  3158.42192    9972.2557  0.84925         2063.01175     16.81994    4e-05  59100.45264  1.84893  13.40874  102826316.84656  43.15487   19.2358  59258.32093    51.28013        43.9587  103.44338  170.37734  136.0    0.04005    -20.818  0.26425 
  -34.85284  0.36703  4.76736     13.35781  2.04424  1.30563  29.51784  0.04156     0.01156  2878.97195   9931.11678   1.5544         2477.68009      17.7708  0.00033  59108.63537  1.45944  10.83401   83039971.87156  43.30353  19.25528  59268.33805    51.30953       43.99161  105.26929  159.42407  138.0    0.02207  -20.74221  0.35724 
  -43.14967  0.34527  5.03901     13.60708  1.85595  1.10361  29.82187  0.06229     0.02034  2717.39145   9968.78427  2.36257          2545.2841     18.22712  0.00094  59100.33853  1.31361  10.29648   26724443.05491  43.70581  19.21117  59265.44266    51.30202       43.98126   106.1906  161.54521  130.0    0.01931  -20.77718  0.38646 
  -47.27406  0.43383  4.54595     13.53304  1.71479  1.01224  21.93659  0.09323     0.03286  3149.74863   9907.36706  1.57787         2547.24494     17.07307    7e-05  59096.21414  1.29822   9.51684   28262217.57834   43.7366  19.14917  59252.35854    51.26928       43.95313  103.44338  161.24998  142.0    0.03229  -20.80674  0.41983 
   -52.7205  0.42723  4.37785     13.49683  1.49971  0.86985   28.0711  0.05061     0.02187  2309.42353   9944.98752  3.32314         2140.10516     18.93453  0.00478  59090.76771  0.89309  11.99291    27082689.2537  43.72964  19.16703  59264.31639    51.28667       43.96885  104.99105  156.65986  136.0     0.0179  -20.67951  0.33073 
  -43.57151  0.42526  3.27714     13.07757  1.33689  0.72737  31.70761  0.04541     0.01011  2641.18868   9893.58662   2.5192         2228.40222     16.49426    2e-05  59099.91669  1.31944  13.48394   93272870.23201   43.3942  19.23075  59246.50048    51.23989       43.95749   83.74475  153.56654  134.0    0.02139  -20.73109  0.26306 
  -39.48765  0.32967  5.26492     13.44277  1.97165   1.3599  34.29282  0.04509     0.01815  2942.60174   9940.42276  3.87901         2221.75506     18.89253  0.00434  59104.00055   1.7713  11.30529   66053080.38242    43.301  19.17841  59257.45174    51.25772       43.92968  109.52829  164.29243  134.0    0.01998  -20.76734  0.31603 
  -43.05913  0.29442   5.1483      13.5506  1.92266  1.09378  38.66145  0.04687     0.01577  2937.07445   9959.31227    1.547         2427.37208     16.85411    4e-05  59100.42908  1.98946  11.38288   37483718.61855  43.55558  19.16793  59259.57584    51.28707       43.98861   97.56393  151.91717  132.0    0.01806  -20.80784  0.34422 
  -50.41213  0.31385  4.11346     13.35235  1.48752  1.52896  41.18317  0.02353     0.01084  2435.33491   9997.41844  0.01723         2033.05119     18.09776   0.0007  59093.07608  1.45702  12.92527   46131156.76045   43.5489  19.19228  59259.57584    51.32652       44.02194   97.08342  155.44013  136.0    0.01841  -20.71164  0.33951 
  -49.50122  0.40654  4.18734     13.29628  1.50513  1.02927  31.45477  0.04458     0.01057  2334.42144   9977.44172  0.80596         2836.66964     16.59048    2e-05  59093.98698  1.02252   12.7875   62618172.81291  43.40584  19.16737  59237.32334     51.2707       43.93095  109.52829  167.33488  138.0    0.01652  -20.67695  0.29503 
  -45.58901  0.36971  4.23056     13.41145  1.53496   1.0397  29.89425  0.07107     0.02478  3037.81552   9989.01104  1.64051         2241.00528     16.68828    3e-05   59097.8992  1.64565  11.05209   38352983.28465  43.61835  19.23151  59262.31245    51.26276       43.92252  112.57074  173.41979  142.0    0.03064  -20.79702  0.36546 
  -43.22347  0.16676  3.31023     14.14534  1.45409  0.19884  30.94643  0.05542     0.08852  2648.12101     9969.509  2.20417         2280.80704     16.14674    1e-05  59100.26473  1.29453   5.16072     757590.67963  45.51229  19.19219  59237.32334    51.25074       43.92294  103.44338  170.37734  124.0    0.02269   -20.7524  0.69325 
  -41.64416  0.35716  3.98832     13.17585  1.50486  0.96322  38.49527   0.0405     0.01103  2815.74523   9914.72554  1.96392         2303.03129     17.31971  0.00012  59101.84405  1.82063  13.74914      98900036.02  43.24956  19.19409  59250.33925    51.25995       43.92074  112.57074  167.33488  130.0     0.0182  -20.78813  0.25085 
  -36.80711  0.48983  3.55922     13.21588  1.17137  1.16235  21.72637  0.08463     0.03837  3501.84497   9952.16042   0.6371         3152.87965     17.66667  0.00026   59106.6811  1.58931  10.64217   50986409.86426  43.52738  19.23808  59259.57584    51.27782       43.97299  100.60639  154.95962  136.0    0.04113  -20.87478  0.35873 
  -45.70011  0.49985  4.92795     13.42176  1.86447  1.48389   25.8991  0.03528     0.01557  2605.96472   9962.02897  0.28858         2392.73033     18.53558  0.00191   59097.7881  1.04918  12.94565   60282517.70588  43.37388  19.18265  59261.36997    51.26917       43.94811  104.99105  159.70231  136.0      0.018  -20.72336  0.30925 
  -53.52041  0.30432   3.9922     13.58363  1.52832  0.75837  33.07584  0.04223      0.0189  2530.70522   9935.90533  0.37841         2404.47191     16.86968    4e-05   59089.9678  1.26363  10.06561    15388499.7997  44.06344  19.17186  59252.15834    51.26795       43.95254  100.60639  161.04452  130.0     0.0206  -20.72662  0.44059 
  -53.73724  0.33229  3.92482     13.47008  1.77782   1.5005  22.49624  0.08272     0.01709  2688.49113    9973.9331  2.23733         2265.07816     18.16826  0.00082  59089.75097  0.96996   7.47527   29186754.85981  43.86591  19.19985  59263.28459    51.29011       43.96564  107.77209  163.00617  138.0    0.01847  -20.79631  0.58057 
  -40.89366  0.37361  4.76292     13.45263  1.87074  1.41762  24.92824  0.06314     0.01792  2875.26932   9951.95744  1.74028         2832.53077     18.26764  0.00103  59102.59455  1.22935   9.31343   49014256.19619  43.49479  19.22579  59253.38681    51.25012       43.92517  106.89198  169.97119  140.0    0.01921  -20.77165  0.41547 
  -51.40033  0.45535  4.39955     13.44483  1.63127  0.94055  25.23581  0.07317     0.01692  2693.27891   9879.67048  0.84809         2221.93646     16.84875    4e-05  59092.08788  1.09196  11.49101   37800234.54861  43.61706  19.24735  59265.44266    51.31154       43.99142  103.64884  154.95962  136.0    0.01762    -20.735  0.34955 
   -35.7547  0.40429   5.1218     13.66981  1.96213  1.12915  23.77399  0.05807     0.03487  2871.92239    9991.3849  3.05501         2064.47444     16.06021    1e-05   59107.7335   1.1697   9.61148   21866198.39926  43.80295   19.1808  59261.36997    51.29909       44.01133   94.31602  149.08017  122.0    0.01915  -20.78442  0.42493 
