 texplosion  fnickel    Pspin  log(Bfield)      Mns  thetaPB   mejecta    kappa  kappagamma      vejecta  temperature    alpha  cutoff_wavelength  log(nhhost)      A_V         MJD0   kenergy  mnickel           TSD   log(L0)  Peak_mag     Peak_MJD  log(E_rad)  log(Peak_lum)  Rise_Time    E_fold  tau_1  delta_m15     r_peak     frac 
  -21.64161  0.09438  1.13286     14.78782   1.7466  1.48356  21.55439  0.03682     0.48806  11132.32547   7760.60697  3.18239         3402.57715     16.65039    2e-05  58008.20294  15.93436  2.03438    5529.88926  48.65997  18.29219  58032.32801    50.77045        44.0813   11.57705  32.41573   35.0    0.37979  -20.92826  0.99808 
  -29.92883  0.25838  2.18675     14.64529    1.989  1.19316   8.54732  0.06603     0.46689  10187.33985   6914.41427  0.10878         4373.76364     17.29956  0.00011  57999.91572    5.2915  2.20846   45233.77498  47.23242  18.07843  58040.42176    51.00572       44.57981    6.94623  18.52327   38.5    0.38277   -20.9264  0.96525 
  -25.86454  0.24178  0.89333     14.89313  1.48053   0.8739   9.85431  0.12621         0.5  15000.82353   7827.46861  4.61857         5030.63763     19.38832  0.01358  58003.98001  13.22767  2.38261    1794.70816  49.28325  18.26006  58026.93218    50.82647       44.02406   18.52327  46.30818   45.0    0.38706  -21.14276  0.99908 
  -18.16846  0.45127  1.01282      14.9129  1.54115  0.92474    5.7074  0.09539     0.49202  12411.11661   7121.54222  1.80295         3943.98945     18.60527  0.00224  58011.67609   5.24429  2.57558    2192.47594  49.10469   18.2001  58021.53635     50.8159       44.00656   16.20786  43.99277   38.5    0.46658  -20.91803  0.99863 
  -17.62048  0.37658  1.21128     14.85655  1.96361  0.99254   9.38965  0.05559     0.46941  15840.32939   5629.71039  1.96199         2221.40943     20.67732  0.26427  58012.22407  14.05417  3.53599    5179.25405  48.68115  18.12129  58024.23427    50.75552       43.99891   13.89245  39.36195   36.5    0.55414  -21.30568  0.99557 
  -16.25565    0.118  1.13976     14.68108  1.61385  1.29625  19.85321  0.01542     0.49916   8264.27017   6633.73624  1.63043         3165.47543     19.29831  0.01104   58013.5889   8.08848  2.34266    8455.77079  48.43593  18.08962  58018.83844    50.79276       43.97777   18.52327  45.21489   44.0    0.48355  -20.82069  0.99612 
   -24.5671  0.18953  1.01139     14.79876  1.50252  1.05798  13.18239  0.08509     0.49936  14494.00792   6923.07423  1.89501         5392.70545     19.74676  0.03101  58005.27745  16.51955  2.49847    3605.33595  48.87888  18.29325  58029.84455     50.7797       43.97271   16.20786  43.99277   36.0    0.36289  -21.30214  0.99813 
  -32.15776  0.22758  1.08113     14.93011  1.83145   1.0295   10.9305  0.06552     0.09138   7458.84173   7261.31084  3.55581         5053.54645     17.29999  0.00011  57997.68679   3.62752  2.48754    2742.51956  49.02574  18.07273  58024.23427    50.82764       43.97655   18.52327  46.30818   65.5     0.2303   -20.6956  0.99862 
  -23.20717  0.27674  1.45267     14.82903   1.5917  1.29836  10.20412  0.06089     0.37155   9955.34554   5834.74268  2.81563         4731.53001     16.85628    4e-05  58006.63738   6.03275   2.8239    6854.11145  48.31042  17.66786  58013.44261    51.08895       44.65802    6.94623  18.52327   42.0    0.34572   -21.1052   0.9937 
  -23.15796  0.13988  0.85527      14.8003  1.24596  0.48139  19.34817  0.03217      0.3568  12310.58131   7598.53364  0.91541         2756.07846     20.11576  0.07252  58006.68659  17.49138  2.70647    2122.82951  49.17323  18.29751  58040.42176     50.8024        44.2461    7.19378  22.90654   34.5    0.40825  -21.03059  0.99644 
  -29.35698  0.48904  3.99968     14.74991  1.90724  1.25769   4.94986  0.06971     0.31514    6494.4043   6761.33177  2.33382         4343.64634      16.8319    4e-05  58000.48757   1.24537  2.42067   89628.90149  46.39275  18.05366  58032.32801    50.67757        43.9382   13.89245  32.41573   45.5    0.37651  -20.96609  0.86005 
  -37.87265  0.34659  0.78875     14.47162   1.3251  1.55062  13.17559  0.09475     0.23634  14744.13129   4822.25487  0.93717         3822.04266     20.68379  0.26824   57991.9719  17.08581  4.56651    8723.72983  48.65651  18.32162   58029.6301    50.96712       44.26727   16.20786  32.41573   65.5    0.25073  -20.92556  0.99574 
  -39.68278  0.47864  0.81924     14.76389  1.37886  1.27462  11.04449  0.10857     0.48262  17451.86835   4044.11098  1.02832         3023.39678     18.31294  0.00114  57990.16177  20.06581  5.28635    2549.01188  49.17517  18.29925  58026.93218    51.10601       44.60585    9.26164  20.83868   55.5    0.27042  -20.85327  0.99832 
  -18.68327  0.24692  2.31723        14.88  1.71559  1.26709   9.16694  0.02538      0.0904   5448.37698   7173.71969  2.93582         4408.61051     18.82191  0.00369  58011.16128   1.62325  2.26349   14865.41887  47.60114  18.29632   58029.6301    50.78417       43.98176   16.20786  46.30818   41.0    0.43156  -20.88749  0.97611 
  -63.72657  0.48812  1.40191       14.477  1.95789  1.19044   8.07456  0.12491     0.48864   9101.28689   4796.41755   0.2292          4744.8889     20.27989  0.10583  57966.11798   3.98981  3.94137   39723.18388  47.66815  18.26399  58029.91855    50.87717       44.06189   16.20786  46.30818   70.0    0.20171  -20.64127  0.97494 
  -37.84167   0.4505  0.90333     14.72107  1.67741  0.88009   6.49767  0.16098     0.45373   10874.2415   8903.06624  0.32716         4858.78941     19.84514  0.03889  57992.00288   4.58335  2.92721    4592.03982  48.91978  18.30813  58032.32801    50.83626       44.11704   13.89245  34.73114   58.0    0.18011  -20.52395  0.99749 
  -23.67681  0.19522  1.70828     14.95122  2.07083  1.20604  14.01668  0.05389     0.45783  10264.82864   6349.12253  3.35299         4309.83146     20.29464  0.10949  58006.16774      8.81   2.7363     7024.9271  48.27323  17.18127  58008.04678    51.05501       44.60282    6.94623  16.20786   41.0    0.28685  -21.13659  0.99302 
  -23.92226   0.1088   1.6442     14.80791  1.57874  1.07069  21.83241  0.02059      0.0596   6820.68404   7850.11674  3.30773         4064.73168     19.13313  0.00755  58005.92229   6.05877  2.37541     9598.9323  48.05302  18.07718  58024.23427    50.73816       43.90487   16.20786  46.30818   37.5    0.32284  -21.22121  0.98892 
   -42.7646  0.29713  1.32933     14.46984  1.39151  1.28041  11.40597  0.07829     0.49981  10302.45976   5250.84221  0.54672         3897.53946     18.59477  0.00219  57987.07995   7.22173  3.38905   26235.16206  47.74618  18.27621  58026.93218    50.91024       44.19829   15.44766  34.73114   73.5    0.22913  -20.56117  0.97722 
  -16.12052  0.19987   2.6921     14.47417  1.07312  1.35359  10.64646  0.02031     0.45683   5169.06276   6966.02095  2.78496         5309.92533     17.69189  0.00027  58013.72403    1.6969  2.12793   81341.11211    46.529  18.18696  58032.32801    50.81082       44.07343   13.89245  32.41573   33.5    0.45452   -21.2243  0.87698 
   -23.2753  0.20229  1.48189     14.51294  1.18416   1.3497  10.09045  0.02539     0.36892   3862.33153   9356.37407  2.90675         4695.52583     17.46153  0.00016  58006.56925   0.89792  2.04115   22749.98336  47.64364  18.12186  58024.23427    50.73983       43.96567   18.52327  41.67736   41.0    0.30205  -20.93272  0.98193 
  -29.38644  0.17247  1.19032     14.54878  1.42661  1.25522  15.19294  0.03662     0.35763   8514.68681   6398.41344  4.00127          2541.1101     16.80015    4e-05  58000.45811   6.57062  2.62039   14993.13719  48.09593  18.22149  58024.23427    50.79731       43.94506   18.52327  53.25441   40.5    0.27442  -21.22503  0.99083 
  -13.54244  0.19341   2.2816     15.01876  1.60198  1.46599  10.95368  0.01765     0.04469   8402.61476   9976.79699  4.79494         4530.31672     16.20284    1e-05  58016.30211   4.61335  2.11857    7102.99317  47.90558  17.83348  58016.14053    51.24993       44.94903    6.94623  13.89245   24.0    0.73266  -21.32753  0.98878 
  -23.21636  0.20529  1.00206     14.77727  1.24548  1.38191  16.02078  0.03664     0.43924  11198.18165   5165.54601  2.36298          5533.6397     17.93446  0.00048  58006.62819  11.98411  3.28898    3238.97649  48.85199  18.14258  58021.53635    50.93816       44.23647   13.89245  30.10032   43.0    0.37185  -21.17603  0.99792 
  -37.70357  0.18208  3.25219     14.58282  1.55646  0.83478  10.75687  0.04979     0.35033   5715.84229    8671.7603  4.55476         3532.20083     18.13467  0.00076  57992.14098    2.0964  1.95863  104392.08824  46.41796    17.957  58021.53635    50.76879       43.90467   16.20786  53.25441   54.0    0.22454  -20.53098  0.88929 
  -33.03829  0.11278   1.1113     15.04737  1.97585  0.61041  17.02616  0.08751     0.48887  10511.03241   9142.28621  4.50254         4631.23311     18.06751  0.00065  57996.80626  11.22108  1.92017    1821.78993  49.21244  18.05818  58016.14053    51.29577       44.85945    9.26164  20.83868   63.5    0.07368  -20.53249  0.99847 
  -36.66217  0.35325  0.81189     14.70913  1.65418  1.12885  10.20851  0.20392      0.4997  15451.84472   5024.31429  1.74223         4853.38285     20.36484   0.1287  57993.18238  14.53952  3.60615      3864.866   49.0813  18.06464  58029.91855      50.695       43.92811   13.89245  39.36195   72.5    0.21073  -20.70063  0.99842 
  -36.16668  0.31206  1.84059     14.47545  1.24307  0.78842   8.40721  0.04386     0.07111   8460.49309   6108.11192  0.44058           4079.903     18.44549  0.00155  57993.67787    3.5898  2.62359   43783.86787  47.19211  18.12856  58024.23427    50.79195       44.03115   16.20786  39.36195   65.5    0.33494  -20.61153  0.93769 
  -28.58125  0.25396  1.01347     14.73262  1.72136   1.4208  10.78164  0.07668     0.42648  11289.45029   6341.40888  3.50397         2729.22362     16.19958    1e-05   58001.2633   8.19705  2.73812    5624.35968  48.74303  18.21526  58026.93218    50.88073       44.21015   11.57705  30.10032   43.0     0.3179  -20.99146  0.99783 
  -40.67026  0.15229   7.9348     14.75859  1.71357  0.48481  14.48365  0.01425     0.04132   3435.56518   6852.93934  4.16386         5326.51695     19.46034  0.01603  57989.17429   1.01977  2.20568  304509.48744  45.22007  18.10088  58026.93218    50.72718       43.96699   13.89245  34.73114   53.5    0.27491   -21.0782  0.57109 
  -23.47748  0.44348  1.19433     14.90852  1.59578  0.95691     6.647  0.16434      0.2666  15409.35278   5045.70929  1.71181         5098.21017     19.21114  0.00903  58006.36707   9.41503  2.94783    3221.02004  48.80957  17.85107  58018.83844    50.75647       43.97631   16.20786  41.67736   33.0    0.44891  -21.36893  0.99706 
  -29.61612  0.38001   2.1243     14.80956  1.60994   1.3377   7.00538  0.03289     0.36606   3975.48747   5992.59632    4.548         4506.52816     16.79277    3e-05  58000.22843   0.66045  2.66213   16215.82644  47.61128  18.25666  58037.72384    50.75659       44.09814    9.26164   25.4695   42.5    0.33077  -21.11913  0.97374 
  -29.56039  0.17288   1.0301     14.80392  1.60543  1.50084  17.80758  0.04819     0.37728   9871.78499   5158.40307  3.16117         5406.89724     17.79146  0.00034  58000.28416  10.35198  3.07852    3902.28294  48.85736  17.97587  58026.93218    50.75006       43.90196   16.20786    50.939   42.0      0.294    -21.379  0.99814 
  -27.73208  0.45899  0.86805     14.86259  1.60973   0.7887   8.99325  0.16574         0.5  17570.18699   4856.98593  3.85292         3314.27107     20.64472  0.24516  58002.11247  16.56138  4.12784    2120.66733  49.27204  17.98272  58021.53635    50.78044       43.94784   16.20786  46.30818   44.0      0.328  -21.25989  0.99811 
  -16.50245  0.28444  2.63014     14.85092  1.37324  0.41554   6.97922  0.03185     0.46355   6158.27373   6890.61968  3.18911         2904.53208     16.32738    1e-05   58013.3421   1.57889  1.98515   17526.00414  47.32295    18.217  58026.93218    50.85273       44.03868   16.20786  46.30818   41.0     0.4561  -20.82376   0.9147 
  -25.00961  0.21695  1.40538     14.56238  1.34615  1.04913  13.80276   0.0316     0.49993   9420.36901   5813.19569  3.02996         2577.22977     20.23775  0.09605  58004.83494   7.30683  2.99447   18524.42711  47.83461  18.32994  58032.32801    50.79697       44.12728   11.57705  27.78491   48.0    0.37061    -21.027  0.97893 
  -31.47329  0.19283  0.92343     14.72509  1.50511  1.28687  15.11608  0.01886     0.24645   4332.92997   6563.74341  2.88418         4482.09044     19.98369  0.05351  57998.37126   1.69289  2.91479    4226.81581  48.88959  18.26792  58026.93218     51.0131       44.43348   11.57705  23.15409   78.0    0.24156  -20.61854  0.99824 
  -29.31394  0.13872  1.02468     14.73743   1.4192  0.91447   15.8752  0.03925     0.49664   6340.77187   7892.20816  3.23395         5204.10051     19.18898  0.00858  58000.53061   3.80742  2.20218    4636.29375  48.73354  18.19329  58021.53635     50.8135       44.02499   16.20786  41.67736   44.0     0.2587  -21.14318  0.99724 
  -28.73185  0.27019  1.10816     14.70465   1.3573  0.69587   9.53031   0.1261     0.25992  12105.37132   5497.66206  4.11678         3144.90193     17.27653  0.00011   58001.1127   8.33087  2.57495    6031.04324  48.53192  18.22882  58026.93218    50.96835       44.27879    9.26164  30.10032   41.5    0.26299  -21.06531  0.99258 
  -30.75407  0.13349  1.00893     14.69235  1.38264  1.13673  20.18725  0.04239     0.46243   9492.33558     6140.097  4.38591         3821.72507     18.97134   0.0052  57999.09048  10.85052  2.69478    5389.46854  48.67029  18.04922  58021.53635    50.83255       43.95875   18.52327  53.25441   60.5    0.25197  -20.68927  0.99701 
  -26.57806  0.09919  1.63021     14.90046  1.87197  1.10276  23.90866  0.02161     0.46828    6516.2399   6588.05482  2.85743         4786.22998     17.62578  0.00023  58003.26649   6.05587  2.37146    7305.92356  48.25298  18.37063   58029.6301    50.92269        44.3333    9.26164   25.4695   42.5    0.28043  -21.08267  0.99309 
   -28.7368  0.21183  0.86926     14.89933  1.23007  0.75795  16.79141   0.0366     0.49878   9615.30966   5488.40928  3.90444         5400.18407     20.10723  0.07111  58001.10775   9.26064  3.55684    1372.06714  49.34311  18.10389  58024.23427    50.95513       44.35078    9.26164   25.4695   45.5    0.31653  -21.36017  0.99852 
  -35.14053  0.18666  0.74758     14.80281  1.85397  1.25085  18.32561  0.04088     0.48464  11464.33465   5306.97923  0.46512         5332.87308     19.17954   0.0084  57994.70402  14.36757  3.42066    2385.67346  49.41202  18.17036  58021.53635     50.8389       44.09869   16.20786  34.73114   69.5    0.28673  -20.67904  0.99936 
  -26.86235   0.2444  1.43352     14.87437  1.94792  1.46038   13.3223  0.06267     0.33884  12629.22416   5209.69479   2.5351         3135.75112     17.47242  0.00016   58002.9822  12.67535  3.25603    6629.07107  48.42416  18.31523  58026.93218    51.00028       44.30022   16.20786  32.41573   50.5    0.29602  -20.89376  0.99474 
   -12.7899  0.43406  1.11337     14.85177      1.7  1.44589    6.8959  0.06822     0.46697  15838.97243    5267.4474  3.92276         2306.26604     19.46355  0.01615  58017.05465  10.31981  2.99321    3872.67386    48.818  18.03489  58021.53635    50.85673       43.98749   16.20786  59.42558   40.5    0.55804  -20.95715    0.998 
  -35.97122  0.31535  3.23569     14.93666  1.79508  0.54914   7.72202   0.0784     0.48983    7222.5302   7511.26059  2.38433         4701.75504      18.2744  0.00105  57993.87333   2.40291   2.4351   23361.78467  47.13449  18.34488  58035.02593    50.93289       44.34882    6.94623   25.4695   59.5     0.2485  -20.69671  0.89772 
  -28.70706  0.18615  0.93384     14.57463  1.57753  1.39766  16.39153  0.02573     0.49683    10612.739   5095.91605  0.02198         3207.55688     18.80526  0.00355  58001.13749   11.0129  3.05123    9058.90046   48.5692  18.27859  58024.23427    50.84296       44.07411   16.20786  37.04655   49.5    0.44702  -20.89838  0.99645 
  -22.94405  0.19025  0.82162     14.69589  1.74682  1.54134  18.35058  0.05757         0.5  13319.31433    6203.4253   1.7267          4841.7579     20.89713  0.43838   58006.9005  19.41962  3.49128    4442.46073  49.03413  18.43582  58029.91855     51.0721       44.64575    9.26164  16.20786   33.0    0.33942  -21.96555  0.99861 
  -23.56187  0.11882  1.17233     14.85223  2.17144  1.52567  24.17361  0.01907     0.16917   7648.35734   6874.85094  1.45194         4812.96222     20.53955  0.19243  58006.28268   8.43539  2.87228    5472.81236  48.72928  18.04528  58018.83844    50.83038       43.95158   20.83868  55.56982   40.5    0.37225  -21.21245  0.99771 
  -12.38157  0.24011  0.86527     14.99353  1.90743  0.99822  11.05622  0.05882         0.5  17252.13414   5529.89773  3.35332          2399.4117     16.09882    1e-05  58017.46298  19.62996  2.65468    1366.18517  49.53948  18.05169  58024.23427    50.77833       44.18022   11.57705  23.15409   22.0    0.59048  -22.91928  0.99953 
  -21.85887  0.26293  1.43418     14.80294  1.75999  1.56889  11.10125  0.03858     0.49603  10187.82135   6356.04821  3.51204         2764.60637     19.52717   0.0187  58007.98568   6.87324  2.91883    8330.18836   48.2805  18.03482  58037.72384    50.84536       44.32953    9.26164  20.83868   54.0    0.39637  -20.82196  0.99358 
  -19.30714  0.27992  1.22182     14.66289  1.22268  1.20849   9.35352  0.02204     0.23567   4807.79043   6224.25689  3.45647         3920.58799     20.18129  0.08434  58010.53741   1.28971  2.61824    8005.23521  48.27877  18.29921  58024.23427    50.84389       44.11736   16.20786  34.73114   52.0    0.39322  -20.79804  0.99336 
  -37.06425  0.09254  3.69998     14.75108  1.89408  1.10815  25.32978  0.01891     0.49654   4664.10693   7621.97205  4.08539         5143.39733     16.28365    1e-05   57992.7803   3.28697  2.34402   75761.99403  46.53039  18.23256  58032.32801    50.79869       44.07739   13.89245  34.73114   62.5     0.2047  -20.78182  0.88088 
  -22.22798  0.34448  1.48458      14.7329   1.5299  1.21003  10.47365  0.05179     0.49994   8006.46821    6588.2195  4.29738          5095.4684     20.90886  0.45039  58007.61657   4.00504    3.608   10712.40682  48.08042  18.20691  58018.83844    50.89844       44.12351   15.44766  37.04655   39.0    0.34822  -21.65795  0.98609 
  -20.08511  0.25952  1.33851     14.73882  1.40472  1.05221  11.44686  0.04757     0.31691  10879.54765   6758.38495  2.21872         4590.97153     20.60347  0.22295  58009.75944    8.0823  2.97064    7780.55125  48.27218  18.42034  58029.84455    50.80727       43.97689   18.52327    50.939   36.5    0.40984  -21.29996  0.99125 
  -27.86612  0.45319  1.17949     14.93304  1.79964  1.46085   8.98851  0.09711     0.49996  15710.80342   4580.96547  2.93941         3095.73371     19.60988  0.02263  58001.97843  13.23462  4.07349    3164.57859  48.88033  18.05996  58032.32801    50.70326       44.03547    11.8246  25.22194   50.0    0.35321  -20.97486  0.99765 
  -26.82414  0.38829   1.1948     14.80709  1.28466  0.58069   7.67217  0.09832     0.46991  13162.41769   5374.78625  0.76808         4657.83704      19.4951  0.01737  58003.02041   7.92897  2.97902    4140.14406  48.60603  18.28278  58024.23427    50.72389       43.92053   18.52327  46.30818   39.5     0.3914  -21.05588  0.99004 
  -32.77938  0.26584  1.01928     14.76691  1.74936  1.54939   7.70128  0.09029      0.4999   6224.36642    9135.5594  4.21964         4272.48867     19.44061  0.01532  57997.06517   1.77984  2.04732     4936.9006  48.80169  17.90444  58021.53635      50.722       43.91908   16.20786  39.36195   62.5     0.2008  -20.41662  0.99861 
  -29.45203  0.25187   3.0193     14.90048  1.79722  0.68505   8.25299  0.06783         0.5   6911.88508   8671.82048   2.7866         5112.45101     18.55747  0.00201  58000.39252   2.35197  2.07868    24058.3132  47.18237  18.24493  58026.93218    50.99204       44.33539   16.20786  32.41573   38.5    0.32247  -21.23315  0.92816 
   -31.5824  0.39927  2.31895     14.89698  1.81598  0.90587    7.4191  0.12945     0.49962    9904.8149   5533.58557   2.8938         5343.81083     18.83579  0.00381  57998.26215   4.34181  2.96221   14573.31952  47.63381  18.28027  58029.84455    51.04788       44.35416   11.57705  32.41573   51.5    0.24395  -20.98759  0.96166 
  -24.16342  0.45381  1.79048     14.81575  1.55784  1.39537   5.50788   0.1382     0.42524   11381.5726    7189.1859  3.89138         4535.00219      16.0906    1e-05  58005.68113   4.25614  2.49951   10833.88257  47.92064  18.24729  58026.93218    50.84872       44.11289   11.57705  37.04655   40.5     0.3567  -21.10299  0.98732 
  -32.39228  0.35548  0.83549     14.94616  1.95926  1.36686  14.50265  0.08877     0.48553  19192.78719   4097.72506  1.11512         3237.39871     20.47214  0.16477  57997.45227  31.86768  5.15539    1627.33635  49.50558  17.76457  58013.44261    50.77046       43.98347   16.20786  43.99277   48.0    0.31178  -21.02991  0.99927 
    -29.893  0.35748  2.81756     14.90005  1.58925  0.55903   7.15688  0.08046     0.46485   8192.31309   6002.72429  3.93362         3577.59335     18.21515  0.00091  57999.95155   2.86526  2.55848   18563.37831  47.30163  18.25061  58021.53635    50.90772       44.16022   13.89245  32.41573   47.0    0.30706  -20.93301  0.90848 
  -24.23133  0.33486  1.54779     14.74772  1.70984  1.11457   7.72671  0.07331     0.48725  12925.72982   6224.28718  1.16684          2402.5982     16.68629    3e-05  58005.61322   7.70073   2.5874   12154.88647  48.03763   18.1632  58026.93218    50.81358       44.08848   16.20786  34.73114   39.0    0.43669  -20.93309  0.98841 
  -31.23083  0.47226  1.29494     14.71178  1.29903  1.14303   6.06484  0.07892     0.49804   7104.20242   6030.61114  4.49404          4261.3359     18.09702  0.00069  57998.61372    1.8259  2.86416    7627.51353  48.27558  18.34849  58032.32801    50.73178       44.05869   11.57705  30.10032   61.5    0.28469  -20.76435   0.9923 
  -34.04955  0.25184  1.63381     14.59127  1.16911  0.88049   9.69495  0.06346     0.49298   6108.29367   7420.59365  4.56168         5523.30899     16.79728    3e-05    57995.795   2.15781  2.44154    19034.3249  47.63076  18.09451  58021.53635    50.72617       43.91305   18.52327  43.99277   57.0    0.23026  -20.97635  0.96755 
  -30.28722   0.1872  0.91529     14.97785  2.07004  1.04746  19.22262  0.06627      0.4373   16516.4541   4843.35988  0.19792         4948.26996     18.26877  0.00103  57999.55733  31.28048  3.59857    1783.28239  49.41048  18.33196  58029.91855    51.24077       44.76713   11.57705  23.15409   52.0    0.33798  -20.87654  0.99919 
  -18.81958  0.19671   1.0065     14.93184  1.65726  1.27557  10.95593   0.0376     0.07465   7402.81408   8256.56478  3.59223          4544.8504     18.44723  0.00156  58011.02497   3.58154   2.1551    2133.83263  49.15345  18.33262   58029.6301    50.84255       44.05288   17.76307  43.99277   42.5    0.33934  -20.82317  0.99928 
  -31.01513  0.43797  1.55337     14.77656  1.48196  0.61452   7.44677   0.0247         0.5   9715.90634   5050.96585  2.39365         2911.54453     19.14269  0.00772  57998.82942   4.19336  3.26145    9291.24604  48.08906  17.89319  58018.83844    50.85723       44.04908   13.89245  41.67736   52.0    0.61222  -21.09556  0.97272 
  -29.74923  0.26571  1.35879     14.71884  1.71975  1.43786   9.06878  0.13819     0.49887     13378.24   6923.88478  4.20467         3159.63922     16.77843    3e-05  58000.09532    9.6822  2.40965    10762.1908   48.2061   18.3816  58032.32801    50.88609        44.3496    9.26164  20.83868   42.0    0.28536  -20.95101  0.99372 
  -37.72983  0.34067  0.82773       14.671  1.14205  0.49083   9.17454  0.09653         0.5  10670.00948   5266.12039  0.58465         3042.16303     18.29395  0.00109  57992.11472   6.23076  3.12545    3305.80356  48.97148  18.19246  58024.23427    50.90704       44.18262   15.44766  37.04655   69.0    0.23853  -20.57608  0.99388 
  -30.51169  0.41567  1.50898     14.94442  2.04038  1.03289   5.61813  0.27042     0.44598  15141.39781   7021.40017  4.23281         4364.80687     19.64911  0.02476  57999.33286   7.68335  2.33528    5572.48847  48.47514  18.21871  58029.91855    50.85869        44.1111   13.89245  37.04655   49.0     0.2946  -20.90161  0.99554 
  -21.94488   0.2258  1.09901     14.79195  1.92605  1.39877  12.40561  0.05522     0.47245  14151.01887   5727.95174  0.29307         3437.72318     19.91463  0.04564  58007.89967  14.81907   2.8012    5631.00956  48.72092  18.27172  58029.91855    50.80974       44.06294   13.89245  37.04655   30.5    0.60193  -21.31102  0.99766 
  -24.45418  0.29179  0.82198     14.76785  1.27509   1.2554  11.25325  0.05863     0.47737  12120.22132    5450.4282  2.75257         4137.35568     18.79281  0.00345  58005.39037   9.86112  3.28354    2330.10886  49.17729   18.1666  58024.23427    50.75193       43.96912    25.4695  41.67736   35.0     0.4362  -21.38815  0.99895 
  -27.47861  0.32651   1.6585     14.83524  1.71203  0.88246   6.81495  0.16362     0.47627  13541.99734   7374.08695  1.32783         5362.94152     18.08951  0.00068  58002.36594   7.45513  2.22516    9338.59499  48.09265   18.1584   58029.6301    50.76837       44.03844   16.20786  37.04655   34.5    0.33186  -21.31549  0.98821 
  -39.92662  0.43911  6.28614     14.74784   1.5488  0.27793   3.16178  0.17242      0.4036   8860.93542   7826.51357  2.63277         4593.78058     19.74248  0.03071  57989.91793   1.48087  1.38835  181508.85624  45.60317  18.20727   58029.6301    50.80046       44.00879   13.89245  37.04655   46.0    0.32967  -21.01535  0.74194 
  -33.79774  0.27408  0.79582     14.67979  1.67764  1.55134   9.35645  0.24983     0.34887  15281.14889   5497.80823  4.51915         2690.15191     19.20634  0.00893  57996.04681  13.03317   2.5644     4310.8339  49.05735  18.18457   58029.6301    50.75599       44.05262   13.89245  32.41573   72.0    0.21772  -20.40389  0.99903 
    -22.935  0.17423  1.28686     14.93761  1.99346  1.54254  16.10507  0.04276     0.49133   11609.5945   6038.30834  1.39273          5833.1943     18.32974  0.00119  58006.90955  12.94863  2.80606    4085.65311  48.73813  18.31969  58026.93218     50.9261       44.26753   11.57705  30.10032   29.0    0.47562   -21.6322  0.99779 
  -33.46062  0.20595  2.24167     14.72039  1.67337  1.11067  11.04611  0.07232     0.07041   8149.04016   7076.33236  2.96118          4723.3401     17.52373  0.00019  57996.38393   4.37572  2.27492   28299.03909  47.33953  17.93593  58029.84455    50.60329       43.98708    9.26164  23.15409   57.0      0.243   -20.7052  0.96092 
  -32.79515  0.26025  0.82224     14.95244   1.8751  0.92326  11.62865  0.17362     0.45064  16977.20121   5584.44621  3.99142         3847.38269     16.66793    3e-05   57997.0494  19.99349  3.02633    1465.35472  49.54594  18.13501   58029.6301    50.78224       43.95824   16.20786  41.67736   74.5    0.25899  -20.57845  0.99941 
  -33.15988  0.20203  0.98182     14.82717   2.0009  0.75295  14.29987  0.01526     0.16745  12159.09985   6253.03311  0.47785         3841.50727     18.41568  0.00145  57996.68467  12.61136  2.88896    3969.86936  48.98723  18.26025  58021.53635    50.80973       44.05309   18.52327  39.36195   50.0    0.59128  -21.00921  0.99734 
  -37.50267  0.27334  2.04748     14.83605   2.1793  1.21578  11.70843    0.052     0.46081   9566.11241   5947.64827  0.87849         5395.06251      18.5417  0.00193  57992.34188   6.39141  3.20041   18049.60488  47.72826  18.00255  58018.83844      50.743       43.93189   18.52327  46.30818   68.5    0.27477  -20.72938  0.97587 
   -28.4808   0.2613  0.97247     14.89513   1.2848  1.46845  13.52723   0.0346     0.22256   9610.89772   5509.12181  4.52458         5421.44428     17.17506    8e-05  58001.36375   7.45357   3.5346    1828.66983  49.13979  18.11338  58024.23427    50.90479       44.04951   18.52327  53.25441   36.5    0.37169  -21.64574  0.99887 
  -45.22224   0.1538   1.6154     14.45496  1.97818  1.45764  15.34243    0.021         0.5   9629.91101   6422.82054  0.15708         2115.68552     18.92589  0.00468  57984.62231   8.48723  2.35971   58983.03338  47.37783  18.38092  58024.23427    50.97779       44.41783   11.57705   25.4695   58.0    0.36261  -20.80305  0.97842 
   -19.3005   0.1927  1.13475     14.95498   1.8788  1.43451  11.64995  0.09532         0.5  15378.16386    7466.3633  2.92669         5263.99825     18.47551  0.00166  58010.54405  16.43463   2.2449       2764.03  48.99138  18.29577   58029.6301    50.87803       44.17058   11.57705  34.73114   38.5    0.35552  -21.09728  0.99899 
  -33.58354  0.17918  0.90585     14.77716  1.63687  1.03795  13.46796   0.0998     0.19052  13185.42653   7672.51536  1.63859         4854.61078     16.69966    3e-05  57996.26101  13.96746  2.41319    3480.35419  49.02712  18.00628  58018.83844    50.73288        43.9128   23.15409  43.99277   60.0    0.20941  -20.58845  0.99868 
  -28.70672  0.28679  1.33481     14.69845  1.70431  1.55474   8.87808  0.03037     0.49367   4325.83773   7141.53971  1.74462         5422.67937     17.44279  0.00015  58001.13783   0.99103   2.5461   11305.95578  48.19625  18.18624  58032.32801    50.74504        43.9708   16.20786  39.36195   47.0    0.31825  -20.99629  0.99335 
  -23.18765  0.34107  0.95412     14.91251  1.73519  1.38312    6.8692   0.0407         0.5   4212.74046   6954.10409  4.03895         4660.00272     19.46574  0.01624   58006.6569   0.72721  2.34287    2194.58147  49.20764  18.02948  58021.53635    50.75397       43.98338   13.89245  34.73114   46.5    0.27551  -20.92843  0.99935 
  -33.90823  0.12016  1.31693     14.84902  1.95353   1.4588  19.13211  0.04234     0.08917   8130.41679   7902.12809  3.87741         5173.17857     17.41853  0.00015  57995.93632   7.54424   2.2989    6305.57122  48.52081  17.99821  58024.23427    50.79418       43.95276   16.20786  46.30818   62.5    0.24884   -20.7329  0.99702 
  -10.35602  0.18218  0.79708     14.90646  1.36523  1.29156  15.47548  0.02023      0.1507  11326.67582   5822.52552  3.13041         3656.88495     17.07955    7e-05  58019.48853   11.8434  2.81925    1239.11612  49.50794   18.2338   58029.6301    50.92825       44.12581   16.20786  43.99277   53.0    0.50805  -20.77998  0.99959 
   -23.5814  0.16536  1.31913     14.99993  1.63328  1.43855  20.32728  0.02683     0.09589  10133.03427   5457.44876  4.73134          5343.1884       19.831  0.03765  58006.26315  12.45046  3.36141    2639.95182  48.81973  18.35984  58035.02593    50.86526       44.30799   11.57705  23.15409   39.5    0.36218  -21.45088  0.99775 
  -31.46166  0.17986  1.70287     14.89865   1.7599  0.92032  15.57424    0.046     0.49987   7862.15336   6200.63374  3.94113         5734.61681     18.12987  0.00075  57998.38289   5.74271  2.80119     7557.3494   48.1736  18.05005  58035.02593    50.71645       44.03514    11.8246  27.53735   47.5    0.25537  -21.16782  0.98799 
  -34.58847  0.29722  1.97695     14.69552   1.9177  1.26759   9.02552  0.08512     0.47893   9629.06205   5911.45209  2.51335         2929.98347     17.94925  0.00049  57995.25608   4.99192  2.68256   28285.17432  47.50807  18.35136   58029.6301    50.95784       44.33854   11.57705   25.4695   61.5    0.25437  -20.62118  0.97143 
  -25.45183  0.12664  1.22921      14.9849  1.94311  1.50082  21.99495  0.02693     0.08494   7584.21247   6843.88902  4.94476         5839.32833     18.92247  0.00465  58004.39272   7.54694  2.78546    2922.63249  48.91232  18.26755  58024.23427     50.9779        44.2337   16.20786  37.04655   32.5    0.31948  -22.12195  0.99852 
  -33.40307  0.21185  0.80482      14.7483  1.64005  1.57043  16.98674  0.01051         0.5   8798.43402   5071.65505   4.8074          3515.3646     19.92996  0.04728  57996.44148   7.84419  3.59862    3143.94684  49.17483  18.19172   58029.6301    50.79165       44.01469   13.89245  39.36195   52.0    0.61768  -21.13539  0.99896 
  -32.67242  0.22628  0.82824     14.72111  1.21366  1.01765  15.61991  0.05592     0.48945  11386.76202   5389.62858  2.47128         4963.23838     17.25632   0.0001  57997.17213  12.08109  3.53444    2792.52032  49.07063  18.31453  58035.02593    50.99082       44.40437   13.89245   25.4695   65.5    0.26309  -20.83954   0.9982 
  -13.71498  0.34648  0.70076     14.88395  2.11334  1.35295   7.48975  0.06087         0.5  15955.97093   5900.33141  0.21243         2416.88622     16.46303    2e-05  58016.12957  11.37473  2.59504    1644.43826  49.68666  17.92657  58021.53635     50.7103       43.91623   16.20786  41.67736   30.5    0.72058  -21.07493  0.99976 
  -35.29362   0.4512  1.18241     14.70045  1.62536  1.11414   6.14423  0.27231     0.49863  14234.93872   6066.98825  0.79368         5123.44871     16.84401    4e-05  57994.55093   7.42687  2.77227    8382.86864  48.41087  18.27254  58035.02593     50.7792       44.11655    9.26164  27.78491   67.5     0.2456  -20.57764  0.99446 
   -34.0373  0.40205  1.19666     14.78286  1.20691  0.62693   7.82622  0.11604      0.3638  11009.39339   5377.18085  3.40135         3888.18504     16.74835    3e-05  57995.80725   5.65856  3.14652    4362.29331  48.55486  18.22872  58035.02593    51.03815       44.50364    9.26164  20.83868   66.5    0.26064  -20.65505  0.98954 
  -29.26354  0.08214  1.56784     15.00231  2.11538  0.87166  25.51952  0.02226      0.4999   6198.60838   8249.74031  3.49225         4473.10709     18.15192  0.00079  58000.58101   5.84909  2.09629    4777.41201  48.52444  18.32001  58035.02593    50.93469        44.4135    6.94623  23.15409   44.0     0.2251  -20.98709  0.99553 
   -37.3952  0.33889  1.65788       14.698  1.66634  1.54702   8.20745  0.14119     0.25664   11049.2529   5785.04129  3.90659         4217.28311     17.43106  0.00015  57992.44935   5.97724  2.78143   17088.04374  47.81881  18.13423   58029.6301    50.75961       43.99454   16.20786  37.04655   70.0    0.23294   -20.5592  0.98376 
  -26.16893  0.47573  0.87795      14.8869  1.24458  0.60193   6.62969  0.21575         0.5   17691.3509   5063.32888  3.00714         3542.19572     18.47496  0.00166  58003.67562  12.37777  3.15393    1499.59975  49.30096  18.01882  58021.53635    50.73676       43.93577   16.20786  42.89949   44.0    0.33937  -21.00088  0.99788 
  -35.44096  0.47593   1.1526     15.09674  1.23605  0.21161   6.90564  0.02864     0.23765   8919.99983    5083.9018  1.31289         4675.97868      18.4932  0.00173  57994.40359   3.27764  3.28662     976.63352  49.24779  18.08236   58029.6301    50.77137       43.99187   13.89245  38.26867   56.5    0.50215  -21.00611  0.98415 
  -26.34382  0.41792  1.87688     14.79637  1.99324  1.40754   6.14848  0.14443     0.49719  11783.30729    5923.1784  1.69038         3429.14591     17.53288  0.00019  58003.50073   5.09248   2.5696   16653.57693  47.80002  18.29581  58035.02593    50.96241       44.36463    9.26164  27.78491   42.5    0.34352  -20.93358  0.98419 
    -9.7604  0.46637  0.98502     14.78438   1.0972  0.64046   4.94149   0.0643     0.43994  10349.81759   8392.41641  2.12221         3437.19604     18.89505  0.00436  58020.08415   3.15755  2.30459    2668.30081  48.89601  18.23519  58026.93218    50.79285       44.09118   13.89245  32.41573   32.5    0.58052   -20.8266   0.9965 
  -16.92238  0.16215  1.06823     14.92339  1.48911  0.95578  12.89989  0.04016     0.46645   8967.69888   8681.01953  3.43618         5009.93378     18.96793  0.00516  58012.92217   6.18835  2.09169    2245.44485  49.03314  18.19389  58024.23427    51.03104       44.27732   13.89245  39.36195   28.5    0.43012  -21.98094  0.99874 
  -37.73633  0.33571  2.30424     14.53425  1.75704  1.28207   7.98194  0.09609     0.49638   9596.66266   5750.81212   1.0548         2674.63654     18.77095  0.00328  57992.10822   4.38507  2.67964    73986.2047  46.91942  18.23386  58024.23427    50.94705        44.0759   18.52327  55.56982   61.5    0.25834  -20.64884  0.93925 
  -30.58081  0.25411  0.78473     14.59549   1.1181  0.56201  12.33479  0.02802      0.4789   9818.70687   5264.14183  0.34206         3653.99181     20.00832  0.05663  57999.26374   7.09361  3.13435    4118.62952  48.91313  18.28281  58032.32801    50.71623       44.03561   11.57705  27.78491   58.5    0.42555  -20.82788  0.99449 
  -29.13678  0.16639  0.83989     14.81991  1.74962  1.08999  14.98694  0.12747     0.34643   16250.7237   7368.32458   3.5331         3395.38681     18.40344  0.00141  58000.70777  23.60944  2.49363    2626.63228  49.24394  18.04539   58010.7447    51.21526       44.49262   16.20786  39.36195   43.5    0.24583  -20.99358  0.99922 
  -32.39277  0.33196  0.80329     14.90802   1.6968  0.75239  10.72062  0.18662     0.49998  19243.98058   4761.33558  0.07697         5323.78378     17.95561   0.0005  57997.45178  23.68302  3.55883     1552.9284  49.49758  18.29516   58029.6301    50.95492       44.23561   13.89245  37.04655   59.5    0.27859  -20.75417  0.99895 
  -32.27027   0.2102  0.78235      14.8825  1.89654  1.00573  14.79082  0.14912     0.49983  19293.74699   5170.78852  1.67479         3364.28628      16.6895    3e-05  57997.57428  32.84375  3.10898    1851.77097  49.49241  18.30753   58029.6301    50.74549       44.00744   13.89245  34.73114   63.0    0.27497   -20.6785  0.99939 
  -17.27484  0.19098  1.37006     14.90683  1.88194  1.38257  12.92586  0.03542     0.49912   9626.88857   7877.15321  3.80232         3173.36133     17.61907  0.00023  58012.56971   7.14593  2.46853    5037.82939  48.56773  18.17177   58029.6301    50.81679       44.00423   16.20786  41.67736   42.0    0.36183  -20.78294  0.99703 
  -31.18418  0.44707  1.71262      14.7495  1.66058  0.73845   6.88735  0.06289     0.40458  10155.02656   5101.91228  2.08025         2188.82975     18.20069  0.00088  57998.66037   4.23683  3.07913    14334.8465  47.86539  18.17087  58021.53635    50.85285       44.11875   11.57705  34.73114   57.5    0.36129   -20.8068  0.97044 
  -34.18648  0.15162  1.53191     14.88151  1.94728  1.10478    18.654  0.04687     0.15007   9855.06272   6682.27506  4.33525         3808.95296     19.98963  0.05424  57995.65807  10.80732  2.82837    7323.01072  48.32312  18.17941   58029.6301    50.85007       44.10014   16.20786  39.36195   69.0    0.25326  -20.60232  0.99301 
  -28.37337  0.42597  2.07066     14.83163    1.267  0.74476   6.11996  0.04974      0.4485   4988.24257   6984.09048   4.7289         5136.63381     18.98331  0.00535  58001.47118   0.90839  2.60691   10953.58422  47.69985  18.05361  58026.93218    50.74573       43.99028   16.20786  37.04655   33.5    0.34243  -21.64505  0.95925 
  -37.63752   0.2707  3.67808     14.47571  2.01539  1.26623    6.8638  0.05797       0.362   6023.01006    9905.6866  1.51043         3534.47374     19.24611  0.00979  57992.20703   1.48532  1.85804   283139.0426  45.98996  18.09954  58024.23427    50.77886        43.9231   18.52327    50.939   44.0    0.26171  -20.73903  0.90514 
  -34.17072  0.25966  0.73399     14.68604  1.74253  1.48676  16.05384  0.05275     0.48558  12899.67022   4836.21167  0.15998         4255.71493     20.40658  0.14168  57995.67383  15.93541   4.1686    3700.88652  49.21033  18.14478  58026.93218    50.69943       43.91325   13.89245  41.67736   65.5    0.28536  -20.83863  0.99888 
  -29.19326  0.11114   0.8929     14.88706  1.95752  1.41762    25.705  0.03926     0.48883  14061.27455   6620.53548  4.18112         2852.81192      17.4342  0.00015  58000.65129  30.31756  2.85694    2437.92099  49.27192  18.26234  58026.93218    50.96782       44.13539   16.20786  46.30818   44.5    0.35362  -20.94539  0.99932 
    -35.482   0.1479  1.05312      14.9981  1.57997  0.49749  14.89551  0.10203     0.49472  13564.51326    8767.6945  4.35126         5207.00113     19.01783  0.00579  57994.36255    16.349  2.20307    1641.44848  49.20731  18.26555  58026.93218    50.79791       44.04455   18.52327  34.73114   66.5    0.14236  -20.68347  0.99745 
  -33.99866  0.32106  0.83387     14.86764  1.65869  1.01404  11.40386  0.05813     0.49918   11154.9559    4651.2405  4.31128         2839.53584     18.23102  0.00095  57995.84589   8.46477   3.6613    1970.12945  49.35192  18.31953  58032.32801    50.89786       44.30823    9.26164   25.4695   68.5    0.26172  -20.62162  0.99902 
  -31.01245  0.15579     2.11     14.77667  2.03319  1.42039  14.54068    0.031     0.04201   5294.00287   8051.01651  2.03508         5748.24567     18.91818   0.0046   57998.8321   2.43097  2.26525   23507.87889  47.55725  18.10111  58021.53635    50.77431       43.97483   16.20786  39.36195   49.0     0.2602  -20.96594  0.97801 
  -18.29131  0.34389   1.8561     14.60587  1.23891   1.3076   6.66794   0.0561     0.11431   7723.57065   8061.19961  3.20862         3830.38498     19.90953  0.04511  58011.55324   2.37277  2.29302   24339.37376  47.43837  17.92297  58018.83844    50.75054       43.92455   18.52327  43.99277   39.5     0.4005  -20.87165   0.9681 
  -27.39269  0.17892  1.30119     14.80032  1.76614  1.56573  12.40271  0.08454      0.4958   9805.50278   7194.47217  4.18573         5845.26929     17.55875   0.0002  58002.45186    7.1135  2.21906    6964.30672  48.44431  18.27151  58032.32801    50.89692       44.11169   16.20786  39.36195   33.5    0.27083  -22.58933  0.99661 
   -32.6366  0.32031  0.99767     14.42073  1.71731  1.56987    6.4325  0.04081     0.48183   5646.46444   7983.61551   0.3805         5203.29575      16.1947    1e-05  57997.20795   1.22338  2.06037   22865.43967  48.14654   18.1648  58029.91855    50.67231       43.96036   11.57705  32.41573   58.0    0.30898   -20.6191  0.99467 
  -34.41823  0.46753  1.22717     14.58921  1.49839  1.50145   5.79339  0.17089     0.45622   9164.48901   5554.52373  1.55982         4214.83292     16.81893    4e-05  57995.42632   2.90253  2.70858   13894.07615  48.12383  17.80089  58013.44261    51.08929        44.6765    6.94623  16.20786   67.5    0.20728  -20.51836  0.99176 
   -29.4807  0.36542  0.88738     14.96268  1.10212  1.52856  12.21542  0.02368     0.47415  12674.25015    4600.1302  4.88303          4456.0198     20.37848   0.1328  58000.36385  11.70524  4.46371     956.96646  49.43396  18.26001  58026.93218    50.80167       44.04665   13.89245  39.36195   40.0    0.61177  -21.55468  0.99928 
   -13.2194  0.30122  2.43879     14.76278  1.87121  1.48531   7.96584   0.0165     0.44649    4401.3088   7653.73609  4.97786          2660.9574      16.0522    1e-05  58016.62515    0.9205  2.39943   30813.10176  47.27788  18.28955   58029.6301    50.98143       44.27625   13.89245  34.73114   38.0    0.52772  -20.74114  0.96041 
  -34.41071  0.24154  0.75578     14.88227  1.64902  0.66683  12.08398  0.11596         0.5  15919.95201   6756.93602   2.3772         2727.32874       20.041  0.06106  57995.43384  18.26924  2.91876    1504.11231    49.552  18.07053  58021.53635    50.73418       43.95529   16.20786  43.99277   59.0    0.30314  -20.66449  0.99907 
   -25.9885  0.31916  0.78673     14.53806   1.1995  1.28306   9.63859  0.13794     0.44158  16819.07698   5880.54306  1.46356         4316.77851     20.49087  0.17203  58003.85605  16.26466  3.07629    5785.53144  48.79386  18.25427  58037.72384     50.9424       44.34388   11.57705   25.4695   34.5    0.37401  -21.45882  0.99769 
  -32.55445  0.17536  2.12668     14.65857  1.65813  1.34806  11.75969  0.04592      0.0303   4489.55798   7316.77907  2.89092         5882.40158     17.21165    9e-05   57997.2901   1.41394  2.06215   33550.84539  47.30736  18.18499  58021.53635    50.74667       43.96335   16.20786  43.99277   56.0    0.19238  -20.83805  0.96752 
  -26.30544   0.4478  1.78343     14.99718  2.10933  0.92108   6.42309  0.17817     0.49996  15724.30539   5865.79651  2.16297         3291.99198     18.86881  0.00411  58003.53911   9.47358  2.87627    6311.08151  48.29038  17.98848  58024.23427    50.75948       43.98244   13.89245  41.67736   42.0    0.32578   -21.0006  0.99048 
  -14.49519  0.30538  3.39528     14.78949   1.4778  1.21161   7.44459  0.02247      0.1406   5197.50397   7241.31868  2.81261         5458.70453     16.15472    1e-05  58015.34936   1.19966  2.27343   41707.05055   46.7565  18.19671  58029.91855    50.87468       44.18915   11.57705  30.10032   30.5    0.51969  -21.28879  0.88762 
  -34.68044  0.36117  1.72794     14.93214   2.1386  1.53807  10.44789  0.06576     0.49174  11217.52042   5037.02498  4.70724         3177.25315      20.0302  0.05956  57995.16411   7.84241  3.77342    8104.48716  48.21519  18.20283  58032.32801    50.83825       44.13384   11.57705  32.41573   70.5    0.27159  -20.72622  0.99042 
  -32.57591  0.17038  0.73568      14.9606  1.97687  1.13429   24.0318  0.03006     0.44829   15660.3016   4612.58899  0.34822         2280.01342     16.74111    3e-05  57997.26864  35.15715  4.09462    1191.17911  49.75546  18.22776  58024.23427    50.79133       43.98621   16.20786  42.89949   59.5    0.36587  -20.82946  0.99962 
  -32.83623  0.32994  1.02221     14.87883  1.56461  1.20546  11.58663   0.0846     0.49898   13071.2641   4899.19018  3.54451         4528.66103     18.09609  0.00069  57997.00832  11.80917   3.8229    2652.42796  49.02053  18.16933  58026.93218     50.7525       43.97916   13.89245  39.36195   59.5    0.27766  -20.88204  0.99819 
  -24.10405  0.10776  1.04978     14.64113  1.48815  1.27119  24.08327  0.01268     0.42583   6719.16858   7080.22104  2.47959         3008.74772     16.45124    2e-05   58005.7405   6.48595  2.59515    7950.78042  48.49888  17.98396  58024.23427    50.80875       43.94856   16.20786  48.62359   49.5    0.34401  -20.82338   0.9962 
  -34.04612  0.19955  1.01374     14.94023  1.36575  0.42717  15.30751   0.0385     0.35306  13147.60818   8210.71711  0.42809         5500.50324     16.87825    4e-05  57995.79843  15.78429  3.05467    1716.24893  49.15778  18.20749  58026.93218    50.96365       44.26916   13.13225  32.41573   47.0    0.39799  -20.82632  0.99482 
  -34.02704   0.1043  2.11814     14.74723  1.79929  1.18495  25.14742  0.01893         0.5   6427.84326   7081.04498  2.67649          4259.7672     19.55773  0.02007  57995.81751   6.19799  2.62299   24008.28094  47.49168  18.30708  58029.91855    50.85545       44.09781   13.89245  34.73114   65.5    0.25838   -20.6323  0.96766 
  -32.36766   0.3186  2.48002     14.46738  1.72388  1.47345   8.88438  0.05802     0.49238    6697.8599   7629.05799  2.30504          3690.0237     20.73202  0.29974  57997.47689   2.37753   2.8306  114412.81292  46.65797  18.21619  58037.72384    50.87094       44.30176    6.94623  23.15409   52.5    0.25782  -21.01999  0.92053 
  -32.31277  0.48406  0.78295      14.8774  1.10579  1.17795    9.6961  0.07167     0.49291  16354.70881   4137.72776   2.0628         5153.75839      17.6161  0.00023  57997.53178  15.47069  4.69352    1107.04037  49.48088  18.14901  58021.53635    50.79972       44.02626   18.52327  39.36195   48.0    0.40517  -21.16051  0.99921 
  -18.55423  0.16763  0.73526     14.91926  1.74634  0.85076  17.27362  0.02572         0.5  10837.55908   5486.44546  4.72346          2174.1647     19.67797  0.02647  58011.29032  12.10246  2.89551    1271.47143  49.67378  18.33181  58032.32801    51.07412       44.54578    9.26164  23.15409   45.5    0.34852  -20.91981  0.99953 
  -30.99603  0.36254  1.91452     14.63968  1.51781  1.49009   8.30532  0.08242      0.4895   9507.68128   5970.59428  4.57627         3407.46897     20.17574  0.08327  57998.84852    4.4785  3.01103   27151.61907  47.45215  18.15626  58032.32801    50.97504       44.24694   13.89245  34.73114   58.0    0.28403  -20.83265  0.96369 
  -21.86732  0.21746  1.68398     14.83632   2.1248  0.98302  12.74518  0.01659     0.39819   8615.85103   5448.28596  1.00943         2395.67464     19.51356  0.01813  58007.97723   5.64377  2.77152   11889.81952  48.06831  18.24191  58032.32801     50.9396       44.28631   11.57705  30.10032   63.0    0.52724  -20.73039  0.98714 
  -33.21707  0.41339  1.21223     14.93464  1.72217  1.01382   9.31583  0.14299     0.44272  15132.99285   4956.39924  3.44473         5820.03616     17.39991  0.00014  57996.62748  12.72619  3.85104    3175.27399  48.83597  18.17555  58040.42176    50.85439       44.26581    9.26164  23.15409   51.5    0.28463  -21.11029  0.99664 
  -26.72944    0.383  6.97808     14.81825  1.53276  0.43734    5.4722   0.0181         0.5   5580.27037   9115.61076  2.05701         5327.18429     19.35886  0.01269  58003.11511   1.01648  2.09584   160051.6008  45.56259  18.32597  58029.91855    50.87526       44.23654   11.57705   25.4695   37.5    0.58813   -21.2076  0.60646 
    -11.314  0.23091  2.02912     14.99262  1.90447  0.72727   8.98657  0.02652         0.5   7842.97184   9199.25084  1.47903         5144.59487     18.23935  0.00096  58018.53055   3.29748  2.07511    7533.09972  48.05703  18.33724   58029.6301    50.79376       44.11551   11.57705  27.78491   28.5    0.62398  -21.11936  0.98435 
  -32.93675  0.28189  2.38977     14.76416  1.87525  1.13554  10.07859  0.05746     0.08391   7969.81687   6422.88307  4.32628         3114.80731     17.38894  0.00014   57996.9078   3.81877  2.84103    29462.0606  47.31593  17.97761  58018.83844    50.75114       43.92102   20.83868  46.30818   67.5     0.2541  -20.61991  0.95182 
  -27.15086  0.26583  1.07142     14.44904  1.14965  1.55857   8.54993  0.13592     0.49885  13900.64877   6673.52228  1.09495         4432.54483     16.27759    1e-05  58002.69369   9.85508  2.27284   15496.23794  48.07926  18.01794   58029.6301    50.88031       44.08373   16.20786  39.36195   36.0    0.36506  -21.07883  0.99234 
  -25.56531  0.16552  1.12512     14.99106   1.7625  0.80579  18.75032  0.05031     0.49953  12036.83625   5412.25413  1.92879          5907.8517     19.67761  0.02644  58004.27924  16.20543  3.10347    2158.89769  49.07835  18.27463   58029.6301    50.87325       44.06863   16.20786  40.58408   37.5    0.33018  -21.37888  0.99785 
   -18.4137  0.25845  1.59446     14.92908   1.5115  0.74484   8.50257  0.08405     0.19168   12070.8677   8753.94763  3.80956         3613.76598     16.53113    2e-05  58011.43085   7.39017   2.1975     4946.3206  48.34874  18.32719  58032.32801    50.69608       43.98931   11.57705  34.73114   29.5    0.46198  -21.34394  0.99115 
