 texplosion  fnickel    Pspin  log(Bfield)      Mns  thetaPB   mejecta    kappa  kappagamma      vejecta  temperature    alpha  cutoff_wavelength  log(nhhost)      A_V         MJD0   kenergy   mnickel            TSD   log(L0)  Peak_mag     Peak_MJD  log(E_rad)  log(Peak_lum)  Rise_Time    E_fold  tau_1  delta_m15     r_peak     frac 
   -55.1864  0.00161  1.35158     14.27368  1.89758  1.15159  13.75826  0.03289      0.0206   5116.57172   7460.51438  2.26676         2911.81682     20.03186  0.05978   55823.4136   2.14857   0.02214    91272.91559  47.32502  22.17913  55875.08898      51.361       44.78544   16.83156  30.85786   41.5    0.22971   -21.5949  0.99983 
  -53.43603  0.06154  1.03298     14.28342  1.77136  1.52783  36.21184   0.0263     0.01377   8686.89823    3371.2793  2.48082         2607.30837     18.70052  0.00279  55825.16397  16.30074   2.22863    47585.24749  47.81149  22.15632  55872.69048     51.3405       44.66792   25.24734  34.59821   44.0    0.20945  -21.68007  0.99097 
  -47.19436  0.00662  1.39484     14.14417   1.7791  1.18393  22.31437  0.01931     0.03573    7170.6668   6829.17462  1.52512          2916.1802     20.59486  0.21857  55831.40564   6.84433   0.14773   165469.93801  47.01128  22.27735      55878.6    51.24092       44.67952   16.83156  28.58129   41.0    0.29424  -21.84902  0.99858 
  -50.06772  0.00831  1.14266     14.27463  1.60879   0.9586  14.05123  0.05237      0.0237   7752.70752   8354.01571  1.79417          2827.9951     16.25238    1e-05  55828.53228   5.03789   0.11674    55066.43751  47.61862  22.20855      55878.6    51.25962       44.69887   17.76665   28.0526   37.5    0.23613    -21.581  0.99921 
  -47.05406   0.0528  0.85944     14.34517  1.69866  0.87421  10.28929  0.17353     0.04142  14065.00246   4779.95613   1.7704         2383.37555     18.78537  0.00339  55831.54594  12.14205    0.5433    23768.47621  48.25452  22.25688      55883.6    51.33037       44.76032   19.63682  28.98769   34.0    0.24027  -21.95899   0.9985 
  -44.12011  0.02384  1.52185     14.42874  1.89611  0.81864   8.56147   0.0993      0.1837   9169.70418   3797.09883  2.66986         2560.38662      19.7194  0.02912  55834.47989   4.29424   0.20411    56616.14394  47.42903  22.13017  55865.49499    51.43622       44.70203   28.98769  37.93509   38.5    0.25509   -21.6644  0.99798 
  -50.23274  0.28152  1.45172     14.47328   1.8845   0.9561  27.12774  0.02479     0.09498   8646.22059   7269.07912  2.49301         2639.51852     18.78847  0.00341  55828.36726  12.09744   7.63697    41708.68341  47.60005  22.24781  55879.88598    51.29367       44.72422   15.89647  30.85786   70.5    0.21897  -21.67738  0.94128 
  -38.57908  0.11354  1.20943     14.28305  1.63907     1.13   4.98103  0.23936     0.20431  12305.13747   4529.96023  2.85727         2540.56952     16.50533    2e-05  55840.02092   4.49903   0.56556    60462.09374   47.5368  22.19221  55877.48748    51.31829       44.69164   18.70173  33.66312   35.0    0.26961    -21.818  0.99596 
  -66.86179  0.02655  2.87937     14.05386  1.98105  1.27699   4.52892  0.08419     0.07529   6698.63076    8418.3887  1.70933         2769.70907     18.60571  0.00224  55811.73821   1.21225   0.12023  1190096.92334  45.57156  22.04836  55863.09649    51.51108       44.86117     21.507  34.59821   58.5     0.2173  -21.50843  0.99568 
  -47.70757  0.11655  1.63544     14.15531  1.61979  1.54397   5.28165  0.10551     0.17717    6897.1902   9695.40381  2.16593         2777.94414     17.06088    6e-05  55830.89243   1.49879   0.61558   196753.41843  46.75711  22.15084  55867.89349     51.4633       44.72779   28.98769  39.27364   38.0    0.24934   -21.5305  0.99074 
  -66.54097  0.00166  1.22503     14.05848   1.6122  1.22126  10.82494  0.09157     0.01615   8559.23932   6986.98423  2.05631         2549.64083     20.33255  0.11948  55812.05903   4.73067   0.01799   171620.40776   47.0654  22.18547      55883.6    51.35371       44.73034   22.87581  30.72125   42.0    0.20541   -21.5598  0.99985 
  -61.19205  0.04719  1.00945     14.31381  2.03693  1.38351  17.98972  0.06505     0.12695    8995.5757    4933.4348  2.00851          2629.7971     19.89826  0.04395  55817.40795   8.68379   0.84898     45429.3349  47.91232  22.25997      55885.6    51.23933       44.63721     21.507  29.92278   44.5     0.1918  -21.51558  0.99726 
  -79.65489  0.04309  1.83472     14.12275  1.84869   1.2783  28.63077  0.01864     0.04901   5345.41595   6603.56197   1.6057         2843.19825     18.18114  0.00084  55798.94511   4.88004   1.23366   328334.34336  46.49225  22.15332  55865.49499    51.42177       44.75885     21.507  36.99707   68.5    0.16747  -21.02546  0.98064 
  -72.80349  0.22478  2.82685     13.98748  1.78027  1.20599   8.17154  0.03275     0.17012   5293.74081   4540.82392  2.07621         2871.77222     18.80599  0.00355  55805.79651   1.36602   1.83682  1399447.03228  45.47077  22.26856      55885.6    51.26058       44.67166    20.1497  26.60464   87.0    0.20986  -21.37574  0.93014 
  -63.10542  0.02171  0.79833     14.13724  1.55253  1.17009   9.71746  0.23795     0.05803   14379.7952   5010.16506  1.41068         2220.82728     18.06488  0.00065  55815.49458  11.98631   0.21101    48834.89424  47.96679  22.15188      55879.6    51.28974       44.72418   15.89647  30.85786   36.5    0.21304  -21.69829  0.99934 
  -65.64271  0.00319  1.32046      14.2426  1.36558   0.5341   6.61994  0.15497     0.08945   9790.50256   5575.73505  1.45383         2827.92955      19.4777  0.01669  55812.95729   3.78522   0.02113    72340.38428  47.30333   22.0331  55863.09649    51.35874       44.67195   20.57191  40.20873   42.5       0.22  -21.60253  0.99973 
  -44.76515  0.00912  3.29141     13.88286  1.67149  1.35788   4.45815  0.04914     0.06578   8975.72509   5612.90887  2.16896         2791.32024     19.41536  0.01446  55833.83485    2.1425   0.04067   2883806.1004  44.99722  22.06891  55870.29199    51.38788       44.71731   20.57191  37.58421   65.0    0.27898  -21.66594   0.9975 
  -96.65213  0.00113  0.94252     14.19108  2.02348  1.55133  80.60274  0.01629     0.02722   7710.51539   3326.90484  1.56347         2606.78065     16.12952    1e-05  55781.94787  28.58537     0.091    69235.98752  47.78603  22.07672  55863.09649    51.45694       44.77171   19.63682  37.40347   49.5    0.20494  -20.76758  0.99971 
  -32.99693  0.49235  1.30148     14.44798  1.59837  1.12744  17.55457  0.01892     0.04445   7560.19801   6215.76293  2.29594         2885.62845      19.4663  0.01626  55845.60307   5.98527   8.64298    31944.79693  47.73925  22.16189      55878.6    51.44929       44.87835    14.0263  31.79295   96.0    0.30777  -21.55464  0.94491 
  -45.63466  0.00858  0.79769      14.1641  1.47529  1.56751   8.46704   0.1793     0.29038  12106.66702   4059.05168  4.09037         2219.01704     17.13969    8e-05  55832.96534     7.403   0.07266    40942.21538  48.02188  22.25376      55879.6    51.28692       44.67729   20.57191  28.58129   37.5    0.19836  -21.78712  0.99979 
  -40.75377  0.04922  0.94344     14.36475  1.66615  1.02622  18.62762  0.02505     0.29856   5989.23017   8064.88433  2.15167         3004.36473     19.28957  0.01082  55837.84623    3.9859   0.91677    25672.23274  48.13167  22.11297  55870.29199    51.40326       44.78091    14.0263  30.85786   36.5    0.26996  -21.55474   0.9971 
  -61.74601  0.28443  1.45695     14.28417  1.84902  1.15463   7.98921  0.09909     0.03485   7430.63905   9958.70718  2.75236         2516.20611     16.72209    3e-05  55816.85399   2.63138   2.27235    98468.29824   47.2156  22.24903  55879.88598    51.30553       44.72454     21.507  29.28363   41.5    0.18433  -21.39282  0.97879 
  -79.69642  0.00105  1.65484     14.13897   1.9264  1.38923  14.94886    0.039     0.06566   5336.50764   9414.00702  1.99304         2792.35799     16.79855    3e-05  55798.90358   2.53951   0.01574   258307.51082  46.70394   21.9741    55860.698    51.42356       44.77852   20.57191  37.93216   48.0    0.18364  -21.00223  0.99981 
  -59.25399  0.01074  1.95306     14.08143   1.7704  1.31862   9.47888  0.09395     0.05067   9937.81001   5401.09719  3.34844          2279.0803     20.19125  0.08629  55819.34601   5.58426   0.10176   430983.11073  46.30103  22.14623  55875.08898    51.42414       44.79912   15.89647  32.90878   44.5    0.21428  -21.87905  0.99803 
  -59.83402  0.03012  2.13234       13.778  1.34242  1.50354   4.52293  0.09864     0.36955    9671.6885   8675.21803  0.71286         2925.10426     19.33972  0.01215  55818.76598   2.52378   0.13622   1575523.9115  45.54159  22.03241   55858.2995    51.50087       44.80459   27.11752  40.50467   49.0    0.25601  -21.74654  0.99519 
   -64.8752  0.02772  0.70941     14.28015  1.73988  1.16186  43.47391   0.0131     0.09747   5164.28121   4272.55381  1.65115         3072.04372      16.7978    3e-05   55813.7248   6.91633   1.20515    22378.26086  48.45774  22.21431  55872.69048    51.37874       44.72369   22.44208  34.89533   55.0    0.18182  -20.94001  0.99827 
  -47.04367  0.22399  2.07984     14.22576  1.81498  1.22407   5.15604  0.14836     0.04754    9839.8584   6053.12643  2.11749         2654.17243     17.86357  0.00041  55831.55633   2.97798   1.15493   257769.60668  46.48042  22.19727  55872.69048    51.33975       44.72788   16.83156  36.33665   40.0    0.25797  -21.72926  0.97627 
 -112.78806  0.00251  2.01838     14.05289  1.77845  0.66433   5.75513  0.19715     0.03422   8199.79375   3205.76112  1.54134         2430.51003     18.72227  0.00293  55765.81194   2.30828   0.01446   527325.16639  46.18681  22.13983      55878.6    51.31077       44.75868   18.70173  27.11752   46.5    0.24202  -21.34925   0.9997 
  -48.84621  0.08612  2.47724      14.1447  1.83279  1.49274   4.80428   0.1109     0.19243   8479.93548   6023.74019  1.90126         2719.11393     17.28573  0.00011  55829.75379   2.06082   0.41375    536367.6447  46.01456   22.2022  55884.68297    51.29381       44.65835   22.01987  33.48928   45.0    0.28169  -21.64171  0.98785 
  -41.03057   0.1812  1.84703      14.3692  1.71851  0.73121   8.53419  0.09374     0.04057  10132.01544   7148.96443  2.34579         2626.18588     19.52173  0.01847  55837.56943   5.22614   1.54643    99430.31339  46.97353  22.12636  55879.88598    51.25335       44.65274   15.78498  28.81092   40.0    0.25713  -21.75154  0.97314 
  -48.13731  0.27488  1.42675     14.25838  1.75661  1.54064   2.90033   0.2375     0.12588   7639.64316   4208.94867   2.4971          2640.6262     19.30835   0.0113  55830.46269   1.00977   0.79725   101022.55457   47.2004  22.05939    55855.901    51.42755       44.69916     21.507  45.81925   41.0    0.23428   -21.5376  0.99237 
  -77.26164  0.05709  1.89933     14.03297  1.79577  1.47153  10.45578  0.08266     0.01064   8176.59138   8624.54276  0.97068         2962.04029     17.70567  0.00028  55801.33836   4.16992   0.59696   516802.73223  46.25257  22.26161      55885.6    51.33142       44.79489   15.39512  27.61887   37.0    0.22676  -21.42617  0.98937 
  -54.07897  0.05481  2.15607     14.03551    1.891    1.546   7.56129  0.10369     0.14722  10765.91085   4786.62892  2.96539         2227.40401     20.60144  0.22191  55824.52103   5.22787   0.41443   693128.65733   46.0374  22.12933  55863.09649      51.472        44.8023     21.507  38.33856   48.5    0.22845  -22.04762  0.99115 
  -44.36368  0.09522  0.99838     14.51229  1.96024  0.91416  29.35334  0.03591     0.12024  10792.96721   5541.95667  3.24871         2473.11102     19.39568  0.01382  55834.23632    20.397   2.79517    17144.74846  48.32843  22.10459  55875.08898    51.25983       44.65872     21.507   30.5696   41.5    0.22329    -21.788    0.993 
  -83.70899  0.02395    1.667     14.02104  1.71283  1.30736   7.45294  0.08254      0.0257   6346.56694   6938.45485  1.44184         2759.44797     18.56049  0.00202  55794.89101   1.79074   0.17847   401161.81936  46.45537    22.163  55872.69048    51.30851       44.67145     21.507  31.30917   54.5    0.19719  -21.16559  0.99736 
  -38.35545  0.00134  1.18872     14.27309   1.6834  1.29118   3.65505  0.28909     0.05563  11459.28902   8377.96213  2.42703         2528.78937     17.21968    9e-05  55840.24455    2.8631   0.00491    62803.62211  47.54689    22.083  55865.49499    51.36287       44.70081   20.57191  36.18012   30.5    0.27071  -21.77398  0.99997 
  -53.07127  0.00993  1.94929      14.1124  1.70724  1.41497  11.82671  0.04951     0.01029    7769.8391   8404.37295  1.48712         2967.85923      19.5861  0.02142  55825.52873   4.25907   0.11748   358971.29845  46.36633  22.05836  55882.28447     51.3297       44.74894   20.57191  29.40118   38.5    0.26569  -21.63934  0.99762 
  -51.82915  0.47624  1.31768     14.47381  1.97149  1.26858  21.43542   0.0346     0.06989   9983.78812   6189.63228   1.6526         2802.02115     17.53224  0.00019  55826.77085  12.74529  10.20832     35859.1274  47.76942  22.04967  55879.88598    51.39525       44.76679   23.37717   30.5696   88.0    0.21538  -21.76005   0.9484 
  -48.47566  0.01182  2.19741      14.1332  1.62366  1.15961  27.37086   0.0119     0.29911   5357.75835    4255.5128  2.29614         2967.01837     18.24238  0.00097  55830.12434   4.68686   0.32362   394223.01667  46.19978  22.11258  55872.69048    51.37748       44.73056   22.44208  31.38655   43.5    0.29161  -21.48032  0.99103 
  -74.28145  0.32907  2.72107     13.81971  1.69507  1.36007   3.22227  0.13191     0.03699   8937.20313   6068.86591  1.41965         2506.65182       16.452    2e-05  55804.31855    1.5353   1.06034  2673365.16276   45.2015  22.31322  55877.48748     51.2367       44.64648   16.83156  33.25966   52.0    0.22542  -21.70439  0.95818 
  -57.98136  0.02001  2.98742     14.42332   1.6024  0.29644  16.50436  0.01446     0.35573     6188.337   4019.45633  2.49326         2824.04928     17.59619  0.00022  55820.61864   3.77028   0.33033   189032.12726  46.24649  22.21593      55879.6    51.25554       44.67543   17.76665  30.21872   69.5    0.26144  -21.54547  0.98257 
  -79.25876  0.09819  1.45135     14.14561  1.88804  1.35379  16.00778  0.06014      0.0328   8772.80033   6870.65096  0.64454         3070.33068     17.84349  0.00039  55799.34124   7.34911   1.57174   188860.89247  46.94517  22.30429  55877.48748    51.22513       44.64886   14.96139  30.76394   52.0    0.20719  -21.32067  0.98522 
  -40.22561  0.16667  3.13424     13.95683  1.55634  1.12851   4.86796  0.02642     0.02547   6032.06357   8282.68265  2.18494         2986.23736     19.14854  0.00782  55838.37439   1.05659   0.81133  1731926.91385  45.23016  22.31447      55883.6    51.25612       44.63247     21.507  30.10352   63.0    0.34136  -21.50363  0.95233 
  -44.50293  0.01043   1.2154     14.43459  1.89691  0.89675    9.1871  0.07443     0.09268   7425.02717    7033.1635  2.02602         2842.97245     16.58801    2e-05  55834.09707   3.02135   0.09583    35165.88905  47.83133   22.1217      55885.6    51.21115       44.62427   19.63682  28.23335   38.0    0.23396  -21.55391  0.99947 
  -55.18967  0.26487  3.00096     13.96672  1.75074  1.33691   2.70028   0.1135     0.15964   7653.26106   3595.00077  1.94495         2715.97094     16.57229    2e-05  55823.41033   0.94347   0.71522  1706531.02452  45.32543  21.85661  55865.49499    51.38865       44.76782   22.44208  30.85786   67.5    0.25972  -21.62453  0.96726 
  -42.86669  0.40908  0.78535     14.55529  1.29715   0.3556  27.39334   0.0168     0.08655   7898.53509   3666.23288  2.57078         2584.50957     20.67637  0.26369  55835.73331  10.19449  11.20597      5759.0307  48.83136  21.49794  55819.92354    51.68103        44.9384   27.11752  43.01399   91.5    0.26011   -21.9254  0.96213 
   -45.9693  0.06177  1.90083      14.1988  1.70859  1.37526  10.49254  0.03648     0.02418   5122.74892   9522.59634  2.72511         2731.80128     17.14963    8e-05   55832.6307   1.64253   0.64808   229479.67054  46.58285  22.08947      55878.6    51.31056       44.69494   17.76665  31.79295   42.5    0.25055  -21.37914  0.98776 
    -49.341  0.10517  1.75932     14.29263  1.79828  1.11779  21.46227  0.02358     0.05933   6916.64691   5946.31569  2.37189         2654.12336     19.18413  0.00849    55829.259   6.12483   2.25722   134309.18263  46.90491  22.07645  55865.49499    51.38877       44.69387    28.0526  39.96355   48.0    0.25732  -21.53008  0.96742 
  -72.84314  0.12535  1.43993     14.12856  1.81059  1.56084  13.76774  0.12459     0.02069  11685.26034   5184.48295  3.63798          2034.3805      17.3536  0.00013  55805.75686  11.21416   1.72582   192842.91644  46.92478  22.18661      55883.6    51.30516       44.68953   29.92278  29.92278   39.5    0.21481  -21.51024  0.98307 
  -71.87817  0.00592  0.83208     14.22917  1.62823  0.99205  16.66206  0.05574     0.01325   7141.04017   6480.74927  1.87665         2658.48227     17.21245    9e-05  55806.72183   5.06849   0.09869    36435.61677   48.0787  22.13643  55872.69048    51.37453       44.74494   19.63682  34.07661   45.0    0.19365  -20.94325   0.9997 
  -50.61918  0.32404    3.164     14.01444  1.74445  1.03565   5.01861  0.07922     0.05841  10197.16864   3989.91859   1.6189         2764.01961     18.64517  0.00245  55827.98082   3.11294   1.62622  1517288.79238  45.32896  22.19313  55867.89349    51.35116        44.7082   20.57191  34.59821   57.5    0.26087   -21.7757  0.92065 
  -50.13326  0.19268    1.351     14.18902  1.63492   1.3592  22.58371  0.02416     0.06371   7659.53634   5815.98314  1.90015         2796.84573     20.19267  0.08658  55828.46674   7.90364   4.35137   116031.48142  47.15646  21.89611    55855.901    51.36298       44.69702   22.44208  37.69941   54.5    0.24756  -21.70675  0.95899 
  -58.56154  0.02214  1.95807     14.23117  1.95911   1.0895  11.40264  0.08899     0.11906  10383.94497   3658.32361  1.87394         2525.50436     19.75309  0.03146  55820.03846   7.33427   0.25249   240544.10835  46.59606  22.10864  55884.68297    51.25956       44.67395   15.89647   28.0526   42.0    0.22917  -21.84664  0.99581 
  -42.97017  0.03768  2.02928     14.46177  1.75674   0.5877    4.5151  0.11236      0.3464   7228.74783    6654.1922  2.46287          2910.2275     17.88057  0.00042  55835.62983   1.40741   0.17014    80105.80428   46.9952  22.08365  55872.69048    51.42192       44.76254   23.37717   35.5333   38.5    0.28318  -21.61274  0.99645 
  -36.59679  0.22668  1.44967     14.29591  1.47753   1.0182  16.05445  0.04156     0.01067   8583.86424   6142.59609  3.92036         2525.85886     17.43418  0.00015  55842.00321   7.05648   3.63926    73803.43927  47.24777  22.18549  55882.28447     51.2107       44.63366   16.83156  30.85786   47.0    0.26092  -21.56241  0.95566 
  -54.75786  0.10265  0.72312     14.30438  1.63814  1.36616  53.72791  0.01833     0.17011  10007.35639    5910.5533  1.82793         2682.81239     17.43674  0.00015  55823.84214   32.0971   5.51503    19581.06383  48.47294  22.11738    55860.698    51.53257       44.77967   29.92278  41.44093   50.0    0.20043  -21.84542  0.99275 
  -39.31396  0.00567  1.52087     14.37195  1.67125  0.85045  13.63235  0.04619     0.19284    8117.5442   7270.47042  2.43836         2702.84955     18.08582  0.00068  55839.28604   5.35855   0.07731    64736.33199  47.31655   21.8582  55843.90851     51.4793        44.7603     21.507   44.0879   36.5    0.26849  -21.54117  0.99907 
  -56.28602  0.00552  2.85003     14.10899  2.16088  1.51304   3.67733  0.11531     0.21275   7585.28721   5338.34666  1.95971          2731.0955     20.24309  0.09723  55822.31398   1.26213   0.02031   986639.28803  45.69962  22.10246  55870.29199    51.44759       44.83478   17.76665  33.66312   56.5    0.25104  -21.77252  0.99937 
  -93.67679  0.00793  0.79385     14.32293  1.75498  0.63548   31.8138  0.03905     0.06247   7962.49858   8756.85103  0.70582         2898.60325     16.85976    4e-05  55784.92321   12.0321   0.25219    23211.92567  48.34793  22.17573      55879.6      51.274       44.67211   16.83156  34.59821   46.5    0.17361  -20.86906  0.99931 
  -60.76679  0.02993  0.79731     14.33906  1.96558  1.06079    5.1662  0.18485     0.08496   8814.03597   3874.35408  1.05979         2865.17311      20.1455  0.07766  55817.83321   2.39413   0.15461    24346.54757  48.37264   22.1939  55879.88598    51.25342       44.68998   15.89647  28.58129   39.5    0.22924  -21.51661  0.99973 
  -68.61791  0.00893  1.70517     14.04469  1.38605  0.75312  10.04149   0.0468     0.05796   5594.15283   4321.86016   1.9794         2802.92729     19.85113  0.03943  55809.98209   1.87454   0.08968   304606.75529  46.46335  22.10844    55860.698    51.43048        44.7168   22.44208   42.0789   59.5    0.19629  -21.34101  0.99808 
  -58.86724  0.07477  0.85405     14.67336  2.00837  0.47859  17.54094  0.03026     0.09941   5433.43586   4911.24931  1.89966         2939.24917     20.03473  0.06018  55819.73276   3.08908    1.3116     6122.06903  48.92183  22.20693  55875.08898    51.36399       44.70285   23.37717  32.43977   45.5    0.21192  -21.44162  0.99757 
  -49.16423  0.03516  0.76181     14.64594  1.97281  0.59994  35.43416  0.02123     0.02306   6975.11398   8135.49464  2.23768         2820.54721     17.83295  0.00038  55829.43577  10.28376   1.24588     5428.82212  49.06554  22.16785  55882.28447    51.28766       44.72125   19.13547  26.12086   41.0    0.24321  -21.85229  0.99871 
  -59.64272  0.14658  2.62446     14.32144  2.13242  0.85057   9.46886  0.06511     0.23865   8563.03812   4545.94316  1.18148         2854.49004     18.61145  0.00227  55818.95728   4.14172   1.38794   310369.86047  46.26776  21.98819  55870.29199    51.29209       44.69198   17.76665  32.24425   51.5     0.2346  -21.66428  0.96439 
  -87.82276  0.00794  1.12472     14.04853  1.61032  1.19007   5.82548  0.20067     0.30519   8092.91191   4107.58451  1.28379         2580.81666      17.5247  0.00019  55790.77724   2.27598   0.04623   151272.78203  47.19391  22.09064  55877.48748    51.38894       44.79187   19.63682  30.85786   49.5    0.19818  -21.05883  0.99967 
  -41.72343  0.04473    1.042      14.4743  1.69761  0.69701  17.84787  0.06314     0.01659  11506.66974   3301.87298  1.91751         2620.76787     16.66383    3e-05  55836.87657  14.09655   0.79829    19265.94976  48.17815   22.1717  55882.28447    51.36074       44.73258   20.57191  28.98769   35.0    0.25743  -21.79036  0.99653 
  -55.03915  0.00739  0.77607     14.33883  1.86681  1.18444  50.38673  0.01856     0.01736   8243.75841   6585.92678  1.53694         2772.63786     19.85042  0.03937  55823.56085  20.42649   0.37236    21931.21031  48.41908  22.13918  55872.69048    51.29609       44.67117     21.507  34.59821   39.0    0.22527  -21.62758  0.99943 
  -35.40874  0.11925  3.29435      13.9662   1.6463  1.43364   3.44783  0.07007     0.20681  10370.16395   8079.02817  1.94207         2763.50903     17.64133  0.00024  55843.19126   2.21179   0.41117  1938523.97443  45.16235   21.9942  55863.09649    51.36819       44.71883   22.44208  34.11443   51.0    0.35969   -21.6963  0.97491 
  -86.01444  0.01075  0.85416     14.08807  1.63297  1.44376  83.35679  0.01021     0.03086    6082.4138   3129.81803  1.64019         2648.76366     16.21547    1e-05  55792.58556  18.39586   0.89609    73746.56679  47.75101  22.19976  55872.69048    51.31585       44.71677   19.63682  33.02398   59.0    0.17114  -20.79932  0.99677 
  -69.05603  0.00732   2.1865     13.98461  1.62353  1.47413   8.53941  0.06284     0.35368    6389.2715   6345.56306  2.18804         2851.03944     18.43374  0.00151  55809.54397   2.07949   0.06255   773660.02247  45.91126  22.17097  55870.29199    51.39892        44.7458   24.31226  36.46838   56.0    0.20594  -21.41268  0.99826 
  -43.35395  0.42946  2.69676     14.10827   1.3085  0.62438   7.05255  0.02872     0.01083     6638.156   5168.67218  2.29766         2760.15207     19.23755   0.0096  55835.24605   1.85382   3.02876    536700.3183   45.7942  22.14346  55875.08898    51.33647        44.7557   18.70173  31.66122   59.0    0.30709  -21.50045  0.84856 
  -52.35232  0.01861  1.52474     14.22614  1.75199  1.43785  14.29651  0.02613     0.01053     4583.496   4642.80574  2.16309          2924.4881     17.80308  0.00035  55826.24768   1.79164   0.26612   133494.79156  47.02052  22.17006  55870.29199    51.35993       44.72089   16.83156  33.80195   42.0    0.24585  -21.34423  0.99696 
  -60.61476  0.03845  0.86433     14.26433  1.44149  0.77356  33.35383  0.02192     0.09712   6861.92354   3491.91009  1.93801         2679.98309      19.3689  0.01299  55817.98524   9.36838   1.28245    29602.49871  48.08297  22.22857  55870.29199    51.36563       44.71046     21.507  37.40347   48.0    0.20895  -21.32208  0.99476 
  -70.60604  0.04808  1.39936     14.27914  1.99505  1.22577  23.45167  0.03106     0.02555   6367.01116     5698.049  2.14737         2731.06863     17.88705  0.00043  55807.99396   5.67116   1.12751   100313.26224  47.27558  22.14329  55875.08898    51.30906       44.67118     21.507  31.50468   56.0    0.18343  -21.07989  0.99123 
  -44.97864  0.01342  1.61085     14.69777  1.88987  0.41396  12.36502  0.02506     0.15765   4012.58347   8168.18537  2.40909         3002.61911     16.83605    4e-05  55833.62136    1.1876   0.16594    18315.19343  47.86835  22.30648  55882.28447     51.2439        44.6872   15.89647  28.98769   39.0    0.26943  -21.31825  0.99814 
  -62.43964  0.03791  2.46263     14.05249  1.73392  1.43134  14.10257  0.03457     0.30185   7044.91316   3833.64757  2.29136         2680.70281     17.58698  0.00021  55816.16036   4.17519    0.5346    766754.2987  45.84042  22.08528  55863.09649    51.36719       44.71972   18.70173   35.5333   54.0     0.2292  -21.53704  0.98317 
  -40.74627  0.00304   1.5019     14.31908  1.90161  1.47282  13.82942  0.06932     0.03946  10305.66537   8136.87626  2.35792         2571.74752     18.46513  0.00162  55837.85373   8.76159     0.042    91634.64294  47.23262  22.24475  55879.88598    51.26977       44.72364   13.09121  29.12652   34.0    0.25918  -21.68889   0.9996 
  -57.33751  0.00103  3.05524     14.25726  1.87948  0.68323   8.46703  0.02969     0.08669   5361.40945   5205.51247  2.14645         2900.32699     16.03204    1e-05  55821.26249   1.45183   0.00869   498214.55099  45.87538  22.03591  55867.89349    51.31436       44.66926   18.70173   35.5333   60.0    0.26927  -21.44699  0.99962 
  -58.38405  0.33975  0.98656     14.20762  1.35338  1.02659  19.96707  0.02198     0.01582   6476.67746   6289.69108   1.6223         2860.10487     16.20235    1e-05  55820.21595   4.99627   6.78375    47016.18493  47.73977  22.03696  55863.09649    51.41573        44.7636   20.57191  35.90546   81.5    0.24064  -21.48801  0.96129 
  -58.33303  0.00416  2.74698     13.87511  1.63485  1.36751   5.12546  0.05817     0.01698   7463.33482   4849.85384  1.65436         2911.56262     19.83247  0.03777  55820.26697   1.70304   0.02133  2035991.07819  45.29583  22.03558  55875.08898    51.35412       44.72749     21.507  33.66312   53.0    0.25624  -21.67032  0.99906 
  -81.51141  0.00502  1.20138     14.35428  1.77504   0.5867   6.50887  0.18462     0.02755   9023.83135   9943.47888  1.34208         2316.86672     19.15442  0.00793  55797.08859   3.16166    0.0327    46539.67621  47.69087  22.14369  55882.28447    51.39269       44.77876     21.507  28.19143   31.0    0.26556   -21.1742  0.99977 
  -46.45556  0.17585  1.06187     14.22019  1.56523  0.94536  17.04799  0.06554     0.35789  12329.33272   4023.81984  3.10207         2243.99449     20.52609  0.18656  55832.14444  15.45893   2.99796    59451.54398  47.63712  22.17173  55870.29199    51.40188       44.79075   14.96139  34.59821   42.0    0.24989  -22.03604  0.98184 
 -101.50795  0.00894  2.42887      13.8405  1.79733  0.62625   2.95736  0.13545     0.04699   9871.23424   7307.97763  0.33489         2770.01727     18.16952  0.00082  55777.09205   1.71899   0.02644  2052376.29323  45.44041  22.17364  55882.28447    51.24612        44.6586   19.63682   30.4544   49.5    0.25919  -21.90976  0.99919 
  -69.53873   0.0032  1.95676     14.27726  1.99987  0.83549   4.90801  0.18936     0.26599   8915.96641   8333.87277   1.0645         3041.84409     18.79698  0.00348  55809.06127   2.32739   0.01572    198322.6842   46.6894  22.00221  55851.10401     51.4767        44.7312   32.72804  43.01399   42.0    0.21609  -21.53829  0.99975 
  -59.85392    0.001  1.01282     14.27214   1.9244  1.43075   9.24623  0.14604      0.0303  10908.59157   3360.64458  1.25716         2637.03301     19.81375  0.03618  55818.74608   6.56341   0.00927    52348.52592  47.82317  22.16835      55883.6    51.27178       44.68174   18.70173  28.98769   36.5    0.22595  -21.69113  0.99997 
  -52.00591  0.00784  2.97974     14.27981  1.68521  0.42126   4.42722   0.0487     0.03398   8335.93831   8412.50181  1.75472         2743.96364     19.91724  0.04592  55826.59409   1.83513   0.03469   383007.54142  45.96393  22.18383      55885.6    51.25274       44.66067   18.12416  30.50035   55.5    0.27144  -21.65938  0.99828 
  -52.75446  0.12573    3.135     13.83576  1.69128   1.4664   3.78232  0.08283     0.06413    9703.7124   6691.22384  1.74183         2641.47791     16.97322    5e-05  55825.84554   2.12452   0.47556  3288340.25962  44.98761  22.18073  55877.48748     51.2447       44.65568   16.83156  31.27135   62.5    0.22373  -21.71503  0.97449 
  -39.97615  0.14603   1.8239     14.59433  1.95675  0.66649  20.32021  0.02557     0.21639   7746.09764   9829.34392  2.97183         2659.53048     18.54572  0.00195  55838.62385   7.27313   2.96744    39146.07823  47.44569  22.17808  55872.69048    51.37702       44.73724   23.37717   35.5333   39.0    0.27001   -21.5624  0.96137 
  -80.82545  0.03148  0.79102      14.1345  1.52884  0.92891   21.0359  0.09791     0.09498  10712.76217   4049.55244  2.33662         2060.50962     16.59411    2e-05  55797.77455  14.40095   0.66225    47812.34604   47.9773  22.21338  55882.28447    51.44454       44.81668   22.44208  30.85786   46.5    0.18527  -21.12873  0.99776 
  -40.99284  0.02984  1.63514     14.24756   1.8596  1.31987  17.61881  0.03264     0.02522   8653.65897   5710.39415  1.63114         2873.49266     20.25176  0.09919  55837.60716   7.87052   0.52568   147648.27867  46.94193  22.03933  55872.69048     51.2883       44.65584   14.96139  34.19474   37.5    0.29774  -21.73975  0.99361 
  -90.35877   0.0048  1.31168     14.12147   1.9106  1.46422  12.86958   0.0713     0.06082   6994.18837   7104.21828  0.77891         2881.30809     18.60987  0.00226  55788.24123   3.75549   0.06182      174464.02  47.07265  21.99835  55863.09649    51.44161       44.80468   22.44208  33.66312   52.0    0.18718  -20.97139  0.99953 
  -60.32131  0.00249  2.14289     14.11403  1.47537  0.77581   6.55305  0.07263     0.02082   6669.83788   6748.26771  2.65949         2597.90334     17.50201  0.00018  55818.27869   1.73901   0.01631   372089.95872   46.2051  21.99501  55870.29199    51.26024       44.63791   15.89647  36.46838   48.5    0.23497  -21.52405   0.9995 
  -38.55376  0.47077  0.79356     14.64931  1.88736  0.44591   6.50425  0.19259     0.06584   13981.0508   8682.14538  3.05564         2273.60464     20.68702  0.27024  55840.04624    7.5841     3.062     5548.93206  49.00133  22.09696  55882.28447    51.21027       44.65848   14.96139  31.38948   33.0    0.26021  -22.18418  0.99464 
  -77.80831  0.21324  1.10279     14.24741  1.55725  0.71436  16.87844  0.05641     0.05786   8065.40452   3521.46706  1.22128         2813.99588     16.08594    1e-05  55800.79169   6.54955    3.5991    56276.95528  47.62589  22.18916  55884.68297    51.34892       44.71842   12.97972  26.82261   64.5    0.17258  -21.24521  0.97513 
  -69.20883  0.21726  1.47313     14.19631  1.82647  1.28048  17.26652  0.06043     0.01706   9181.72366   4831.69252  1.52519         2391.85083     18.92594  0.00468  55809.39117   8.68321   3.75133   149035.97576  47.02068  22.26208  55884.68297     51.2591       44.65902   19.63682  29.16843   53.0    0.17755  -21.42838  0.96311 
  -55.81669  0.41197  1.73294     14.58248  2.10835  0.56176   3.73817  0.26001     0.16138   9916.86631    5004.3719  1.44258         2742.67178     16.94452    5e-05  55822.78331   2.19298      1.54    40212.81442  47.51085  22.11217  55870.29199    51.30369       44.66759   15.89647  35.71404   42.0    0.22397  -21.76285  0.98283 
  -69.17818  0.00265  2.61369     14.02373  1.84931  1.21982   3.43043  0.28188     0.30587  12253.41618   8552.27319  1.52826          2322.1467     17.03466    6e-05  55809.42182   3.07248   0.00908  1051647.87248  45.67948  22.25096      55883.6    51.49915       44.97719   15.89647  26.18243   40.0    0.23519  -21.84172   0.9997 
  -47.85174  0.01096  1.77819     14.59955  1.87644  0.49674  13.07293  0.02819     0.14312    4903.2956   7870.30577  2.43181         2974.46198      16.8204    4e-05  55830.74826   1.87489   0.14323    34834.10379  47.50022  22.20018      55878.6    51.27839       44.70078   15.89647  32.08889   39.0    0.26219  -21.42773  0.99796 
  -49.72132  0.00135  2.00782     14.23815  1.86659  1.37165  14.41316  0.01857      0.0266   3850.20881   5028.28565  2.64719         2906.82919     17.35681  0.00013  55828.87868   1.27454   0.01939   233349.98751  46.56644  22.10018  55877.48748    51.29706       44.68058   16.83156  36.80741   39.5    0.26854  -21.36065  0.99964 
  -50.46404  0.00667  2.36892     14.13584  1.96045  1.54362    5.1697  0.11904     0.04577    9548.5547   9544.59893  1.69384          2809.6806     20.22472  0.09321  55828.13596   2.81169   0.03448   546497.37431  46.07451  22.15859      55879.6    51.24885       44.65884   16.33021  31.89084   35.5    0.28124  -21.86518  0.99915 
  -90.32954  0.00597  2.54706     13.94622   1.8905  1.24953   6.82541   0.0999     0.34512   7818.71887   5335.17099  1.44675         2656.88037     16.46752    2e-05  55788.27046   2.48901   0.04078  1458948.97899   45.5693  22.12138  55875.08898    51.37261       44.66896   16.83156  34.19474   66.0    0.19297  -21.49171  0.99876 
  -49.53592  0.00652   1.0726     14.16813  1.47477  1.15941  19.52082  0.03142     0.03174   6890.77114   9497.87528  1.57715         2923.34676      19.1001    0.007  55829.06408   5.52918   0.12725    72638.70816  47.51552  22.13421      55879.6    51.22266       44.63172   15.89647  32.72804   36.0    0.23598  -21.49545  0.99914 
  -82.69187  0.01846  1.39481     14.10184  1.73565  0.99699  34.36962  0.01918     0.07767   6348.47293   6208.47611  1.57769         2683.72683     20.17434    0.083  55795.90813   8.26305   0.63442   196165.02545  46.92665  22.13254  55875.08898    51.35614       44.72043   23.37717  30.76394   62.0    0.18622  -21.18139  0.99363 
  -71.75675  0.02224  1.32311     14.21764  1.96244  1.56502  12.87941  0.09729     0.30424   8519.52166   3486.50457  2.46846         2364.18981     16.69239    3e-05  55806.84325   5.57639   0.28638   117091.86967  47.24992  22.19878  55882.28447     51.2674       44.67742   17.76665  30.33627   47.5    0.18488  -21.19254  0.99794 
  -89.30269  0.00947  2.70433     13.98155  2.11127  1.24029   4.27326  0.23216     0.31735  11353.32396   7578.52617  0.41312         2229.39461     17.29949  0.00011  55789.29731   3.28574   0.04049  1560882.21703   45.5359  22.12201  55870.29199    51.42259       44.79642   20.57191  35.40156   53.0    0.21508  -21.80167  0.99883 
  -61.05089  0.00248  2.76699     13.96213   1.8488    1.518   4.87135  0.10913     0.06821   9928.80736   5552.38284  0.78022         2927.54758     17.59797  0.00022  55817.54911   2.86464   0.01206  1564780.32842  45.45727  22.13816  55867.89349    51.37405       44.72444   17.76665  37.58421   53.5    0.24665   -21.7897  0.99955 
  -51.03888  0.00164  2.47649     13.93309   1.4897  1.50266   3.45165  0.14395     0.06766   8400.86062   8363.85025  2.07615         2729.02155     16.78041    3e-05  55827.56112   1.45312   0.00566  1154526.38973  45.59187  22.16549  55865.49499    51.40696       44.74102     21.507  34.97037   44.0    0.25993  -21.64928  0.99977 
  -81.31865  0.00128  1.24123     14.00744  1.54067  1.35998  27.84341  0.03473     0.03328    7784.3574   6188.18795  1.02275         2957.99459     17.90491  0.00045  55797.28135  10.06457   0.03552   212987.62877  46.94049  22.14948  55870.29199    51.39275       44.72163   22.44208  31.79295   50.0    0.19532  -21.15016  0.99966 
  -47.05189  0.01042  2.12326     13.81645  1.11653  1.03834  11.23228  0.02633     0.18669   6884.91921   5478.32521  2.16837         2866.35175     19.39089  0.01367  55831.54811   3.17609   0.11707  1088391.16464  45.62592  22.12379  55867.89349    51.35661       44.69039   18.70173  41.14382   53.0     0.3117  -21.55776  0.99461 
  -47.94454  0.27432  1.24069     14.33015  1.90955  1.29591   4.09114  0.18964     0.03662   8699.22274   3607.71196  1.60923         2801.63268     17.20186    9e-05  55830.65546   1.84685    1.1223    59673.30015  47.58667  22.17666  55870.29199    51.35119       44.72112   19.63682  34.59821   37.5    0.26425   -21.6543  0.99341 
   -64.1387  0.10014  2.31572     14.11605  1.74235  1.19746   9.12762  0.03915     0.12061   4801.77452   5886.73948  2.54938         2721.22023     16.79173    3e-05   55814.4613   1.25542   0.91408   508425.99732  46.07438   21.9313  55846.30701    51.48994        44.7904   20.57191   42.0789   61.0    0.21099  -21.26027  0.97501 
  -72.87711  0.01554  1.40788     14.25969  1.65534  0.73884  28.96544  0.03006     0.11905   7345.51258    6926.0845   1.9156         2538.33924     18.77949  0.00334  55805.72289   9.32291   0.45012     92139.6439  47.22615  22.17247  55877.48748    51.31913       44.71255   18.70173  33.14153   49.5    0.18434  -21.15515  0.99511 
  -53.66357  0.01873  2.65983     14.05387  1.54697  0.59058   2.63415   0.0908     0.03331   7158.13097   4903.75545  2.57164         2408.84623      20.1734  0.08282  55824.93643   0.80513   0.04935   792971.11971  45.70936  22.26935  55882.28447    51.28496       44.71496   18.70173  30.21872   61.0    0.23742  -21.61121  0.99779 
  -63.88113  0.02211  2.71058     14.10042  1.96994   0.9613   3.86387  0.14526     0.15403   9856.69804    3314.9611    0.911         2632.84229     17.75108  0.00031  55814.71887    2.2393   0.08542   846375.17927  45.76961  22.25704  55882.28447    51.25965       44.68461   18.20038  27.61887   56.0    0.24106  -21.77926  0.99725 
  -72.96212  0.00582  1.09973     14.15561   1.6131  0.95889  41.85222   0.0146     0.01269   5941.11983   7550.25851  1.14144         3044.10811     16.09863    1e-05  55805.63788   8.81216   0.24368    88478.21757  47.44709  22.02293   55858.2995     51.5248       44.84405   19.63682  40.46276   51.0    0.19249   -21.0543  0.99837 
  -45.30765  0.00127  1.16096     14.45997  1.84188  0.70679   5.38017  0.29824     0.15799  14366.92348   9500.34951  1.40554         2543.94944     17.08405    7e-05  55833.29235   6.62446   0.00685     27719.0871   47.9617  22.18208  55875.08898    51.43458       44.84783   14.96139  33.66312   28.5    0.26054  -21.97133  0.99996 
  -45.77908  0.08757  1.62444     14.19204   1.6335  1.51073    7.1402  0.07071     0.36557   7054.49338   7394.21866  2.04466         2783.45319     16.26107    1e-05  55832.82092   2.11968   0.62524    165300.0469  46.84228  22.17905  55872.69048    51.38293       44.74304   22.44208  32.72804   40.0    0.27483  -21.49819  0.99093 
  -84.60459  0.01676  1.27376     14.13347  1.89606  1.47872  14.68892  0.09788     0.49276   8827.69316   4687.61496  1.26942         2577.01306     16.24453    1e-05  55793.99541   6.82828   0.24614   154494.48192  47.14761  22.18993  55870.29199    51.40735       44.81708   14.96139  32.04698   49.0    0.18155  -21.12379  0.99823 
  -68.75352  0.03498  2.54898     14.01212  1.75677   1.2036  15.31142  0.02391     0.10172   5548.76781   7620.60479  2.03039         2872.17682     19.28212  0.01064  55809.84648   2.81213   0.53554  1002356.16401  45.69981  22.17452  55875.08898    51.30229       44.69845   14.96139  33.66312   66.0    0.20436  -21.40659  0.98223 
  -49.65673  0.02313  3.04621     14.46212  1.99486  0.49544   3.32831  0.11801     0.42823   9090.13909   6808.20773  1.57545         2771.28409     19.47129  0.01644  55828.94327   1.64056   0.07699   204643.50775  46.29024  22.21049  55879.88598    51.35167       44.71286     21.507  31.27135   48.0    0.31923  -21.66949  0.99695 
  -57.58622  0.00331  1.59919      14.2494   1.6899  0.93292  18.08431  0.03543     0.29443   7177.28826   8928.49401  2.97097         2589.68806     16.87683    4e-05  55821.01378   5.55712    0.0599   127253.83904  46.98424  22.00953   55858.2995    51.45582       44.76859   22.44208  39.27364   40.5    0.23729  -21.63668  0.99918 
  -65.22897  0.18946  1.66707     14.19956  1.58918  0.73261   8.27065  0.07337     0.01941   7707.34441   4523.23525  1.05592         2697.92529     19.19847  0.00877  55813.37103   2.93073   1.56693   163600.17329  46.81233  22.19555  55879.88598    51.22946       44.65397   14.96139  32.32457   50.0    0.22021  -21.45577   0.9747 
  -52.96567  0.03622  2.69673     13.87035  1.54447  1.14998   2.97672  0.09515      0.4714   8138.51892   4532.67687  2.15041         2679.78837     20.07518  0.06605  55825.63433   1.17613   0.10782  1894839.87203  45.31838  22.22481  55875.08898    51.34415       44.74403   14.96139  34.50429   69.0     0.2643  -21.72418  0.99504 
   -59.1457   0.1687  1.52219     14.36379  1.82748  0.70185  12.12418  0.11893     0.01089  11635.61725   3534.26416  2.13712         2423.59116     19.64027  0.02427   55819.4543   9.79171   2.04536    73623.58102  47.29874  22.15434      55889.6    51.24183       44.69019   17.38459  24.60039   35.0    0.24393  -21.89151  0.97809 
  -73.15347  0.00564  1.80747     14.15599  1.79159  1.04327  13.64475  0.05548     0.34266   7532.16137    3704.1364  2.34339         2610.02329     18.34479  0.00123  55805.44653   4.61777   0.07701   264978.76954  46.58473  21.96645    55855.901    51.47342       44.80275   18.70173  39.27364   51.0     0.2118   -21.3223  0.99875 
  -61.36911  0.00199  1.20928     13.99951  1.35898  1.33355    9.1578   0.1008     0.01749   8960.36651   9266.11464  1.46071         2883.37571     19.26026  0.01012  55817.23089   4.38601   0.01826    184949.9911  46.96995  22.23302  55872.69048    51.32832       44.66802   23.37717  33.66312   34.0    0.23561    -21.615   0.9998 
  -77.75814  0.00272  2.87189     13.95741  1.87897  0.65063   2.94616  0.13498     0.06687  11972.51797   4703.68644  0.25552         2232.09022     19.14949  0.00784  55800.84186   2.51915   0.00801  1750869.33323  45.38318  22.15308      55885.6    51.24296       44.69872   17.76665  25.77603   49.5    0.21778  -21.92755  0.99968 
  -53.61486  0.00433  1.30727     14.31932  1.31919  0.42861   7.73716  0.11439     0.02238   9909.47517    4708.7334  2.51444         2523.98509     20.32303  0.11688  55824.98514   4.53221   0.03349    48106.48236  47.47422  22.25494  55877.48748    51.27136       44.70395   16.83156  29.92278   38.0     0.2389   -21.9065  0.99955 
  -62.55496  0.42836   1.1721     14.27955  1.56576   0.8387   6.22636   0.1102     0.24002   7160.76329   5916.92832  1.68838         2821.82439     16.38732    1e-05  55816.04504   1.90449   2.66715    55128.03142  47.58427  22.11123  55870.29199    51.35472       44.73307   15.89647  34.19181   56.5    0.19617  -21.32467  0.98001 
 -100.58629  0.00658  0.77561     14.36673    1.609  0.49621  30.84407  0.03004     0.36419   4957.29947   7984.50441  2.55192         2431.34448     16.05386    1e-05  55778.01371   4.52157   0.20285     16603.3012  48.47592  22.19527  55882.28447    51.39115       44.77439   21.94073  29.48904   57.0     0.1492  -20.45487  0.99939 
  -69.99585  0.00259  1.55787     14.17724  1.80115  1.01807   8.63334  0.12429     0.03668   8757.48261   7771.07213  1.44033         2782.86357     19.71457  0.02879  55808.60415    3.9497   0.02233   179453.10991  46.88538  22.20262  55875.08898    51.41223       44.68887   16.83156   35.5333   42.0    0.19474  -21.43931  0.99973 
 -105.83564   0.0023  2.16329       13.959  2.04739  1.39964   5.58265  0.21422     0.29592   9775.00568   6291.23969  0.01196         2314.70526     16.84916    4e-05  55772.76436   3.18201   0.01285  1074612.67124  45.87856  22.22092  55882.28447    51.19573        44.6418   14.96139  29.40118   60.5    0.20213  -21.53615  0.99975 
  -76.52006  0.01069  1.46019      13.9006  1.44138  1.54536   5.97842  0.17313     0.09917   9492.07399   5452.58054  0.70905         2483.40343     17.44517  0.00015  55802.07994   3.21318    0.0639   451046.59286  46.44458  22.14678  55882.28447    51.19216       44.58746   16.25399  31.43543   47.5    0.20966  -21.47336  0.99906 
  -70.41774  0.08653  2.07441     13.92901  1.44105   1.0662   7.40533  0.06219     0.20782   6866.17768   4709.31634  1.64672         2758.94268       18.563  0.00203  55808.18226   2.08258   0.64077   798484.02538  45.89147  22.04512  55872.69048    51.35924       44.72562   25.24734  33.14153   63.5    0.21274  -21.44255  0.98111 
  -47.84867  0.04228  1.14186     14.53082  1.56744  0.46758  12.60029  0.08714     0.01801  10553.24163   3773.74496  1.77107         2887.62201     17.34064  0.00012  55830.75133   8.37104   0.53271    16465.97326  48.13222  22.24622      55878.6    51.29897       44.65026     21.507  29.92278   35.5    0.25324  -21.78355  0.99631 
   -50.0691  0.01773   1.9077     14.24507  1.88669  1.53396   21.5206  0.02441     0.01378   6615.27749   8040.93723  2.30517         2740.69583     19.45106   0.0157   55828.5309   5.61795   0.38151   206250.00392  46.66913  22.10889  55867.89349    51.45225       44.80095   20.57191   35.5333   42.5      0.251  -21.50613  0.99373 
  -45.24419  0.01719  1.28454     14.36682  1.84069   1.2338  44.55576   0.0121     0.13662    6256.5802   3733.79608  2.48088         2907.62435     16.62851    2e-05  55833.35581  10.40411   0.76591    52077.24618  47.59968  22.20972      55885.6    51.25554       44.71889   16.83156  24.68442   39.5     0.2251  -21.50441  0.99507 
  -52.64794  0.04676  2.60353     14.15996  1.59232  0.73789   3.35025  0.13475     0.29777   7585.40639   3808.32143   2.2378         2857.56647     17.59359  0.00022  55825.95206   1.14991   0.15667   479797.77288  45.95869  22.21712  55879.88598    51.25778       44.68824   15.89647  30.85786   50.0    0.27416  -21.63488  0.99365 
   -42.7566  0.01217  2.74642     14.32498  1.94195  0.88546  12.31938  0.03389     0.14602   6675.02913   9948.87834  3.59108          2611.0196      17.4068  0.00014   55835.8434   3.27433   0.14994   304529.88745  46.19592  22.11808  55882.28447    51.32188       44.70156   21.00564  29.20078   38.5    0.28971  -21.54934  0.99501 
  -75.07674  0.17889  2.64816     13.91947  1.69077  1.19245   9.51986  0.03555     0.01596   7423.33128   3974.71744  2.16001         2351.44508     18.12216  0.00074  55803.52326   3.12936   1.70303  1595326.02788  45.44819  22.17624      55878.6    51.56105       44.92279    14.0263  28.98769   65.0     0.2028  -21.51483  0.93797 
 -141.47062  0.03369  1.31062     13.93594  1.73975  0.98453  27.19974  0.02992     0.02328   5518.60766   6398.21096  2.12956         2273.06142      17.7438  0.00031  55737.12938   4.94141   0.91648   372719.69415    46.703  22.19036  55882.28447    51.23822       44.65688   17.65516  29.51267   78.0    0.17234  -20.92015  0.99183 
  -48.45993  0.03074  3.23576       13.802  1.68142  1.51613   3.15743  0.06064     0.13405  10903.33885   3816.19109  1.92939         2621.98378     16.56612    2e-05  55830.14007   2.23914   0.09704  4068558.68618  44.86513  22.09574  55877.48748    51.30255       44.70016   16.83156  30.37408   71.5    0.23542  -21.73885  0.99426 
  -83.66012  0.00278   1.7152     14.14547  1.92515  0.89519  11.49218  0.15898     0.01333  10702.35929   8634.91895  2.03768         2132.17815     18.23013  0.00094  55794.93988   7.85215   0.03194   269134.82974  46.65471  22.05178    55860.698    51.35644        44.6729   22.44208  40.54776   33.0    0.24762  -21.45479  0.99958 
  -71.53739  0.09744  2.97597     14.10602  2.16258  0.59516   5.35756  0.14319     0.01144  10540.72824   5125.99147  1.05907         2580.64093       18.901  0.00442  55807.06261   3.55088   0.52205  1091433.04696  45.61856  22.05048  55863.09649    51.36746       44.73946   16.83156  37.40347   40.0    0.27556  -21.85975  0.98233 
  -61.65918   0.0379  1.34379     14.22669   1.6967  0.88333   4.35127  0.23941     0.36051   9673.41853   8941.96573  1.54371         2622.28729     19.90148  0.04428  55816.94082   2.42886    0.1649   100160.93336  47.24109  22.22168      55885.6    51.28888       44.67272     21.507  30.85786   36.5    0.21656  -21.67141  0.99844 
  -72.20654  0.00267   1.3895     14.06439  1.52275  1.18728  28.24174  0.02729      0.0458   7048.64558   6241.83393  1.60961         2836.17011     18.12134  0.00073  55806.39346   8.37009   0.07528   202943.10631  46.85838  22.18174  55877.48748    51.40987       44.79668   15.89647   30.0616   49.5    0.19746   -21.1707  0.99909 
   -81.3771  0.04414  1.50178     14.15856  1.74431  1.04032  10.02479  0.07348      0.0143    5783.2271   9671.43239  3.33576         2454.73509     18.88072  0.00422   55797.2229   2.00006   0.44249   176012.06672  46.91171  22.13959  55875.08898    51.33432       44.69705   20.57191  33.66312   43.5    0.17375  -20.92708  0.99491 
  -35.02681  0.41323  1.92741     14.38521  1.80088  1.01271   8.60359  0.08066     0.11276  11584.71249   6086.59843    2.326         2630.98037     17.96693  0.00051  55843.57319   6.88775   3.55523   105397.17051  46.93155  22.27088  55882.28447     51.2248       44.65643   17.76665  28.46609   42.5    0.31758  -21.77331  0.94077 
  -56.41151  0.01759  1.56657     14.32588   1.9846  1.01329  12.00983  0.07942     0.03991   9498.42434   4232.91716  1.32139         2769.20814     17.00365    6e-05  55822.18849   6.46349   0.21124   100839.96125  47.17299    22.109  55870.29199     51.3835       44.70745   14.96139  35.94679   40.0    0.23256  -21.74046  0.99787 
   -80.6447  0.00252  1.75151     14.21133  2.07943  1.39906  10.86806  0.05954     0.10048   5016.05352   9049.40745  2.65865         2721.29403     16.01073    1e-05   55797.9553   1.63119   0.02734    223831.6119  46.75004  22.10762    55860.698    51.36532       44.68541   22.44208  38.33856   50.0    0.16588  -20.87059  0.99967 
