 texplosion  fnickel    Pspin  log(Bfield)      Mns  thetaPB   mejecta    kappa  kappagamma      vejecta  temperature    alpha  cutoff_wavelength  log(nhhost)      A_V         MJD0  kenergy  mnickel             TSD   log(L0)  Peak_mag     Peak_MJD  log(E_rad)  log(Peak_lum)  Rise_Time    E_fold  tau_1  delta_m15     r_peak     frac 
  -17.62256  0.02027  2.98707      13.7387   1.7431  0.98306  20.79124  0.03807     0.30178    5656.4138   8536.25243  2.75889         2857.08809     18.90419  0.00446  57337.53744  3.96817  0.42148   4810865.64028  44.87745    21.944  57438.80324    51.39458       44.39921   46.39085  69.58627   95.5    0.08853  -21.56468  0.97971 
  -21.04172  0.10383  3.13509     13.85758  1.83388  0.68064   7.57496  0.12824     0.24442   7737.56937   9345.49978  1.24209         3280.36999     19.04721  0.00619  57334.11828  2.70531  0.78651   3225031.71685  45.03118  22.04025  57441.62277    51.39098        44.3877   48.96812  72.16354   78.5    0.09487  -21.72053  0.96165 
   -23.0726  0.00629   2.8729      13.8474  1.81566  0.81968  14.92234  0.06938     0.12622   4991.88412   9177.11486  2.17392          3243.2477     19.07289  0.00657   57332.0874  2.21816  0.09386   2809872.91592  45.16255  22.04273  57433.16417     51.3405       44.35048   43.81358  72.16354   85.0    0.07924  -21.59077  0.99605 
  -20.19667  0.03094  2.22373     14.04581  1.43549  0.25766   6.91936  0.17192      0.0581   7591.28065   9465.92876  1.09173         3450.99979     20.14339  0.07729  57334.96333  2.37861  0.21412     533779.9313  46.00432  21.99145  57435.98371    51.36161       44.39582   45.10221  69.58627   69.5    0.08952  -21.93061  0.99223 
  -17.98723  0.05785   2.9128     13.79766  1.81873  0.98799   12.1177  0.08597     0.18826    5726.5157   9050.16226  2.23942         3027.02241     18.47203  0.00165  57337.17277  2.37044  0.70103    3638204.0805  45.03911  22.06381  57435.98371    51.40126       44.42001   47.67948  69.58627   82.5    0.08318  -21.64249  0.97054 
  -20.14608  0.01433  2.57314     13.56231  1.51296  1.43683   6.81928  0.18757     0.37172   8061.61081   9020.36972  1.44643         2947.76692     17.97646  0.00053  57335.01392  2.64368  0.09769   6981557.62348   44.7838  22.21557  57424.70558    51.33502       44.36912    37.3704  76.02944   74.0      0.096  -21.77161  0.99562 
  -22.55718   0.0118  2.92215     14.22569  1.52723  0.19779   10.0011  0.05813      0.3142   6113.50391   9170.19486  1.73127         3223.25795     17.25408   0.0001  57332.60282  2.22975  0.11797     428299.7565   45.8896  21.99526  57450.08137    51.42314       44.40883   55.41129  74.74081   99.5    0.09437  -21.46934   0.9931 
  -14.86729  0.07776  2.90059     13.97162  1.68743  0.50982   5.56652  0.14127     0.16483   6345.02161   9839.07214  1.95039         3300.53822     17.18493    9e-05  57340.29271  1.33683  0.43284   1502359.00208  45.39432   21.9452  57441.62277     51.4277       44.43725   50.25675  68.29763   75.0    0.10804  -21.69786  0.97949 
  -18.45299  0.08084  2.87835     13.64398  1.72031  1.35938   5.62089  0.23964     0.34747   9368.34941   8178.78587  1.86504         2709.26111     16.29577    1e-05  57336.70701  2.94278  0.45438    6819395.9098  44.75242   21.9982  57435.98371    51.38404       44.40986   46.39085    67.009   76.5    0.10687  -21.85088  0.97927 
  -16.54571  0.04403  2.24557     13.57365  1.37677  1.36958  21.49117  0.04384     0.16042   4638.05701   9500.71085  2.64389         3138.29216     19.99843  0.05536  57338.61429  2.75778  0.94621   4592255.95307  45.04303  22.07311  57435.98371    51.36361       44.40098   45.10221  68.29763   83.0    0.08287  -21.63813  0.96463 
  -20.15751  0.03826   2.5064     13.72791  1.41251  0.67611  16.39253  0.04073     0.27122   4526.21998   9197.53288  1.78253          3418.6364     16.49012    2e-05  57335.00249  2.00329  0.62726   2884597.35399  45.16065  21.96279   57444.4423     51.4257       44.38004   52.83402  79.89535   98.0    0.08374  -21.50414  0.97118 
  -19.10533  0.05094  3.08568     14.02269  1.79778   0.4837  21.01391  0.03447     0.11846   4972.81822   8719.50416  2.63622         2953.18255     17.29925  0.00011  57336.05467  3.09984  1.07039   1431769.81924  45.38901  22.06288  57441.62277    51.35582          44.36   48.96812  69.58627  100.5    0.08546   -21.5088  0.94922 
  -25.98007  0.00481   3.0059     13.94609  1.97535  0.69905  18.77297  0.06734     0.22578    5521.0708   8905.44904  1.44284         3293.56059     18.52062  0.00184  57329.17993  3.41355  0.09036   2124401.24472   45.2813  22.00816  57447.26184    51.40893       44.40512   50.25675  72.16354   83.5    0.07632  -21.59119  0.99633 
  -18.51818  0.17093  3.19076     13.80843  1.77114  0.83178   12.1129  0.05742       0.212   6451.72816   9395.65986  1.04798         3541.77336     17.61082  0.00023  57336.64182  3.00765   2.0705   4045674.19666  44.90232  21.94084  57438.80324    51.42854       44.44359   45.10221  68.29763   88.5    0.09481  -21.59179  0.89783 
  -18.60595  0.02905  2.93227     13.76416   1.7042  0.91323  22.18814  0.03955      0.1514   5476.73046    9015.5011  2.58668         3074.23095      17.8432  0.00039  57336.55405     3.97  0.64456   4031160.41097  44.96053  22.18978  57430.34464    51.37644       44.39885   46.39085  73.45217   87.5    0.08997  -21.59246  0.96952 
  -15.99643  0.13968  3.18547     13.76046  1.79936  0.76531   7.67825  0.08043     0.09022   6952.05294   8112.95293   2.6097         2789.25235     16.59732    2e-05  57339.16357  2.21368  1.07248   5109315.49979  44.80925   22.0591  57438.80324    51.39056       44.42957   45.10221    67.009  108.0    0.09157   -21.6057  0.94443 
   -17.8994  0.00591  2.93187     13.74833  1.77825  1.27338   9.66171  0.09994     0.22867   5975.14132   9946.82589  1.98023         3239.72226     18.00286  0.00056   57337.2606  2.05768  0.05712   4523171.15712  44.92911  22.07711  57435.98371    51.34527       44.33315   45.10221  78.60671   70.5    0.09452  -21.65013  0.99742 
  -19.90307  0.00499  3.14256      13.8151  1.87553  0.88084  11.13285  0.06458     0.16361   5023.67226   9054.42396  2.24282         3235.86957     18.92407  0.00466  57335.25693  1.67601  0.05554   4029952.20535   44.9421  22.02564  57438.80324    51.39225       44.40433   50.25675  69.58627   93.5    0.08958  -21.54842   0.9973 
  -20.84502  0.00409  3.22311      13.9117  2.00972  0.66518    9.0139  0.12842     0.26254   7988.43954   7917.29371  3.73059         2506.56835      19.7114  0.02858  57334.31498  3.43134  0.03689   2911363.71677  45.09133  21.95763  57441.62277    51.39765       44.41496   48.96812  68.29763   91.0    0.09445  -21.75585  0.99828 
  -21.13757  0.00625  2.66134     13.67109  1.67156  1.31203  11.31441   0.0878     0.32106   5123.84732   9111.24723  2.02356         3292.99594     17.79217  0.00034  57334.02243  1.77195  0.07076   4999836.64845  44.94281  21.98667   57444.4423    51.40771       44.42487   48.96812  68.29763   85.0    0.08463  -21.63343  0.99711 
  -20.32198  0.02452  2.42634     13.47726  1.39193  1.13313   7.33607  0.14169     0.25192   8376.96106   8123.54321   1.9116         2941.62989     19.34359  0.01226  57334.83802  3.07089  0.17986   8449377.03592  44.71573  21.97265  57438.80324    51.39361       44.42934   46.39085  65.72037   92.5    0.09836  -21.82036  0.99175 
  -19.08815  0.00281  3.19533     13.61823  1.87083  1.25048   4.42533  0.14769     0.30061   7777.19217   8007.69229  1.48513         3284.61962     18.40412  0.00141  57336.07185  1.59668  0.01242  10290250.41151  44.51942   21.8609  57438.80324    51.40813       44.43903   46.39085  65.72037  109.0    0.09569  -21.68106  0.99935 
  -19.73225  0.00974  3.08082     13.72572  1.83084  1.06846   8.81377  0.11008     0.13851   7611.97178   8947.61142   1.3624         3036.83025     17.45151  0.00016  57335.42775  3.04637  0.08589   5706292.60648  44.79781  21.98712  57438.80324    51.39456       44.38552   48.96812  72.16354   80.0    0.09613  -21.69238  0.99583 
  -22.92548    0.001  3.00429     13.91726  1.83245  0.68018  10.54718  0.09369     0.41693   5446.84344    9319.9632  1.93657         3205.03518     18.03525   0.0006  57332.23452  1.86661  0.01059   2248094.63201  45.22458  22.08871  57441.62277    51.38981       44.37954   54.12265  81.18398   82.0    0.08408   -21.5681  0.99952 
  -17.99954  0.01756  3.19488     13.89003  1.91182  0.66255    8.1688  0.09267      0.2953   6603.13684   8596.58092  4.78777          2537.5208     20.08974  0.06831  57337.16046  2.12464  0.14342   3006798.93685  45.06328  21.98081  57441.62277     51.3961       44.39749   48.96812   70.8749   96.5    0.09518  -21.64285  0.99296 
  -18.92212  0.03478  2.63864     13.81315  1.90538  0.84275  10.93365  0.12441      0.2695   7584.63176   8713.67225  2.35486          2707.1044     20.52217  0.18488  57336.23788  3.75199  0.38024   2912414.91462  45.24181  22.05834  57441.62277     51.4023       44.41572   47.67948  69.58627   80.0    0.08724  -21.95304  0.98754 
  -18.49953  0.03802  2.99018     13.71286  1.72203   1.0681  16.53866  0.04716     0.20105    5855.3367    8966.5235  2.00272         3227.64913     17.54207  0.00019  57336.66047  3.38245  0.62879    5364516.2543  44.82396  22.01269  57438.80324    51.64203       44.68939   43.81358   63.1431   89.0    0.09447  -21.61318  0.96943 
  -19.55048  0.01506  2.75291     14.30834  1.54703   0.1693   7.25961  0.15195      0.2025   9232.18476   8283.10676  2.01505         2642.86842     17.44467  0.00015  57335.60952  3.69104  0.10932     263159.1675  46.15854  22.06256  57438.80324    51.37428       44.38761   46.39085  68.29763   82.5    0.10748  -21.77366   0.9945 
  -19.63708  0.02025  3.14027     14.30304  1.76824  0.22907  15.53057  0.04983     0.16562   5765.48346     8606.932  2.52372           3048.373     16.92051    5e-05  57335.52292  3.07954  0.31454    401066.32919  45.91924   22.1208  57430.34464    51.36083       44.38655   45.10221  69.58627   95.5     0.0926  -21.54677  0.98345 
  -18.29879  0.01618  2.72584     13.49914  1.41348  1.48043  27.98681  0.01367     0.10152   4330.19775    9657.7801  1.75881         3638.89835     16.28859    1e-05  57336.86121  3.13037  0.45294   9790966.94151  44.55731  22.28488  57430.34464     51.3789       44.36275   45.10221  76.02944  108.0    0.08906  -21.40579  0.97489 
  -18.72324    0.011  2.51811     13.68754  1.51825  0.76417   6.10753   0.2272      0.4165   9652.73006   8003.68373  1.30775         2694.74856     16.37447    1e-05  57336.43676  3.39463  0.06721   3769078.87274   45.0718  22.03254  57430.34464    51.40739       44.43552   46.39085  69.58627   79.0    0.10465  -21.89695  0.99711 
  -18.43312  0.00934  3.03801     13.75346  2.09829  1.41423   5.59129  0.29901     0.30804   9830.47328   8248.20381  2.28394         2470.94468     19.71733  0.02898  57336.72688  3.22321  0.05224   5596760.34121  44.87759  22.08193  57438.80324    51.40408       44.41852   47.67948  69.58627   73.5    0.09701  -21.98472    0.998 
  -18.24625   0.0224  2.81998     13.67939  1.59519   0.8634   7.54464  0.12503     0.22742    8580.4946   9007.35474  1.08005         3116.08902     16.38688    1e-05  57336.91375  3.31353  0.16903    5156328.6986  44.85883  21.95682  57438.80324    51.39032       44.42525   45.10221    67.009   78.0    0.10714  -21.73775  0.99151 
  -21.50124  0.01286  2.37229     13.82798  1.59582  0.64416  11.89522  0.09558     0.14396   5925.92078   9780.33628  1.00336         5701.38694     16.71418    3e-05  57333.65876  2.49179    0.153    1841540.4081  45.45631  22.09193  57430.34464    51.46842       44.49019   43.81358  73.45217   74.0    0.09234  -22.05558   0.9947 
  -20.22313  0.03522  3.06638     13.83605  1.87087  1.00155  21.20078   0.0449     0.08866   5087.95752   8681.29564  2.19833         3060.42569     17.37829  0.00013  57334.93687   3.2739  0.74666   3475444.13434  45.02663   22.1107  57438.80324    51.38222       44.40849   47.67948  65.72037   88.5    0.08308  -21.52203  0.96686 
  -19.47414  0.01622  2.75235     13.80604  1.59841  0.64341   7.82482  0.14759     0.11011   8021.62205   8473.34162  2.17229         2834.11188     16.76391    3e-05  57335.68586  3.00349  0.12694   2746866.43667  45.15429  21.96597  57441.62277    51.42055         44.429   48.96812  68.29763   79.5    0.09694   -21.7581  0.99399 
  -16.01386  0.39901  2.54294     13.56349  1.28667  1.15556     11.14  0.08035     0.34302   5600.73825   8371.78702  2.96361         3039.14802     18.41079  0.00143  57339.14614   2.0845  4.44496   5767389.74168  44.80666  21.86769  57441.62277    51.38864         44.389   48.96812   70.8749   99.0    0.08285  -21.64549   0.8015 
  -21.08311  0.00358  2.42715      13.5621  1.41906  0.93406   6.92445  0.18307     0.15963   8081.42712   8217.89091  2.23404         2618.19436      18.5554    0.002  57334.07689  2.69767  0.02478   5831890.72173  44.88484  21.98231  57438.80324    51.41032       44.40895   50.25675  72.16354   86.5    0.08681  -21.77568   0.9989 
  -23.31758  0.00216  3.15884     13.82462  2.09883  1.25446  10.26025  0.12547     0.23879   6504.24288   9552.21349  1.10216         3754.23015     18.20823   0.0009  57331.84242  2.58928  0.02212   4361170.93022  44.95216  22.05971  57438.80324    51.39399       44.42124   46.39085  65.72037   72.0    0.08496  -21.73315  0.99909 
  -17.66847  0.00221  2.60991     13.60623  1.55895  1.15427  28.51143  0.02502     0.18372   4667.30059   8699.61979  2.74445         3008.83633     18.63399  0.00239  57337.49153  3.70491  0.06308   6045474.62625  44.84699  22.14611  57438.80324    51.38544       44.38908   48.96812  69.58627  102.5    0.08173  -21.55669  0.99722 
  -18.63452  0.08063  2.98252     13.66647  1.77826  1.23225    5.4669  0.21518     0.27654   9021.99891   8334.62398  1.26469         2918.29732     18.00683  0.00056  57336.52548  2.65445  0.44078   6823963.39624  44.73564  22.10442  57430.34464    51.35892       44.37879   41.23631  73.45217   80.5    0.10223  -21.80997  0.97935 
  -18.57658   0.0321  3.08305     14.09688  1.87255  0.42627  10.55456  0.08112     0.16184   5831.85409   9060.99999  2.20404          3184.3984       17.065    6e-05  57336.58342  2.14132  0.33884   1057922.66896  45.53886  21.99169  57435.98371    51.42617       44.41293   47.67948  74.74081   85.0    0.09282   -21.6549  0.98438 
  -18.22438  0.03243  3.04755     13.83435  1.84955  0.85246   12.2032  0.09545     0.19616   7150.61726   8805.40794  2.40741         2998.40572      18.2197  0.00092  57336.93562   3.7221  0.39577   3420396.20472  45.03393  22.16101  57430.34464    51.40642        44.3966   42.52494  76.02944   78.5    0.09313  -21.74297  0.98192 
  -17.96622  0.01072  2.84903     13.59734  1.69635  1.31463   6.66496  0.15514      0.2899   8128.77011   8097.96541  2.02404         3034.87958     19.61841  0.02307  57337.19378  2.62709  0.07147   8166765.08645  44.67692  22.07103  57435.98371    51.37459       44.44246   43.81358   63.1431   89.5    0.09906  -21.80693  0.99664 
  -21.17413  0.00957  2.91512     13.63655  1.73795  1.35069   6.97099  0.16992      0.2406   7883.32998   8836.34111  1.82842         2953.29464     18.19754  0.00088  57333.98587  2.58429  0.06674   7312643.20208  44.71549  21.97477  57441.62277    51.41038       44.40438   51.54538  72.16354   79.0    0.09371  -21.75094  0.99686 
   -17.1003  0.03627  2.98094     13.81747  1.73902  0.69803   6.47953  0.12431     0.24128    7572.0046   9924.50589  1.19795         3418.70904     16.34883    1e-05   57338.0597  2.21612  0.23501   3325740.14379  45.03856  22.07541  57438.80324    51.39688       44.40599   46.39085  69.58627   74.5    0.10389  -21.72461   0.9885 
  -18.97514  0.00744  2.74114     13.65225   1.6742  1.54665  28.26238  0.03155     0.04736   4993.20949    9105.6851  2.44534         3153.69798     17.69731  0.00028  57336.18486  4.20335  0.21015   5794073.97302   44.8538  22.01677  57441.62277    51.54575       44.58082   48.96812    67.009   88.5     0.0856  -21.60395  0.99093 
  -17.44457  0.01025  2.71287     13.86975  1.65827   0.5341  14.85508   0.0575     0.15241   6434.22475   8352.17077  2.01628         3118.74946     19.75277  0.03144  57337.71543  3.66855  0.15228   2064532.14995  45.30682  22.08816  57435.98371    51.39256       44.41998   46.39085  68.29763   96.5    0.08874  -21.73502  0.99335 
  -19.58412   0.0239  2.93682     13.72811   1.8021  1.11561   8.08486  0.14334      0.3718   7514.69614   9335.64208  2.14837         2839.25938     17.97633  0.00053  57335.57588  2.72347   0.1932   5048096.68148  44.88574  22.10395  57435.98371    51.42152        44.4127   48.96812  77.31808   73.5     0.0957  -21.75233  0.99138 
  -15.63676  0.24318  2.44741      13.8961  1.32526  0.44301    6.1356  0.18532     0.23249   7981.14873    9262.3969  1.28953         3355.58177     18.42518  0.00148  57339.52324  2.33139  1.49206   1189397.41348  45.53841  22.07751  57438.80324    51.59679        44.6591   45.10221  61.85446   70.0     0.1034  -21.77985  0.93152 
   -21.8089  0.00608  2.90177     13.83617  1.73561  0.78044  15.92158  0.05883     0.48047   5911.72794   9068.32133  1.58287         3244.25731     18.40524  0.00141   57333.3511  3.31927  0.09681   2885724.69065  45.12272  21.99457  57435.98371    51.38416       44.38835   45.10221   70.8749   81.0    0.09051  -21.59518  0.99554 
  -21.53425  0.06139  2.84985     13.59749  1.40116  1.27085  39.96289  0.01061     0.17919   3102.46199   9736.73321  2.61206         3305.71268     16.97706    5e-05  57333.62575  2.29455  2.45324   6744628.29374  44.67673  22.02655  57441.62277    51.37603        44.3895   48.96812  68.29763  112.5    0.08044  -21.25434  0.86813 
  -22.44196  0.00176   2.9847     13.68449  1.98891  1.03913   6.92109  0.15367      0.3769   7121.68754   7678.78284  3.06224         2756.66378     19.73741  0.03035  57332.71804  2.09396  0.01219   7034813.61102  44.77041  22.08555  57433.16417    51.35593       44.36739   45.10221  69.58627  109.5    0.07973   -21.8108   0.9995 
   -20.8348  0.00964  3.19257     13.60693  1.91888  1.17104   8.08668  0.06579     0.41884   5644.08127   7997.11339  4.14511          2576.6711      19.1006    0.007   57334.3252  1.53668  0.07798  11099099.69713  44.49832  22.02158  57441.62277    51.41523       44.40271   48.96812  74.74081  140.5    0.07246  -21.47729  0.99603 
  -19.67292  0.00881  3.44247       13.708   1.9214  1.17493  13.10756  0.03996     0.29947   5595.00081   8780.66258  2.18895         3106.57669     17.97608  0.00053  57335.48708  2.44765  0.11544   8112724.47783  44.56956  22.01431  57433.16417    51.39702       44.35912   43.81358  82.00928  109.0    0.09287  -21.45223  0.99338 
  -20.25499   0.0181  2.72492     13.76739   1.9742  1.11913   9.02387  0.15725     0.22037   7830.44218   8767.68551   1.6859         2711.49782     20.44285  0.15402  57334.90501   3.3006  0.16332   3973047.98452  45.09441  22.02478  57438.80324    51.37601       44.37546   50.25675  73.45217   74.0    0.08798  -21.92321  0.99456 
   -20.4882  0.01063  2.56489      13.7931  1.69573  0.78727  11.60118   0.1228      0.2495   7851.91079   9274.93927  1.42475         3195.13769     20.00272   0.0559   57334.6718  4.26658  0.12336   2686056.60538  45.25095  22.01929  57438.80324    51.36962       44.38454   50.25675  69.58627   68.0    0.09345  -21.90096  0.99542 
  -19.69191  0.11093  3.23848     13.73643  1.69851  1.33607  25.47711  0.02667     0.12906   4554.78282   9986.95559   2.7535         3152.52401     19.18127  0.00843  57335.46809  3.15292  2.82617   5568188.87468  44.73252  21.88025  57435.98371    51.43505       44.43633   43.81358  72.16354   89.5    0.08628  -21.45621  0.85599 
  -16.96092  0.08502  2.79401      13.8549  1.79173  0.73376  11.75073  0.09417     0.24016   7366.05265     8896.349   0.9875         4319.14617     19.50521  0.01778  57338.19908  3.80331  0.99905   2533591.39008  45.22593   22.0491  57430.34464    51.38758       44.38128   43.81358  74.74081   76.0    0.10365  -21.93572  0.96077 
  -16.46488   0.1688  2.70153      13.8322  1.83066  0.79262    8.4812  0.11755     0.08239   5932.40005   9332.03543  3.56393         2847.24549     20.46085  0.16054  57338.69512  1.78051   1.4316   2686823.23959    45.239  22.00461  57435.98371    51.40511       44.39815   45.10221  73.45217   85.0    0.08525  -21.85589  0.94981 
  -20.08689  0.00509  2.48993     13.72151  1.66638    1.096   9.10728  0.16928     0.23378   5844.28737   8632.35469  2.48399         3001.92489     17.29818  0.00011  57335.07311  1.85558  0.04631   3458884.20898  45.15931  22.10688  57433.16417    51.40256       44.40451   43.81358  73.45217   80.5    0.07197    -21.715  0.99834 
  -19.07396  0.03437  2.84644     13.71302  1.62087  0.81432   4.07513  0.21651     0.28703   7540.18717   9177.19591  2.40706         2752.35842     17.32654  0.00012  57336.08604  1.38208  0.14005   4572110.19803  44.90987  22.08459  57438.80324     51.4092       44.39305   48.96812  74.74081   81.5    0.09988  -21.68378    0.993 
  -20.60528  0.01683  2.62864     13.54157  1.36772  1.41559  43.29555  0.01292     0.29352   4156.85058   9162.00538  2.44219         3171.21948     16.61915    2e-05  57334.55472  4.46272   0.7288   7246654.35511  44.70524   21.9658  57438.80324    51.40248       44.41676   47.67948  69.58627  101.0    0.08691  -21.37891  0.96174 
  -19.77468  0.01914  3.28537     13.92743  1.95788   0.6531   9.29499  0.08004     0.30008   6126.65395   9679.38019  1.51748         3393.67051     17.76611  0.00032  57335.38532  2.08124   0.1779    2740971.0494  45.08956  22.09379  57433.16417    51.38424       44.39494   47.67948  72.16354   85.5    0.09255  -21.60718  0.99113 
  -20.90612  0.00123  2.80932     13.64733  1.65024  0.95882   4.29577  0.18772     0.27871   6391.65275   8494.47859  2.59806         2884.00938     18.99194  0.00545  57334.25388  1.04688   0.0053   6136196.80139  44.80129  21.96682  57441.62277    51.44814       44.47653   46.39085  65.72037   99.5     0.0869  -21.64811  0.99975 
  -18.49161  0.00547  3.16932     13.72877  1.86751  1.37637   7.27137  0.11733     0.23798   6463.62625   9891.32613  1.92301         3216.29762     17.58707  0.00021  57336.66839  1.81216  0.03977   6073992.98618   44.7547  22.13333  57435.98371    51.36127       44.35153   45.10221  74.74081   74.5    0.10366  -21.64982  0.99803 
  -21.37687  0.02958  2.84203     13.70342  1.73333  0.78645    8.4936  0.09433     0.35823   6448.64534   7532.56726  1.83111         3146.29963     18.46451  0.00162  57333.78313  2.10696  0.25126   5094684.04712  44.89335   21.9808  57441.62277    51.42268       44.42874   50.25675   70.8749  117.0    0.08081  -21.69043  0.98859 
  -19.32724  0.03751  2.74173     13.62264  1.69693  1.26822   11.6269  0.08921     0.28434   7220.85806   8323.04887  2.05521         2826.06414     19.91898   0.0461  57335.83276  3.61634  0.43612   6733449.22698  44.79422  22.12069  57433.16417    51.37007       44.37696   45.10221  74.74081   90.0    0.08916  -21.76605   0.9815 
    -14.744  0.02662  3.28408     13.66228  1.86514  1.38967   5.33693  0.13995     0.19962   8942.07855   8898.41166  1.54256         3236.99565     16.23527    1e-05    57340.416  2.54563  0.14207   8846860.55415  44.55994  22.02152  57433.16417    51.38316       44.41086   45.10221   70.8749   81.0    0.12097  -21.75901  0.99229 
  -19.90016  0.00967  3.03626     13.92102  2.05817  0.54514   5.85889  0.14497     0.40789   7135.51852   8582.80087  4.49894         2492.94944     20.42131  0.14657  57335.25984  1.77948  0.05667   2534745.12888  45.21371  21.98265   57444.4423    51.40533       44.40042   50.25675  72.16354  105.5    0.08188  -21.81012  0.99771 
  -23.16225  0.00801  2.75924     13.94962  1.53403  0.41241   11.6874   0.0681     0.49423   6124.90682   9804.21239  1.32199         3562.06031     17.53776  0.00019  57331.99775  2.61544  0.09359   1367715.71034   45.4371  22.13608  57430.34464    51.39395       44.42233   42.52494   70.8749   82.5    0.09077  -21.58921  0.99523 
  -14.67074  0.00553  3.22738      13.8534   1.9724  0.86927   7.33974  0.11286     0.27539   6870.19043   9817.48347  1.60892         3307.35598     18.08094  0.00067  57340.48926  2.06655   0.0406    3747150.2258  44.97244  22.03259  57441.62277    51.38493       44.39813   46.39085  68.29763   75.0    0.10363  -21.71218  0.99807 
  -19.17372  0.00762  2.60493     13.63402  1.94926   1.4098   6.38256  0.20201     0.18541   8407.14132   8232.08943  3.64554         2339.03761     20.59015  0.21621  57335.98628  2.69103  0.04866   6625673.50016  44.90589  21.94961  57438.80324    51.42913        44.4225   48.96812  72.16354   87.5     0.0852  -22.04519  0.99846 
  -19.66585  0.01564  3.02869     13.76477  1.74867  0.98598  23.43477  0.02541     0.10033   4589.73311   9887.89376  1.83845         3513.42559     16.47459    2e-05  57335.49415  2.94485  0.36651    4400328.5098  44.90556  22.08019  57430.34464    51.39778        44.3496   43.81358  85.04989   88.0    0.09092  -21.50541  0.98199 
   -19.7658  0.02264  2.66014     13.81371  1.61703   0.6573   11.4391  0.10343     0.21632   7038.66323   9163.64902  1.86325         3057.06805      19.3942  0.01377   57335.3942  3.38064  0.25902   2505701.87878  45.22883  22.03023  57438.80324     51.4191        44.4203   48.96812  72.16354   77.5     0.0906  -21.75607  0.98887 
  -19.17055  0.00427  3.40878     13.63469  1.96015   1.4675   13.6815  0.03659     0.46045   5753.59114   8194.87549  2.71344         2991.04236     17.07531    7e-05  57335.98945  2.70171  0.05839  11374279.14286  44.44001  22.13511  57435.98371    51.38093       44.40912   43.81358  65.72037  126.0    0.08454  -21.48708  0.99675 
  -17.61893  0.02651  3.21365     13.94634  1.80882  0.46043  13.79371  0.03604     0.16881   5415.33372    8202.0495  3.26309         2737.22112     19.24354  0.00973  57337.54107  2.41301  0.36568   2220931.89424  45.16571  22.03192  57433.16417    51.42691       44.41858   46.39085  77.31808  127.5    0.08156  -21.43046  0.98005 
  -16.33427  0.14139  2.98329     14.21807  1.91452  0.38782  11.95328  0.09195      0.3749   5388.91085   8702.20835  2.09537         3198.43716      16.1554    1e-05  57338.82573   2.0707  1.69009    579604.70403  45.83838  22.17417  57427.52511    51.39571       44.38416   42.52494  82.47262   84.5    0.08121  -21.64757  0.93416 
  -16.91316  0.01098  2.66896     13.73575  1.64651  1.06769  14.09035  0.07297     0.16183    5749.7143   9552.72742  2.24322         3134.60722      19.3895  0.01362  57338.24684   2.7787   0.1547   3677631.36164  45.06716  22.07904  57435.98371    51.38107       44.40594   46.39085  69.58627   74.5    0.09328  -21.66871  0.99355 
  -16.95326  0.15024   2.5579     13.72583  1.48492  0.95809  16.19329  0.05718     0.14709   5344.75589   9584.90463  2.45023          2914.1191     17.03423    6e-05  57338.20674  2.75942  2.43282   3188746.44762  45.12116  22.10757  57438.80324    51.38183       44.38383   48.96812   70.8749   82.0    0.08545   -21.5911  0.90145 
  -21.36062  0.04698  3.33716     13.97411  1.99386  0.62671  18.24903  0.04242     0.20461   5249.45389   9074.04434  2.78825          2876.3338     19.29989  0.01108  57333.79938  2.99982   0.8574   2322984.26785  45.15574  21.99325  57430.34464     51.4077       44.41069   45.10221  72.16354   95.0    0.08275  -21.51969   0.9587 
  -26.90194  0.31571  2.90253     14.09605  1.73404   0.3313   4.64162  0.25549     0.12489   6600.90116   7889.31517  2.08283         2694.93565     18.84765  0.00391  57328.25806  1.20643  1.46539    871604.08293  45.64203  22.01327  57441.62277    51.51506       44.53112   48.96812  68.29763   96.0    0.07329  -21.63792  0.93528 
  -18.36898   0.0076  2.85944     13.70966  1.71257  1.09402  27.51013  0.03201     0.23492   5257.57114   8445.17475  2.54431         3039.50153      18.1719  0.00083  57336.79102  4.53618  0.20896   4951127.36902  44.89523  22.06072  57435.98371    51.39215       44.40257   46.39085  69.58627   94.0    0.08405  -21.58092  0.99048 
  -18.65679  0.15193    2.486     13.60312  1.34258  1.31837  25.44607  0.03728     0.12928   5307.10809   8397.77304  1.74738         3278.45702     16.61142    2e-05  57336.50321  4.27527  3.86594   4792074.68867  44.92526  22.09999  57430.34464    51.37271       44.38924   46.39085  74.74081   93.0    0.08348  -21.58139  0.83963 
  -18.26375  0.09825  2.22661     13.65485  1.75021  0.93829   7.24338  0.13901     0.38235   8159.61967   9185.52687  1.00887         2993.57406      20.7538  0.31516  57336.89625  2.87679  0.71165   3949078.58195  45.22015  22.08789  57435.98371     51.3667       44.35954   47.67948  72.16354   83.5    0.09333  -22.12781  0.98117 
  -20.29738  0.01657   2.8118     14.18719  1.56664  0.26606  27.02565  0.02371     0.06751   4613.95121   9192.67368  2.13568         3164.04433     17.44985  0.00016  57334.86262  3.43202  0.44786    485714.96817  45.87946   22.2254  57430.34464    51.37842        44.3888   41.23631   70.8749   96.5    0.08797  -21.44089  0.97767 
  -19.67589  0.01442  3.05752     13.74771    1.749  0.94252   6.09769  0.15752     0.22899   7585.66348   9108.01066  1.76234          3145.8513      18.1058  0.00071  57335.48411  2.09305   0.0879   4851954.31826  44.85498  22.01516  57435.98371     51.4308       44.44193   47.67948  72.16354   76.5    0.10713  -21.70111   0.9955 
  -21.55457  0.02647    2.862      13.7215  1.53585  0.69262   8.60126   0.0853     0.48051   7197.86601   9473.70962  1.16309         3518.69198     17.42794  0.00015  57333.60543  2.65826  0.22764   4212068.21734  44.91736  21.97677  57438.80324    51.44605       44.47103   50.25675  69.58627   85.5    0.09805  -21.60762  0.98748 
  -18.47768   0.0114  2.86389     13.63288  1.74699  1.54619   5.72702  0.25374      0.4285  10868.55956   9022.09968  1.75012         2662.46606     18.86956  0.00411  57336.68232  4.03552  0.06531   7215211.14158  44.73897  22.12272  57433.16417    51.38618       44.40504   45.10221  72.16354   64.5    0.11714  -21.95318  0.99706 
  -20.09296  0.06831  2.94166     13.72417  1.77449  1.05639   7.53051  0.14267     0.23915   7301.90488   8892.38928  1.29127         3223.91166     16.45274    2e-05  57335.06704   2.3951  0.51443   5078394.51012  44.87501  22.11997  57441.62277    51.47211       44.49546   48.96812    67.009   78.5    0.09467  -21.72696  0.97672 
  -17.34217  0.01036  2.63135     13.60284   1.5282  1.33895  15.36083  0.05104     0.06705   5467.44806    9303.8506  2.18887         3128.35547     17.99071  0.00054  57337.81783  2.73912   0.1591   6118797.62071    44.826  22.02956  57441.62277    51.37524       44.38985   48.96812  68.29763   84.5    0.09589  -21.60411  0.99271 
  -18.88764  0.02581  2.65438     13.55563   1.6734  1.35108   5.51932  0.16712     0.28564   8672.03622   8681.54874  1.37895         3051.32781     20.33199  0.11932  57336.27236  2.47602  0.14247   8474038.92404  44.71643  22.03233  57441.62277    51.41307       44.42106   50.25675  69.58627   87.0     0.1032  -21.90308  0.99408 
   -16.0425  0.06969  2.97737     14.18014  1.90843  0.40796  11.30248  0.12381     0.42214   6955.91127   9109.41289  2.56057         2973.16991     18.35081  0.00125   57339.1175  3.26219  0.78766    685279.91875  45.76599  22.02874  57435.98371    51.36702       44.39953   47.67948  72.16354   71.0    0.09162   -21.7682   0.9681 
  -19.75096  0.00676  2.58751      13.7296  1.55569  0.84486   7.24709  0.18662     0.27488   7291.93756   8660.30095  2.16424         2849.69859     19.25385  0.00997  57335.40904  2.29867  0.04901   3359692.38852   45.1087   22.0624  57435.98371    51.41042       44.39766   50.25675  74.74081   75.0    0.08795  -21.73623  0.99788 
  -18.45089  0.30993  3.27208     14.02417  1.32108  0.43482  24.41479  0.01995     0.17987    3628.9065   9418.49346  3.06703         3018.93788     18.52334  0.00185  57336.70911  1.91793  7.56683   1175062.25731  45.29006  22.03542  57435.98371    51.37439       44.41527   46.39085  64.43173  118.5     0.0775  -21.25536  0.59875 
   -17.9996  0.05183  3.22193     13.82373  2.13738  1.29013  12.65349  0.09676     0.26312    6850.4437   8457.05485  1.82543         2952.87314     18.14936  0.00078   57337.1604  3.54222  0.65584   4639477.16709  44.91603   22.1698  57433.16417    51.39645       44.39648   47.67948  74.74081   81.0    0.08535  -21.74181   0.9734 
  -19.24521  0.01696  2.92614     13.98703  1.71732  0.46847  18.79742   0.0436      0.0867   5326.18308   9203.51144  2.24968         3088.56925     18.04945  0.00062  57335.91479  3.18096  0.31877   1449420.61196  45.40991  22.08583   57444.4423    51.39653       44.39445   51.54538   70.8749   90.5    0.08552  -21.55452  0.98485 
  -16.95528  0.22167  3.35124     13.97085  1.57197  0.59777  22.02753  0.02925     0.20212   4807.18799    9201.3643  2.96031         2973.74047      18.2107   0.0009  57338.20472  3.03651   4.8829   1874893.48449   45.1419  22.08087  57441.62277    51.44775        44.4989   48.96812   70.8749   98.0    0.08736  -21.40681  0.74124 
  -16.79602  0.00475   3.4434     14.06564  2.05265  0.50836  32.99813  0.01656     0.01196    4588.3742   9162.71669  2.58115         3113.10468     18.57393  0.00208  57338.36398  4.14414  0.15684   1670383.93699  45.28437  21.95514  57441.62277    51.40615       44.41882   48.96812  69.58627  102.0     0.0889  -21.47251  0.99201 
  -20.14005  0.05287  2.94028     14.32784  1.79248  0.22753   9.71736  0.13808     0.23884   8623.53568    8538.9751  1.21954         2924.38878      18.2403  0.00097  57335.01995  4.31068  0.51376    317953.31035  46.08316  22.05897  57438.80324    51.40396       44.41239   47.67948   70.8749   74.5    0.10144  -21.80202  0.97718 
  -15.27645  0.26667  3.60298     13.65946  1.57955  1.32295  19.45597   0.0195     0.02694   5341.88009   9601.23054  1.92047         3256.54324     19.74456  0.03085  57339.88355  3.31183  5.18825   9135739.33811  44.39331  22.24195  57427.52511    51.36076       44.33824   43.81358  77.31808  109.0    0.08831  -21.37617   0.6956 
  -21.08026   0.0103  2.67045     13.80295  1.82618  0.95589  18.76251  0.09361     0.10225   6508.92635   8637.19283  2.26469         2839.07776     19.00316   0.0056  57334.07974  4.74173  0.19333   2996556.06607   45.2006  22.00911  57435.98371    51.37973       44.43412   42.52494  64.43173   78.5    0.07489  -21.74036   0.9931 
   -17.8718  0.03008  2.79212     13.99272  1.58392  0.44175  22.01452  0.03814     0.10134   6050.67931   9693.48498  2.11404         3093.92055     17.49332  0.00017   57337.2882  4.80778  0.66219   1185716.70843  45.50273  22.03635  57433.16417    51.39696       44.41658   47.67948   70.8749   79.0    0.09363  -21.61928   0.9684 
  -16.28942  0.47246  2.88928     13.79733  1.62023  1.04931   9.17001   0.1218     0.13941    6677.9335   9832.44427  1.48254         3331.08824     16.80529    4e-05  57338.87058  2.43939  4.33246   3193795.39241  45.05253  21.96737   57444.4423    51.42407       44.44681   48.96812    67.009   71.0    0.09196  -21.70533   0.8214 
  -19.59404  0.02334  2.96325     13.83598  1.71654  0.71834   7.07555  0.10453     0.08407   5521.07921   9118.61531  1.99116         3261.83492      16.0406    1e-05  57335.56596  1.28658  0.16516   2978810.72239  45.08592  22.10611  57441.62277    51.40731       44.41196   46.39085   70.8749   88.5    0.09444  -21.57937   0.9919 
  -22.54607  0.01416  3.03295     13.68075  1.87298  1.18647  20.42112  0.04337     0.21103    5218.5943    7786.2648  3.16987         2748.47388     18.13035  0.00075  57332.61393  3.31752  0.28912   6959458.59953  44.73507   21.9503  57438.80324    51.39455       44.39754   47.67948   70.8749  114.5    0.07183  -21.54341  0.98688 
  -22.85273  0.01779  2.95564     13.73177  1.69053  1.11067   26.7115  0.02414     0.09187    3673.2011   9842.40331  2.77321         3121.47271     18.21704  0.00092  57332.30727  2.14988  0.47517   4716377.63408  44.88196  22.15736  57447.26184    51.40853       44.38933   52.83402  74.74081   95.5    0.07747  -21.35335  0.97682 
  -19.73686  0.05399  2.81791      13.8704  1.73738  0.71424  18.21975  0.04882     0.18425   4506.27853   8727.10069  2.18702         3140.48318     17.60237  0.00022  57335.42314  2.20702  0.98372   2326825.48537  45.24212  22.15059  57433.16417    51.40125        44.4192   42.52494   70.8749   95.5     0.0734  -21.51686  0.95902 
  -17.24665  0.01186   2.8567     13.66479  1.75654  1.30724   8.17006    0.103     0.42965   6129.90243   8619.11305  2.14994         3040.01372     19.61014  0.02264  57337.91335   1.8313  0.09691   6231996.00481  44.80715  22.01787  57438.80324    51.38469       44.38649   48.96812   70.8749   91.5    0.09151  -21.68502  0.99572 
   -19.2527  0.09105  3.07899      13.6745  1.78178  1.17381   7.74197  0.12657     0.13932   8142.91093   8835.02074  1.51078         3436.88844     17.94904  0.00049   57335.9073  3.06223  0.70488   7022374.89673   44.6964  21.98018  57430.34464    51.37804       44.39133   42.52494  79.89535   82.5    0.10548  -21.79832  0.96526 
   -19.4786  0.00228  2.78157     13.71531  1.65291  1.06663   4.39195  0.21928     0.48319   5981.52157   9478.05071  1.67935         3233.73762     19.58124  0.02118   57335.6814  0.93736  0.01002   4405895.20144  44.95448  22.07734  57438.80324    51.38709       44.39177   47.67948  69.58627   75.5    0.08969  -21.61691  0.99954 
  -17.41559  0.04387  2.56337     13.62336  1.56185  1.30996  13.04655  0.08775     0.42525   6335.69997   8297.48715  2.09379         3090.52973     18.80184  0.00352  57337.74441  3.12401  0.57233   5399504.13365  44.91251  22.01668  57441.62277    51.52315       44.54998   47.67948  65.72037   84.0    0.08805  -21.72746  0.97642 
  -18.93602  0.02611  2.77178     13.71074   1.6016  0.97421   29.7117  0.02572      0.1684   4503.43331   8067.24933  4.10465          2704.2013     18.96988  0.00518  57336.22398  3.59453  0.77584   4329135.52007  44.95148  21.95976  57441.62277    51.40588       44.39755   48.96812  73.45217  105.5    0.08034  -21.46526   0.9643 
  -18.18227  0.12526  2.68335     13.58713  1.57564  1.41105   6.65526  0.17848     0.31527   7396.87566   8665.80747  2.81321         2579.97209     16.88076    4e-05  57336.97773  2.17215  0.83366    7052845.1699  44.76059   22.1894  57441.62277    51.40736       44.41528   50.25675  69.58627   83.0    0.09055  -21.72184  0.96298 
  -17.24539  0.02493  2.75297     13.56544  1.59758  1.54628  31.52637  0.01674     0.11208   4539.32909    8633.0544  2.96811          3011.6343     19.72126  0.02924  57337.91461  3.87511  0.78587   8317680.06553   44.6727  22.10849  57438.80324    51.45461        44.4824   46.39085  65.72037  113.0    0.08996  -21.54658  0.96369 
   -18.1927  0.09503  3.17992      13.9928  1.69614  0.44174  19.02756  0.02778     0.16258   5230.02202   8404.50911   2.7946         2943.01472     19.85295   0.0396   57336.9673  3.10468  1.80821   1646319.40365  45.27696   21.8937  57438.80324    51.47464       44.51071   47.67948  68.29763  114.0    0.08845  -21.47105  0.90378 
  -19.26362  0.03082  3.01747     13.61089  1.68475  1.43227  38.11228  0.01344     0.05755   4606.84809   8850.60142  2.47542         3059.08642     19.40833  0.01423  57335.89638  4.82503  1.17477   8548051.66953  44.60423  21.95891  57447.26184    51.41775       44.41241   54.12265  72.16354  115.5    0.08235   -21.4495  0.94095 
  -20.10446  0.01132   2.6869     13.55242  1.50463  1.16343  11.58433  0.06459     0.16799   6770.52242    8860.2499  1.45089         3253.20146     18.15892   0.0008  57335.05554  3.16769  0.13111   7923299.08632  44.68887  21.99266  57433.16417    51.37993       44.40004   45.10221  72.16354   94.0    0.09301   -21.6384  0.99345 
  -21.98665  0.02873  2.90598     13.62015  1.71266  1.53229  14.02177  0.05794     0.25028   5498.39564   8550.99785  1.98146         3222.59634     16.18708    1e-05  57333.17335  2.52873   0.4028   7722883.30234  44.68815  22.08083  57435.98371     51.3545       44.36996   45.10221  68.29763   98.5    0.08345  -21.59036  0.98102 
  -17.80616  0.27577  3.06102       13.789  1.88259  1.23617   6.67881  0.19157     0.42236   7025.30757   9580.80084  2.32977         2862.64206     19.11953  0.00732  57337.35384  1.96633  1.84184   4328110.10353  44.93557  22.14534  57435.98371    51.39625       44.39995   45.10221   70.8749   70.5    0.09061  -21.73203  0.92298 
  -21.22508  0.05862  3.05112     13.95302  1.80737  0.54722   6.48725  0.17395     0.26201   7862.76398   8309.67023   2.0248           3119.101     18.38874  0.00136  57333.93492  2.39242   0.3803   1939711.53171  45.26924  21.97057  57435.98371    51.40769       44.40088   47.67948  76.02944   82.5    0.09778   -21.7798  0.98182 
  -14.55284  0.00806  2.65126     14.17098  1.70258   0.3065  14.84505   0.0467     0.14838   4410.89672   8615.73554   2.8591         3073.97729     20.32104  0.11635  57340.60716  1.72291  0.11966    505662.56214  45.94919  22.07023  57433.16417    51.37079       44.40175   45.10221    67.009   99.0    0.08769  -21.63667  0.99528 
  -19.19423    0.002  2.84211     13.64806  1.50851  0.88485  22.45891   0.0227     0.08217   4545.83237   8777.94151  2.51399         3197.25205     17.26448   0.0001  57335.96577  2.76849  0.04488   5721651.61448  44.78259  22.03826  57438.80324    51.45417       44.41218   48.96812  81.18398  110.0    0.08941  -21.41205  0.99749 
  -21.37122  0.04624   2.8729     13.92753   1.8337  0.64205  13.30149  0.09545     0.18977   6839.08819   9174.05012  1.64671         2907.42754     17.76401  0.00032  57333.78878  3.71128    0.615   1962096.98255  45.32281  21.98199  57438.80324    51.44861       44.44682   47.67948  72.16354   76.0    0.08604  -21.71468  0.97499 
  -22.14044  0.01231  2.90179     13.63772  1.61333  1.01355  10.97117  0.06369     0.08715   6181.61285   8918.02465  1.65259         3082.92752     16.49703    2e-05  57333.01956  2.50083  0.13506   6690146.21287   44.7258  22.12602     57427.05    51.35401       44.39994   39.94767  72.16354   96.5     0.0878  -21.52832  0.99291 
  -18.22659  0.00785  2.81273     13.56338  1.60537  1.50285   3.82044  0.20929     0.26052   7331.99413   8291.89258  1.74192          2994.1343     16.80047    4e-05  57336.93341  1.22514  0.02998   8808072.71968  44.63129  22.03994  57435.98371    51.50208       44.46807   47.67948  81.18398   93.0    0.10049  -21.67547  0.99851 
   -19.0122  0.00367  3.21488     14.31157  2.02418  0.27348  24.56268  0.02853     0.04392   4276.50951   8590.10218  2.49558         3077.84672     18.87598  0.00418   57336.1478  2.67967  0.09008    462642.29742  45.89552  22.24322  57433.16417    51.38695       44.37854   46.39085  72.16354  106.0    0.07972   -21.4765  0.99592 
  -19.48266  0.25018  3.13272     13.73819  1.73965  0.98687   8.29556  0.09039     0.15785   6994.05523   9097.69843  1.24375         3566.44014     17.52371  0.00019  57335.67734  2.42065  2.07538   5293556.20216  44.79372  22.03731  57435.98371    51.39963       44.43333   43.81358  65.72037   87.5    0.10144  -21.68998  0.89841 
  -16.74835  0.00718  3.01197     13.68197  1.77084  1.47453  14.11011  0.04602     0.18668   4550.50172   9455.65699  2.45929         3232.36671      16.0204    1e-05  57338.41165  1.74291  0.10134   6452831.63615  44.74957  22.02514  57438.80324    51.54485       44.56553   48.96812  72.16354   92.5    0.08976  -21.51833   0.9951 
  -17.94147   0.1212  2.33968     13.49694  1.26191  1.52318  11.10161  0.10872     0.12951    6761.4978   9665.45037  2.62444         2912.38306     16.24035    1e-05  57337.21853   3.0276  1.34555   6505447.50583  44.81829  22.09796  57435.98371    51.35077       44.35926   46.39085   70.8749   73.0    0.09066  -21.68382  0.93883 
  -21.06487  0.01573  2.99241     13.93421  1.87346  0.58991  17.46564  0.05151     0.15443   5807.49638    8543.0968  2.35491         2888.19745     19.49572   0.0174  57334.09513   3.5139  0.27466     2109067.983  45.26536  22.04299  57438.80324    51.40407       44.40476   51.54538  76.85017   95.0    0.08135  -21.62884  0.98798 
   -22.1153  0.00588  2.66351     13.59621  1.52781  1.15423  10.90661  0.09479     0.09607   6293.62194   8873.97011  2.72083         2834.19673     18.31812  0.00116   57333.0447  2.57702  0.06408   6462153.25271  44.79163  22.03104  57438.80324    51.45502       44.47606   47.67948  68.29763   87.5    0.08612   -21.6207  0.99695 
  -18.43364  0.25899  3.28832     13.75474  1.96014  1.18944   7.11656  0.12888     0.33271    6312.1533   7926.46596  1.96101         3014.77812     17.18678    9e-05  57336.72636  1.69142   1.8431   6089467.15503   44.7426  22.13343  57430.34464    51.36911       44.35336   42.52494  76.02944  100.5    0.08256  -21.64265  0.91539 
  -18.39987  0.01362  2.76381     13.65209  1.63433  1.34328   7.07396  0.13171     0.43887   6288.88768   9636.57845  1.60206         3204.82263      19.3076  0.01128  57336.76013  1.66893  0.09637   5754284.71944  44.83918  21.88611  57441.62277    51.42471       44.42342   47.67948   70.8749   75.5    0.09683  -21.64249  0.99559 
  -20.15266  0.00525   2.8827     13.80425   1.7477  0.86725  14.78937  0.07394     0.28633   5976.20015   9606.10446  2.11955         3347.45519     17.62415  0.00023  57335.00734  3.15085  0.07758   3321925.17072  45.07032  22.07444  57433.16417    51.39319       44.41537   46.39085  72.16354   75.5    0.09064  -21.69106  0.99651 
  -17.65421  0.30853  2.94542     13.83864   1.5367  0.55095   3.40096  0.16685     0.28513   6036.16847   9925.32596  1.98007         3157.76462     18.68086  0.00266  57337.50579  0.73918   1.0493   2602620.76668  45.10173  22.00467  57438.80324    51.39691       44.41448   47.67948  68.29763   90.0    0.09672  -21.52089  0.94208 
  -18.68545  0.03276  3.23874     13.82448  2.01135  0.84679   9.17245  0.10507     0.35806   7399.02405   8203.24855  2.04203         2911.71956     16.07945    1e-05  57336.47455  2.99545  0.30048   4396456.48971  44.90848  22.01353  57438.80324    51.38993       44.40046   48.96812  69.58627   94.5    0.09135  -21.73367  0.98604 
  -23.36772  0.00254  3.03019     14.37734  1.73687  0.16277   7.73524  0.07063     0.25519   5778.73429   8656.86601  1.17124         3281.89146     16.39499    1e-05  57331.79228  1.54087  0.01965    260517.80808  46.12984  22.07566  57435.98371     51.4128       44.41067   47.67948  74.74081  110.5    0.08271  -21.46223  0.99898 
  -14.38288  0.04464  3.16708     13.83169  1.94122  1.00847   8.80054  0.11745     0.10765   7855.52409   9516.38869  1.22904         3454.98145     16.14018    1e-05  57340.77712  3.23957  0.39285   3924929.36569  44.96177  22.08663  57435.98371    51.39117       44.39136   50.25675  73.45217   68.5    0.11193  -21.79234  0.98203 
  -18.80915  0.01747  2.86129     13.71524  1.80176  1.22405  11.02136  0.13169     0.42616   7469.84452   8031.99075  3.61625         2549.92277     18.08233  0.00067  57336.35085  3.66848  0.19256   5083472.33851  44.90526  22.10325  57433.16417    51.39888       44.42658   42.52494  69.58627   81.0    0.08408  -21.75847  0.99187 
  -18.49805  0.04698  2.92444      13.6661  1.69333   1.2285  10.49461  0.06522     0.25452   5066.79874   9786.44043  1.74434         3243.21969     18.16258  0.00081  57336.66195  1.60717  0.49301   6257964.47403  44.76907  21.97816  57441.62277    51.40045       44.41178   48.96812  69.58627   89.0    0.08733  -21.50111  0.97632 
   -17.9997  0.04042  2.55551     13.84128  2.02061  0.90867  14.35024  0.11024     0.12996    7904.0168   9103.21959  1.85445         3149.07336     20.58752   0.2149   57337.1603  5.34789  0.57997   2544976.18034  45.35369  21.98867  57438.80324    51.44474       44.44404   46.39085  72.16354   72.5    0.09227  -22.12373  0.98387 
  -19.68028   0.0396  3.03609     13.78179  1.85683   1.0266   8.62733  0.12619      0.1897   7196.45791   9538.54657    1.275         3271.93596     17.34137  0.00012  57335.47972  2.66527  0.34167   4341433.46224  44.93536  21.96174  57435.98371    51.40778       44.42098   47.67948  68.29763   71.0    0.09759  -21.71738  0.98457 
  -22.83234  0.01252  2.72475     13.78736  1.64027  0.60096   4.28015  0.25785     0.35444   8283.85002   8115.93886  1.13641         3112.11778     16.76662    3e-05  57332.32766  1.75207  0.05361   3010612.03832  45.13445  22.10806  57435.98371     51.3765       44.42213   45.10221    67.009   91.5    0.09546  -21.78981  0.99757 
  -19.33813   0.0166  2.15555      13.8349  1.71383  0.64133   7.88831  0.17209     0.29061   8275.02014   9858.27049  0.58347         4897.46242     20.61192  0.22732  57335.82187  3.22218  0.13098   1581618.85277   45.6366  22.08991  57435.98371    51.38781       44.40602   47.67948    67.009   64.5    0.10226   -22.2352  0.99664 
  -17.80642    0.046  2.99754     13.74946  1.68503  0.86633  11.74956  0.05552     0.26168   5228.00183   8634.10603  2.54337         2901.82206     19.18925  0.00859  57337.35358  1.91567  0.54046   4456944.36196  44.89289  22.17802  57435.98371     51.3448       44.34738   46.39085  72.16354  102.5    0.08751  -21.47685  0.97251 
  -18.54834  0.04736  2.15011     13.47522  1.15879  1.27199  20.32779  0.03998     0.11802   4333.59986   9624.21944  2.64356         3188.62228     17.97176  0.00052  57336.61166  2.27727  0.96267    5575633.1049  44.92163   21.9464  57438.80324    51.48287       44.42799   51.54538  85.04989   87.5    0.08012   -21.5117  0.95736 
  -20.16611  0.00813  3.03191     13.65563  1.66146  1.20021  29.88833  0.01793     0.03016   4468.03803   9681.36337  2.52357         3181.28145     17.45011  0.00016  57334.99389  3.55928  0.24295   6925808.65534  44.68543  22.00363  57433.16417    51.43759       44.36066   46.39085  92.78169   97.5    0.09037  -21.42507  0.98687 
  -19.69135  0.06642  2.62363     13.71495  1.90078   1.2639   8.13509  0.14483     0.44668   6977.01923   8661.12748  1.15384         3047.78321     20.42187  0.14676  57335.46865  2.36227  0.54035   4514970.25049  45.05532   22.0353  57441.62277    51.49593       44.52345   47.67948  68.29763   81.5     0.0867  -21.87343  0.98256 
  -23.71201  0.02085  2.87318     13.74869   1.5986  0.77907   13.5993  0.04027      0.0739    4631.7906     9788.072  1.05484         3631.64111     16.00149    1e-05  57331.44799  1.74037  0.28356   3898583.94817  44.96495  22.25195  57435.98371    51.37797       44.39492   45.10221  69.58627   97.5     0.0814  -21.34692  0.98547 
