 log(Bfield)      Mns    Pspin  cutoff_power  cutoff_wavelength  fnickel    kappa  kappagamma   mejecta  log(nhhost)  temperature  texplosion  thetaPB      vejecta      A_V        MJD_0   log(KE)      M_Ni  Peak_mag     Peak_MJD 
    14.15779  1.79709  3.32935       2.47279         2990.66271  0.25926  0.02435     0.14878  23.86811     18.88085   9825.61387   -15.61871  0.38723   3804.45488  0.00422  57339.54129  51.83538  20.55437  21.93456  57443.44095 
    13.74576  1.95616  2.65219       4.75209         2156.60949  0.02223  0.08259     0.10118  10.38706     20.50341   7221.33107   -27.34495  0.66066   5461.77904  0.17707  57327.81505  52.07798   1.49484  22.25201  57415.59333 
      13.995  1.76577  3.01531       1.94876         3272.78125  0.00936  0.02324     0.11071  13.91075     19.39172   9363.30639   -26.68478  0.29644   3940.99421  0.01369  57328.47522  51.82098     0.669  22.08006  57436.47905 
    14.07615  2.06666  2.92688       2.39445         2497.08796  0.09874  0.19114     0.39003   2.52393     16.21904   5658.07977   -15.68616  0.18639  11785.43989    1e-05  57339.47384  52.58846   4.62008  22.34294  57412.11238 
    13.86652  1.42393  2.63603       3.48952          2790.8386   0.0208  0.01184     0.14882  30.52326     16.62206   9708.81777   -21.20764  0.42842   2577.97637    2e-05  57333.95236  51.51642   1.72295  22.19755  57436.47905 
    13.57486  1.68414  2.79101       0.84745         3216.33386  0.00145  0.06505     0.42121   5.47438     16.22069   4771.25747   -18.34453  0.78787   6146.04994    1e-05  57336.81547  52.11615   0.08437  22.16712   57432.9981 
    14.20271  1.56379  2.61294       1.18925         3303.21178  0.00338  0.32959      0.4724   1.31361     16.01412    8300.5192   -22.08867  0.13518    6399.3329    1e-05  57333.07133  51.96013   0.12606  22.26076  57422.55524 
    14.11338  1.80448  3.17342       3.57557         2682.56137  0.02113  0.01136     0.39138  33.46317     17.48789   8596.43391   -18.39349  0.33754    3076.8229  0.00017  57336.76651  51.67698   1.77837  22.24631  57415.59333 
    13.53579   1.8323  2.95303       2.04391         2582.44473  0.01073  0.06209     0.26261   6.63438     16.33596   9408.68281   -15.74251   0.8669   8700.61579    1e-05  57339.41749  52.43839   0.65173  22.17166  57422.55524 
    13.89327   1.7692  2.69292       1.67858           3381.388   0.0057   0.0243     0.10856  20.42692     20.31836   9958.10459   -23.15818  0.51122   3458.67767  0.11564  57332.00182  51.74011    0.4392  22.34224  57422.55524 
    13.40288  1.64346  2.86208       0.92213         2841.25343  0.07595  0.02257     0.11381  14.85555     19.63217   6462.48348   -19.06689  1.18678   8095.70974  0.02382  57336.09311  52.45202    5.5005  22.08673   57432.9981 
    13.83731  1.88182  2.98646       2.65073         2815.69305  0.00796  0.02993     0.09004  18.91126     18.54578   9658.14372   -17.98308    0.588   4549.47598  0.00195  57337.17692  51.97188   0.60466  22.28057  57426.03619 
    14.53359  2.07513  3.33902       2.05713         3215.98512  0.01118  0.01043     0.05971  40.32434     18.99378   7467.37752   -27.02527  0.11388    4001.4068  0.00548  57328.13473   51.9189     0.971  22.23075     57439.96 
    13.84152  1.87768  3.02023       1.60417         3049.30809  0.01039  0.01324     0.18619  44.23668     19.00407   7491.89057   -23.01163   0.6177   4312.63195  0.00561  57332.14837   51.9906   0.91611  22.00634  57443.44095 
    13.40427  1.90738  3.06627       1.42829         2080.64864  0.01991  0.04962     0.34875    6.8232     17.50197   5354.58196   -22.32439  1.26768    7660.2722  0.00018  57332.83561  52.33067    1.2179  22.24712  57429.51714 
    13.64285  1.87557  3.22927       4.61406         2434.79817  0.05033   0.0259     0.28587  11.49767     16.99046   9619.05484   -11.26488  0.73102     8319.627    5e-05  57343.89512  52.45291   3.45842  22.20614  57415.59333 
    13.51546  1.58542  2.76654       2.03352         3171.78485  0.00132  0.01133     0.05716  29.85874     19.87388   8782.82995   -25.53257  1.41021   2959.87889  0.04155  57329.62743  51.63473   0.10919  22.13224  57429.51714 
    13.57484  1.56491  2.43764       0.79865         3345.90813  0.00283   0.0568     0.15546  10.51822      19.3158   8613.66033   -25.04144  0.58097     6520.232   0.0115  57330.11856  52.23301   0.19091  22.33951  57415.59333 
    13.64891  1.97374  3.02728       2.81319         2817.54971  0.00817  0.01286     0.04795  32.19335      20.2897   9309.84193   -20.65697  1.54135   3433.28713  0.10825  57334.50303   51.7693   0.68294  22.36997  57422.55524 
    13.45744  1.87653  3.12036       3.03208         2483.29208  0.02023  0.01647      0.2839  22.62266     16.18259   7902.19288   -18.86778  1.20384   7730.74557    1e-05  57336.29222  52.44697   1.58797  22.01442     57439.96 
    13.40244  1.83325   2.8491       0.91556          3097.1621  0.07707  0.04102     0.15852  12.42089     16.02048   9888.15425   -17.29514  1.46151   9196.72703    1e-05  57337.86486  52.54697   5.38201  22.14833  57419.07429 
    13.42634  1.64956  2.79313       2.34685         2536.98328  0.08128  0.02481     0.34789  13.89732     20.19192   8938.48973   -14.23861  1.31261   7395.18729  0.08643  57340.92139  52.36759   5.80797  21.99503     57439.96 
    13.63776   1.7278  2.92815       2.54814         3004.26626  0.02514  0.01527     0.12757   34.9324     19.43691   9604.93917   -27.44806  1.52262   2768.84126  0.01519  57327.71194  51.58857   2.13167  22.07387  57436.47905 
    13.70714  2.06444  3.16769       1.68388         2653.09786   0.0013  0.12018      0.3719   3.64757     17.40595    6421.9281   -21.40159  0.58253   8634.46646  0.00014  57333.75841  52.36506   0.06767   22.2777  57419.07429 
    13.57203  1.70333  2.90646       1.22454         2956.34213  0.08468    0.017     0.28105  16.54218     20.04543   9778.53772    -15.7539  0.81845   5607.72794  0.06168   57339.4061  52.14231   6.26432  22.04583   57446.9219 
    13.48147  1.40147  2.53556        1.8256          2965.5329  0.02311  0.02131     0.13299  13.34102     20.15065   9414.86291   -21.99841  0.81798   4199.80145  0.07859  57333.16159  51.87254   1.63769  22.13656  57436.47905 
    13.43432  1.92098  3.06144       0.49697         3075.93324  0.00295  0.06775     0.44419    6.3567     17.99725   8533.45942   -19.79542  1.42405   8994.95761  0.00055  57335.36458  52.46284    0.1774  22.36785  57422.55524 
    13.75546  1.83317  2.93686        3.2962         2397.57255  0.01646   0.0455     0.14082   8.80128     18.44547    8724.7959   -17.37972  0.43207   9679.92684  0.00155  57337.78028   52.5593   1.06765  22.25513     57427.06 
    14.02262  2.01146  3.55175       4.38975         2683.00943  0.01008  0.01622     0.32986   12.1173      17.5219   6215.52422   -15.82794  0.37528   4029.72569  0.00018  57339.33206  51.82802   0.70051  21.96349   57446.9219 
    13.25417  1.33295  2.57473        4.0293         2251.28739  0.00851  0.01787     0.47935  12.84533     19.62963   7608.59119   -15.13994  1.46495   7887.24386  0.02368  57340.02006  52.41656   0.59845  22.18089  57436.47905 
    13.41573  1.67329  2.45386       2.03231         2471.20607  0.00741  0.18476     0.29676   2.64327     19.73329   9349.00613    -16.4732  0.72392  12003.03678  0.03006   57338.6868  52.61051   0.35169  22.34653  57415.59333 
    13.61507   1.4621  2.69036        2.0936         3139.89899  0.03176  0.01262     0.31471  23.51617     18.77591   9807.39645   -20.79774  0.82365   2897.71059  0.00332  57334.36226  51.59773    2.5112  22.42924  57412.11238 
    13.55082  2.03704  3.24801       4.61284          2230.9899   0.0309  0.02197     0.35048   18.7504     18.02544   8641.50944   -14.81685   0.9876   8689.98433  0.00059  57340.34315  52.53328   2.34223  22.42111  57426.03619 
    13.23554   1.4162  2.33752       1.40283         2882.93758  0.00164  0.06918      0.3325   6.42416     19.86169   6077.17028   -25.07728  1.41222   5996.85203   0.0404  57330.08272  52.11179   0.09876  22.21417     57439.96 
    13.51582  1.71064  3.03335       2.06768         3047.38723  0.01175  0.01242     0.06286  26.63054     16.42441   9877.08937   -20.94865  1.49194   3934.15764    1e-05  57334.21135  51.87309   0.95004  22.29451  57422.55524 
    13.52372  1.51559  2.70885        2.2079         3210.40805  0.00107  0.31714     0.19444    0.8593     19.44974   8822.93841     -15.157  1.04428   3381.56733  0.01565    57340.003  51.32812   0.03353  22.04524     57439.96 
    13.46174  1.83279  3.01794       1.81964         2858.16398   0.0116   0.0131     0.06061  29.49882     18.30375   8858.37974   -25.74289  1.40415   5317.26298  0.00112  57329.41711  52.14264   0.95554  22.01513  57436.47905 
    13.45541  1.92377  3.15698        3.3678         2193.68117  0.00486  0.05196     0.23263   6.87474     16.66586   8985.82869    -16.4642  1.50006   8257.06335    3e-05   57338.6958   52.3966     0.298  22.32466  57415.59333 
    13.61016  1.61942  2.25632       1.85049          2959.5123  0.04562  0.01124     0.20106  41.31941      20.7508    9114.1391   -27.19149  0.91272   3349.67959  0.31299  57327.96851  51.76624    3.9785  22.06379   57432.9981 
    13.45667  1.32888  2.59767       3.19389         2825.79655  0.10851  0.02182     0.04891   13.4404     16.28875   9239.50143   -14.84846  0.89495   4306.53116    1e-05  57340.31154  51.89499   7.70157  22.15105     57427.06 
    13.53124  1.61334  2.81698       1.70047         3214.34207  0.01211  0.01014     0.19898  39.98511     18.80726    9538.8856   -23.17398  1.27305    3378.8334  0.00356  57331.98602   51.7714   1.05007  22.29708  57415.59333 
    13.98157  1.76209  3.04675       2.45677         3104.69123  0.02833  0.01108     0.02011  30.99802     19.66572   8756.98535   -19.99637  0.50224   2487.69385  0.02573  57335.16363  51.48662   2.35279  22.17372  57415.59333 
    13.53712  1.59249  2.74771       2.40673         3011.42493  0.00776  0.01984     0.04898  21.59119     19.54199    9008.3429   -20.73496  1.46878   3368.95346  0.01935  57334.42504  51.72177   0.60428  22.29799  57412.11238 
    13.43618  1.79188  2.93153       3.54169         2212.79966  0.09012  0.02031     0.32469  25.90042     17.20441   8969.24953   -15.56318  0.99102  10580.90515    9e-05  57339.59682  52.73027   7.25147  22.20566  57419.07429 
    13.21292  1.09845  2.16312       1.76959         2181.76822   0.0118  0.05176     0.41023   5.41797     17.10058   9423.28826   -15.91628  0.85549   9182.05352    7e-05  57339.24372  52.46371    0.6824  22.32025  57419.07429 
    13.65317  1.81648  3.13194       1.46903         2907.70177  0.05863  0.01863     0.10502    19.564     17.78025    9673.8427   -13.86686  0.65268  10013.41715  0.00033  57341.29314  52.65992   4.47939  22.22112  57419.07429 
    13.37335  1.54467  2.53859       2.24506         2547.35932  0.05802  0.04114     0.17457   9.20912     20.34501   9470.16121   -20.46472  1.25125   6190.84211  0.12295  57334.69528  52.17542   3.80104  22.24618  57422.55524 
     13.4519  1.44532  2.50565       3.16224         2915.56611  0.01521  0.01062     0.07256   31.4217     20.27584   7792.86442    -22.6977  1.34733   2774.10369  0.10485   57332.4623   51.5823   1.26653  22.24513  57415.59333 
    13.34985   1.6074  2.00406       4.23796         2046.62242  0.00495  0.19254     0.20981   2.94527     17.12613    6146.8163   -18.67955  0.53574  12504.40526    7e-05  57336.48045  52.66014   0.24277  22.38175     57427.06 
    13.99011  1.84481  2.98886       1.36868          3088.4969  0.16374  0.09269     0.40966   4.46796     17.52284   7099.86432   -18.56056  0.26544   8516.28362  0.00019  57336.59944  52.37687    9.0134   22.1718  57443.44095 
    13.75555  1.64573   2.5157        0.0177          3084.4558  0.00584   0.2376     0.39268   2.62951      16.1947   7841.61665   -15.90984  0.36173  11995.07344    1e-05  57339.25016  52.60925   0.27667  22.46472  57422.55524 
    13.55791  1.62266  2.85605        1.9492         3200.15725  0.04001  0.01071     0.06741  47.11363     18.42817   8894.61436   -24.07724  1.52027    3652.0508  0.00149  57331.08276  51.85066   3.56565  22.03705   57432.9981 
    13.20217  1.65047  2.43086       1.74746         2479.47726  0.00128  0.24688     0.39576   1.81144     16.66436   7502.65511   -18.72046  1.42904  11158.52474    3e-05  57336.43954  52.49401   0.05393  22.07763     57427.06 
     13.5433   1.6748  2.88452        4.0474         2447.35474  0.00298  0.02747     0.08408  11.64412     17.16355   7355.53577    -19.5198  0.77254   6399.30354    8e-05   57335.6402  52.22612   0.20534  22.32346  57422.55524 
    13.68102  1.79781  3.21759       1.88912         3020.49697  0.00675  0.01708     0.15827  12.95216     18.32957   9682.04025   -18.61937   0.6514   5040.89597  0.00119  57336.54063  52.02847   0.47559  22.25655  57422.55524 
    13.79376  1.94694  3.21929       1.90743          2820.9278  0.07054  0.03777     0.25554  11.29581     17.23003   7422.59577   -21.87895  0.52132   6565.06329    9e-05  57333.28105  52.24556   4.82933  22.29702  57415.59333 
    13.61579  1.63153  2.60648         2.393         2191.80939   0.0688  0.10902     0.36401   4.81214     17.90904   8419.44839    -15.4544  0.57747    9099.9661  0.00045   57339.7056  52.44284   3.86094  22.15505  57426.03619 
     13.3821  1.41745  2.62279       2.47553         2779.92974  0.02804  0.01041     0.03179  37.91199     17.86955   8971.43589   -20.67576  1.54951   4243.80022  0.00041  57334.48424   51.9655   2.41079  22.02766   57432.9981 
    13.87355  1.88832  3.31583       1.90978         3420.53527  0.02141  0.01076     0.09719  24.51373     17.80696   9369.03215   -25.27847  0.59576   2865.53671  0.00036  57329.88153  51.59132    1.7059  22.10863  57436.47905 
    13.90547  1.79404  2.88464       3.83623         2366.80974  0.01696  0.01616     0.22991  29.41768     19.31275   8143.36077   -19.79076  0.30902   7080.80201  0.01142  57335.36924  52.39122   1.39619  22.13237  57429.51714 
    13.76842  1.92693  2.80845        1.5975         3001.42107  0.01409  0.02545     0.11829  16.72378     20.46777   9890.04069    -20.8407  0.70745   4053.17519  0.16311   57334.3193  51.86125   1.04424  22.24568  57419.07429 
    13.82588  1.91919  3.11503       4.89578         2463.80728  0.03778  0.02618     0.10441  12.58236     19.99434   6958.42311   -19.18488  0.41269   7036.16737  0.05484  57335.97512  52.31553   2.64559  22.23658  57419.07429 
    13.49255   1.7613  2.88544       1.60167         2689.75172  0.02857  0.03394     0.06714  12.58437     17.19964   9702.25458   -18.44084  1.47788   5593.69754    9e-05  57336.71916  52.11627   2.00031  22.28642  57422.55524 
    13.87202  1.91529  3.19432       2.67374         2708.44717  0.00897   0.0282     0.33021  11.14217     17.18955   7785.88929   -18.58501  0.40246   7204.17815    9e-05  57336.57499  52.32499   0.61209  22.13416   57432.9981 
    13.36561  1.62015    2.524       3.71845         2124.76445  0.00849  0.18285       0.346   2.70969     18.95792   6033.37659   -20.29444   0.8576   9606.39626  0.00504  57334.86556  52.42032   0.40585  22.19065  57429.51714 
    13.45829  1.28778  2.52729       4.63633         2446.14333  0.08833  0.01897     0.04977  13.17816     16.21074   9432.40024   -15.89183   0.6264     5531.153    1e-05  57339.26817  52.11062   6.24385  22.30694  57412.11238 
    13.56216  1.79177  2.86248       4.85062         2150.82569  0.00891  0.07782     0.38085   4.98181      18.5198   7929.22861   -19.56674  0.69661   6760.35915  0.00184  57335.59326  52.18856   0.50431   22.3894  57419.07429 
     13.7035  1.93806  2.51603       2.18968          2602.8635  0.00646  0.01615     0.12158  26.48466     20.71318     8779.248   -22.99129  0.85755   3539.15534  0.28702  57332.16871  51.78076   0.52153  22.41565  57415.59333 
    13.55729  1.57655  2.20103        1.7043         2473.49461  0.00792   0.0264     0.02497  31.41305     20.34081   7339.29523   -24.92982  1.43506   3692.45405  0.12177  57330.23018  51.83066   0.65944  22.28006  57419.07429 
    13.76984  1.56418    2.559       2.89251         2698.68693  0.09985  0.03953     0.43893  13.35097      20.3062   9766.15493   -28.33766  0.44159   4729.55853  0.11244  57326.82234  51.97579    7.0776  22.29641  57422.55524 
    13.75928  1.73814   2.4091       2.84573         2010.58765  0.02542  0.24115     0.33884   2.27588     18.33681   7621.93852   -22.63281  0.29428  10530.54888  0.00121  57332.52719  52.47656   1.15126  22.30403  57412.11238 
    14.17465  2.01944  3.20896       3.67514         2849.48679  0.00112  0.14739     0.14615   3.19262     16.38402   9936.95061   -18.89382  0.39302    2556.8937    1e-05  57336.26618  51.29165   0.05626  21.96252   57446.9219 
    13.25986  1.69955  2.49011       3.54604         2426.86439  0.00315  0.17882     0.22566   2.38699      16.2611   7225.31087   -16.21282  1.50537   9456.80951    1e-05  57338.94718  52.38971   0.14482  22.22602   57432.9981 
    13.44787  1.98192  2.81099       4.06867         2019.81058  0.00236  0.20409     0.27737   2.25301     16.80528   6446.34454   -19.96623  0.91004   9684.59774    4e-05  57335.19377  52.40242    0.1066  22.34067  57419.07429 
    14.11107  1.74966  2.81796       1.58994         3208.91719  0.01133  0.02264     0.12831  17.95075     19.44357    8049.6591   -17.82974  0.22195   5557.97577  0.01543  57337.33026  52.14145   0.85126  22.10411   57432.9981 
    13.40449  1.81247  2.99214       1.32185          2925.4699  0.00703  0.03157     0.06786  10.89486     18.04646    8354.9436   -17.67259  1.34569   8008.14525  0.00062  57337.48741  52.41481    0.4778  22.32056  57419.07429 
    13.45471  1.82292  2.69047       2.69074         2403.80928   0.0228  0.01741     0.08011  18.39006     20.60906   9043.66228   -18.08754  1.17577   6435.93262  0.22583  57337.07246  52.27086   1.72184  22.19945  57422.55524 
    14.03916  1.72328   3.0833        2.8335         2913.57017  0.11066   0.0223     0.18834   18.3394     19.53381   9472.69952   -19.70319  0.35413   3516.83988  0.01899  57335.45681  51.74571   8.35187  22.14123  57419.07429 
    13.36936  1.56264  2.41062       1.83432         2821.45656  0.05451  0.02585     0.09264   11.9448     20.59368   8241.69791   -14.81132   1.2042   6932.71214  0.21798  57340.34868  52.29798   3.77557  22.09179   57446.9219 
     13.7022  1.43321  2.47696       2.71495          2902.9912  0.01866  0.01803     0.33131  23.49982       20.067    7941.5741   -20.88609  0.65562   3014.07236  0.06482  57334.27391  51.63187   1.47491  22.33382  57419.07429 
    13.60066  1.64825  2.94568       2.99692         3068.52397  0.00118  0.01094     0.15105  33.04934     18.81329   7794.03184   -25.26999  1.25301   2618.82538  0.00361  57329.89001  51.53606   0.09913   22.2169  57426.03619 
    13.45278  1.79808   3.1593       2.29723         2889.89718  0.00671  0.01042     0.05947  21.79742     18.79723    8240.5046    -14.3328  1.27026      5591.15  0.00348   57340.8272  52.16255   0.52339  22.24159     57427.05 
    13.66686  1.81724  3.01335       2.69922         2781.57193  0.00336  0.01035     0.10879  51.26911     18.42958   9579.62149   -24.87578  1.02064   3386.58937  0.00149  57330.28422  51.79102    0.3036  22.39003  57419.07429 
    13.72899  1.69235  2.96524       2.17596         3144.46243  0.02118  0.01329     0.10372  33.55373     18.69113   9576.65039   -23.53607    0.685   3939.05416  0.00273  57331.62393  51.89176   1.78354  22.29726  57412.11238 
    13.77279  1.69878  2.87232       1.50844         2903.62522  0.05429  0.02187     0.24492   14.4962     16.42891   9078.98168   -18.33993  0.37408   6242.98065    1e-05  57336.82007  52.22416   3.91289  22.00497  57419.07429 
    14.02771  1.67847  2.79751       1.77832         2511.10945  0.08213  0.01424     0.12063  42.14325      16.5446   7352.12531   -20.89907  0.20498   8088.04142    2e-05  57334.26093  52.53334   7.18684  22.34914  57408.63143 
    13.67297  1.50065  2.78488       2.39876         2777.52521  0.32853  0.02939     0.02732  25.21539     20.00656   9701.92816   -18.63652   1.1954    3955.2446   0.0564  57336.52348  51.87347   26.3068  22.30488  57415.59333 
    13.71535  1.95406  3.48649       2.68312         3104.28581    0.001  0.02838     0.32966   9.46271     17.03382   8559.79383   -26.00854  1.28701   2089.31158    6e-05  57329.15146  51.23453   0.06609  22.06594  57436.47905 
    13.37461  1.73484  2.76366       3.30037         2037.16572  0.06527  0.18726     0.43941   2.28773     18.41808   7323.53367   -19.93019  1.14233   9291.21913  0.00145  57335.22981  52.36852   2.96121  22.27473  57419.07429 
    13.43316  2.13786  3.09094       0.42886         2630.22885  0.01381  0.18313     0.42506   2.32929     19.61021   9146.00682   -15.32189  1.31434  12253.27289  0.02264  57339.83811  52.61137   0.63023  22.29485  57429.51714 
    14.18122  1.75078  2.95846       1.11655          3914.6191  0.01758  0.01255     0.04727  19.47286     19.95852   8000.72952   -25.18621  0.19524   3773.96006  0.05049  57329.97379  51.81196   1.34237  22.13225   57432.9981 
    13.61261  1.75362  2.57129       1.82521         3101.23175  0.00811  0.01337     0.01677  31.92495     20.57133   8797.23342   -31.27693  0.96774    3022.0697  0.20704  57323.88307  51.65786   0.67697  22.29323  57415.59333 
    13.87682  2.13165   3.5596       3.04343         2628.52741  0.18402  0.01617     0.26265  19.90527     20.54175   9139.68491   -22.94731  0.52516   4592.15901  0.19341  57332.21269  51.98421   14.1063   22.0689   57432.9981 
    13.45733  1.68925  2.83529       0.14026           2486.104  0.02143  0.01469     0.07502  25.45024     18.30114   4563.67442   -17.97001  0.95879   9818.61947  0.00111  57337.18999  52.66395   1.71929  21.96664  57436.47905 
    13.83879  1.44874  3.05619       3.08635          2835.6307  0.29423  0.02278     0.09065  15.56554      19.4539   9555.52284    -16.5306   0.3992   4398.40022   0.0158   57338.6294  51.92613  21.50826  22.16402  57436.47905 
    13.38323  1.58525  2.69237        3.4249         2414.25448   0.0485  0.01367     0.27403  17.04891     20.34863   9937.49053   -14.99486  1.16187   6132.31645  0.12398  57340.16514  52.22254   3.60902  22.15411   57446.9219 
    13.66499  1.97202  3.24721       1.42238         2810.83182  0.03275  0.02132     0.25969  17.62977     18.82371   7534.67061   -13.94621  0.71346   9434.07232   0.0037  57341.21379  52.59951   2.45282  22.31995  57429.51714 
    13.88062  1.37716  2.57717       2.24652         3083.45273  0.01188  0.01186     0.24425  25.92955     19.42385   7851.17381   -19.56205  0.36255   3164.31359  0.01474  57335.59795  51.68187   0.95637  22.42515  57415.59333 
    13.28914  1.54084  2.63887       3.58978         2243.52047  0.06957   0.0122     0.03124  30.38788     17.40868   9716.13797   -16.05702  1.08405   9084.05502  0.00014  57339.10298  52.61008   5.75899  21.96467  57443.44095 
    13.86668  1.54092  3.51974       2.18838         3015.30304  0.43085  0.01987     0.08189   16.9549     17.29873   9407.61531   -18.08373  0.47417   3517.36886  0.00011  57337.07627  51.73926  32.02719  22.17036     57427.05 
    13.62027  1.83606  3.22949       1.48327         3295.52944  0.06363  0.01153     0.04246  26.96657     19.43263    9522.5155   -21.80802  1.38006   3433.17915  0.01504  57333.35198  51.75575   5.15692   22.2909     57427.05 
    13.55355  1.19135  1.87857       4.17853           2311.029  0.03814  0.01661     0.27043  21.80206     20.72423   9793.30151    -19.8208  0.38795   6143.02088  0.29441   57335.3392  52.24433   2.97348  21.95759     57439.96 
    13.66602  1.41238  2.38535       1.23214         2556.32546   0.0208  0.01109     0.10092  35.95209     19.75996   9391.23323   -16.92147  0.40786   7670.29282  0.03197  57338.23853  52.47572   1.77253  22.19537  57419.07429 
    13.72673  1.77715  3.12432       3.59568         2594.42134  0.19733  0.04121     0.37015   8.38008     18.01895   7990.39386   -15.96292  0.50679   7496.40503  0.00058  57339.19708  52.33249  12.65776  22.16772  57443.44095 
    13.64723  1.54835  2.62679       2.33034         2739.80897  0.00852   0.0373     0.38613   8.44619     16.37155   8503.10365   -20.72618  0.42073   6111.06766    1e-05  57334.43382  52.15579   0.54754  22.30675  57415.59333 
    13.53109  1.68835  3.08829       2.94344         2845.37074  0.00173  0.01193     0.14523  26.04202     18.75719   9329.40851   -19.70645  1.53014   3605.13572  0.00318  57335.45355  51.79549   0.13911  21.93755  57443.44095 
     13.5278  1.82626  2.68528       3.88224         2338.06364   0.0077  0.02356     0.28616  15.22192     20.66685   9815.59944   -21.87189  0.98009   5187.88192  0.25798  57333.28811   52.0676   0.56004  22.21462  57436.47905 
    13.70163  1.82572   2.9827       1.26778         3312.11612  0.00104  0.01045     0.15378  34.87542     19.86875   9114.81692   -27.04502  0.96707   2878.29593  0.04107  57328.11498  51.62212   0.08824  22.07033  57443.44095 
    13.98965  1.91752  2.89456        2.0891          3230.7319  0.00129  0.01386     0.10237  30.80731      20.0428   9264.16965   -21.31496  0.53332   2734.34475  0.06131  57333.84504  51.56827   0.10725  22.52194  57419.07429 
    13.30929    1.408  2.54156       1.58706         3019.96087  0.00892  0.01041     0.03976  31.79532     17.33045   9918.34355   -25.45141  1.55284   4417.07885  0.00012  57329.70859  51.98721   0.74409  22.15458  57412.11238 
    13.35613  1.90161  2.67895       2.23663         2232.15914  0.06953   0.1816     0.34754    3.4227     20.07017   8160.08504   -21.57005  1.56286  10044.53891   0.0653  57333.58995  52.48871   3.55971  22.23151  57436.47905 
    13.75911  1.59151  2.77833       3.44505          2629.5753  0.01167  0.01744     0.23962  28.18224     18.76871   9613.82505   -28.34884  0.60051   3255.90684  0.00326  57326.81116  51.71311   0.95315  21.95707     57439.96 
    13.65386   1.6822  2.93987       3.43456         2703.08625   0.0017  0.01456     0.03606  28.31324      17.1707   9034.34631   -21.56266  0.81851   3807.23142    8e-05  57333.59734  51.84934   0.13936  22.19174  57426.03619 
    13.34434  1.45635  2.57209       1.39071         2682.29926  0.02855  0.04775     0.09409   6.18593     18.22763   8191.03814   -16.33089  0.95696   8028.32232  0.00094  57338.82911  52.36124   1.70576   22.1307  57436.47905 
    13.57318  1.73233  2.99502       3.18013         2984.13174  0.00999  0.01585     0.07489  22.01987     19.88641   9693.02081    -21.5548  1.39388   3231.06511  0.04277   57333.6052  51.68706   0.78014  22.22579  57429.51714 
    13.60667   1.7754  3.01628       1.05429         3250.06704  0.05539  0.01202     0.11509  38.32559     18.77113   9700.09725   -23.43179  1.23997   4192.58616  0.00328  57331.72821  51.95575   4.77069    22.263     57427.06 
     13.5716  1.98341  3.38107         2.053         2859.19081   0.0641  0.01397     0.21741  28.40049     19.32206   8603.35356   -18.54302  1.41099   5275.53688  0.01166  57336.61698  52.13289   5.24293    22.095     57439.96 
    13.53064   1.9667   2.8902       1.40024         2502.45835  0.04877  0.01929     0.33165  20.42617     20.52481   9511.61348   -17.58713  1.09622   7977.87582  0.18601  57337.57287  52.46606   3.75653   22.2839  57415.59333 
    13.28945  1.52172  2.67459       3.84329          2336.0305  0.27775  0.05275     0.40088   9.63427     17.91533   9224.75451   -16.03389  1.52857   9502.18616  0.00046  57339.12611  52.55188  18.37621  22.02512   57432.9981 
    13.29061  1.83878  2.53737       1.94808         2168.18378  0.09648  0.12937     0.21344   4.29113     19.93877   8033.25133   -21.34634  1.48926  10323.48249  0.04825  57333.81366  52.53939   5.25468  22.18972  57415.59333 
      13.558  1.89499  2.79128       2.00722         2882.99848  0.00514  0.01161     0.12615  27.44139      20.5919   9225.40021   -20.35857  1.34541   3844.15367  0.21708  57334.80143  51.85531   0.41807  22.39548  57419.07429 
    14.29212  2.04432  2.97218        2.2529         3097.06287  0.00418  0.01081     0.02564  26.52004     20.70774   8009.35617   -17.31867  0.22364   3459.29136  0.28344  57337.84133  51.76104   0.33773  22.22795  57419.07429 
    13.65012  1.47428  2.69336       0.54968         3194.24587  0.08407  0.02077     0.23292  19.19765     19.15158   6918.96782   -16.33195  0.48448  10188.89104  0.00788  57338.82805  52.67345   6.40051  22.29739  57426.03619 
    13.66131  1.84454  2.93172       0.26631         2504.12989  0.02538  0.02472     0.16628  17.10725      17.7262   7550.07446   -29.82941   0.5787   7314.58412   0.0003  57325.33059  52.37596   1.89006  22.05252     57439.96 
    13.27835  1.58817  2.49172       1.58903          2392.9253  0.01877  0.13572     0.31737   3.50549     17.35238    7943.9019   -17.49717  1.07911  10808.24834  0.00013  57337.66283  52.55528   0.96756  22.04585  57453.88381 
    13.62539  2.02835  3.30923       0.71546         3348.18747  0.01143  0.01717     0.04929  18.89655     19.46039   9935.92093   -15.61405  0.95053   7684.72176  0.01604  57339.54595  52.42715   0.86728  22.12225   57432.9981 
    13.39649   1.5227  2.30764        1.9723         2038.32934  0.08931  0.02768     0.29712  21.17467     20.38677   8381.33676   -22.73667  0.79815    9165.5422  0.13536  57332.42333  52.58952   6.92613  22.30409  57419.07429 
    13.80049  1.71175   3.3251       1.64967         2652.07042  0.21816  0.01648     0.11261  21.31259     18.84274   7066.06445   -12.12619  0.40622   9089.87794  0.00387  57343.03381  52.58285  16.93861  21.88008   57446.9219 
    13.52867  1.48337   2.1568       3.81718         2531.24591  0.00224  0.01114     0.33013  52.28529     20.49952   9912.35236   -21.08157  1.51739    2789.2053  0.17549  57334.07843  51.62382   0.20313  22.13699  57419.07429 
    13.46059  1.78889  2.86097       3.85162         2424.59107  0.00526  0.03668     0.07788   9.16418     20.29518   8447.03926   -19.96374  1.45996   5164.86845  0.10962  57335.19626  52.01757   0.34395  22.08061  57436.47905 
    13.97586   1.5221  2.73633       1.83776         3363.03509  0.00197  0.01294     0.08021  21.79412     19.34476   7838.08876   -23.93904  0.30742   3003.42278  0.01229  57331.22096  51.62277   0.15386  22.30316  57419.07429 
    13.38101  1.60957  2.68433       2.68833         2311.67713   0.0223  0.04304     0.29622   9.08677     18.38612   8191.96629   -19.35387  1.01409   8657.48459  0.00135  57335.80613  52.46542   1.45633  22.12706  57426.03619 
     14.0418  1.63919  2.82546       0.89725         3805.16627  0.00842  0.01382     0.04778  19.07356     16.18853   8904.22115   -20.06833  0.23537   5018.55256    1e-05  57335.09167  52.05782   0.64006  22.30568  57419.07429 
    13.56005  1.86141   2.8609       1.93789         2977.31077  0.00321  0.02011     0.12671  19.62129     20.28496   9487.26994   -22.27737  1.34049   4105.78855  0.10707  57332.88263  51.88579    0.2457  21.99437     57427.06 
    13.60281  1.23855  2.10384       2.13347         3086.03005  0.00412   0.0163     0.14285  17.09739     20.51413   9582.76185   -18.15675  0.46571   4096.33327  0.18149  57337.00325  51.87232   0.30642  22.15949     57439.96 
    13.51982  1.67496   3.2663       4.20197         2505.93976  0.09457   0.0208     0.23721  10.49315     18.24794   9201.92192   -16.59766  0.97287   5012.91557  0.00098  57338.56234  52.00444   6.37396   22.0473     57439.96 
    13.32142  1.49078  2.68769         3.494         2631.15882  0.00687  0.02646     0.14297   9.36421     17.53303     9451.764   -14.50037  1.25437   6559.33637  0.00019  57340.65963  52.22724   0.45158  22.01731     57439.96 
    14.19423  1.62338  2.74566       2.10457         2592.40728  0.01267  0.01507     0.26187  24.41465     18.13714   9075.96008   -22.52358  0.13356   7986.13603  0.00076  57332.63642  52.48126   1.00842  22.31426  57419.07429 
    13.69453  1.73947  3.15013       3.09812         2599.17103  0.00903  0.01432     0.23332   14.6974     17.99846   8047.06894    -15.3923  0.59799   5162.41911  0.00055   57339.7677  52.06029    0.6526  22.44505  57408.63143 
    13.40911  1.70409  2.69759        0.0619         2955.83089  0.15915  0.05524     0.10336   8.75109      17.7708    9733.8401   -21.87191  0.96388   9552.28285  0.00033  57333.28809  52.54722  10.30812  22.24841  57412.11238 
    13.47375   1.5205  2.71645       1.44419         2512.36116  0.09166  0.01616     0.09294  24.86413     18.46308   7741.36507   -15.75941  0.78045   8431.96892  0.00161  57339.40059  52.52988   7.32129  22.20582  57422.55524 
    13.73846  2.18424  3.40534       0.63446         2885.82542   0.0295  0.01412     0.03536  24.25518     17.35605   8315.06069   -18.56035   0.6935   7425.57345  0.00013  57336.59965  52.41753   2.34544  22.04745  57436.47905 
    13.64113  1.91841  3.47488       1.21032         2463.90887  0.12651   0.0155     0.09532  19.54246     17.96981   7710.40837   -11.14085  0.86398   8566.21159  0.00052  57344.01915  52.52424   9.66373  22.24162  57419.07429 
    13.93574  1.56018  2.27142        0.1956         3170.95938  0.07054  0.32041     0.48863   2.19722     17.59555   8657.23003   -23.11422   0.1773  10325.12785  0.00022  57332.04578  52.45455   3.15897  22.27899  57419.07429 
    13.88696  1.77964  2.29366       0.06055         4760.00876  0.00996  0.17149     0.23834   5.19239     20.53573    9007.7202   -24.22402  0.32989   8114.73102  0.19075  57330.93598  52.35174   0.57007  22.26613  57422.55524 
    13.38907  1.64086  2.74309       4.17812         2328.70467  0.00692  0.02695     0.22108    11.309     18.98228    8916.1391   -23.92558  0.87158   5341.71924  0.00533  57331.23442  52.06655   0.47388  22.08208     57439.96 
    13.59327  1.94114  2.80062       3.89164         2503.20806  0.00381  0.01061     0.12397  40.32366     20.59837   8639.72009   -21.84077  1.48549    3903.5889  0.22034  57333.31923   51.8974   0.33122   22.3714  57415.59333 
    13.39977  1.57585  2.75561       2.52644          2720.9927  0.01262  0.01032     0.07036  34.01647     17.79128   8615.78134   -18.18058  1.39279   5279.42062  0.00034  57336.97942  52.14717   1.06509  22.17855  57419.07429 
    13.56437  1.36405  2.56252       2.28578         2853.66141  0.11719  0.01011     0.09455  35.91964     19.96579     5898.802   -17.08002  1.05366   2921.53029  0.05135  57338.07998  51.63725   9.98373  22.22365  57422.55524 
     13.4333  1.70317  2.94775       3.11374         2445.57123  0.00824  0.01151     0.12949  25.07689     18.94132   8632.09349   -21.18071  1.24013   5023.18493  0.00485  57333.97929  52.08065   0.65906  22.23004  57422.55524 
