 texplosion  fnickel    Pspin  log(Bfield)      Mns  thetaPB   mejecta    kappa  kappagamma     vejecta  temperature    alpha  cutoff_wavelength  log(nhhost)      A_V         MJD0  kenergy  mnickel           TSD   log(L0)  Peak_mag     Peak_MJD  log(E_rad)  log(Peak_lum)  Rise_Time    E_fold  tau_1  delta_m15     r_peak     frac 
  -18.95642  0.00488  2.30121     14.33924   1.7946   1.2833   5.30246  0.11712     0.04635  6248.40722   5866.99002  2.07041         4003.33533     20.89631  0.43756  57958.86286  1.23493  0.02588  185019.89507  46.53168  16.84569     57989.82    51.00679        44.3933   16.93955   33.8791   38.0    0.26354  -21.37143  0.99933 
  -20.56966  0.01574  0.98839     14.16867  1.32798  1.22044  18.29601   0.0316     0.01007  4689.24064   6008.05533  2.55682         4041.09926     21.07207  0.65584  57957.24962  2.39987  0.28806   55400.99232  47.65866  16.93546     57990.82    51.01251       44.38494   19.76281   33.8791   42.0      0.212  -21.27715  0.99826 
  -15.71147  0.00166  1.85643     14.34469  1.72506  1.13592  11.77274  0.04284     0.02045  5203.73002    6039.0992   2.5729           3802.678      21.0054   0.5625  57962.10781  1.90167  0.01955  112873.52916   46.9157  16.81492      57986.8    51.10718       44.50294   14.11629   33.8791   37.0    0.25548   -21.5269  0.99966 
  -14.34535  0.00538  1.41645     14.16086  1.36395  1.33593  15.23154  0.03823     0.02053   5983.8002   5909.72814   1.9292         3951.93372     21.04561  0.61708  57963.47393  3.25331  0.08187  121144.90911  47.01793  16.84684  57989.53643    51.01833       44.40087   16.93955   33.8791   37.5     0.2543  -21.50745  0.99884 
  -14.76696  0.00983  1.14213     14.26296  1.61253   1.4411   7.91764  0.06926     0.03356  5353.36803   6281.62612  2.45592         3725.87341     21.10698  0.71074  57963.05232  1.35356  0.07781   58189.00077  47.59608   16.9763  57992.60531    51.04627       44.43097   16.93955  34.08484   36.5    0.23281  -21.68183  0.99952 
  -13.99205  0.00928  1.04608     14.38319  1.51958  0.70697  10.15123  0.04047     0.01402  4442.29182   6171.23887  2.00042         4142.26368     21.15059  0.78581  57963.82723  1.19498  0.09425   26442.06442  47.98914  16.90305     57992.79     50.9962       44.39565   17.60315  32.71389   36.0    0.26736  -21.67807  0.99947 
  -22.95794   0.0028  1.81084     14.37095  1.96382  1.32973   6.65904  0.08852     0.03579  5094.77224   5840.51458  2.39509         3832.67944     21.02071  0.58269  57954.86134  1.03107  0.01864   108336.5855  47.01141  16.94471  57992.60531    51.29228       44.70923   14.11629   33.8791   42.5    0.22349  -21.13091  0.99975 
  -18.84203  0.03415    1.954     14.32538  1.81945  1.45563   5.92172   0.0985      0.0284  5498.55369   5825.67501   2.2876          3854.6624     21.01113  0.56997  57958.97725    1.068  0.20224  144159.27294   46.7881  16.85928     57989.82    51.15276       44.55946   14.79205  33.20334   40.0    0.23977   -21.3991  0.99639 
  -22.24135  0.04442  1.66987     14.42244  1.50073  0.81079   5.37692  0.11447     0.03394  4713.86157   5541.30876  2.23946         4227.87274     20.68513  0.26906  57955.57793  0.71271  0.23882   55539.73283  47.25518  16.85945     57990.82    51.36955       44.81205   14.11629  31.05584   43.0    0.20292  -20.83364  0.99604 
  -13.78348   0.0015  0.85576     14.22001  1.56141  1.25647   6.96643  0.07437     0.03226  5416.32879   6230.13865   1.8993         3907.33722     21.17743   0.8359   57964.0358  1.21912  0.01041   38549.36982  48.01164  16.92035     57992.79    51.04817       44.46269   17.62155  30.57958   36.0    0.23476  -21.80864  0.99997 
  -23.03827  0.03323  1.62803     14.48862   1.7915   0.8097  12.56234   0.0496     0.01379  5553.59882   5637.64475  1.79351         4030.47474     20.90103  0.44234  57954.78101  2.31125  0.41749   46465.10325  47.43161  16.87919     57989.82    51.22914       44.63742   16.93955   31.7103   42.5    0.21988  -20.96523  0.99504 
   -15.5717  0.02464  1.36258      14.5254  1.99004  0.75841   9.17872  0.04919     0.01893  4764.30479   6437.74103   2.4779          3914.8556     21.17429  0.82989  57962.24758  1.24282   0.2262   30521.30233  47.81438  16.85932  57989.53643    51.22333       44.63496   14.79205  33.20334   36.5    0.25972  -21.85793  0.99848 
  -14.52897  0.01347   0.9821     14.49097  1.57522  0.52083   9.22369  0.04489     0.01758  4705.61835   6718.29385  2.17035         4101.78306     21.21162  0.90437  57963.29031  1.21833  0.12421   14707.31749  48.31434   16.9391  57992.60531    51.22935       44.64823   14.11629   32.5209   35.5    0.27175  -21.91616  0.99942 
   -27.0505  0.00186  1.00541     14.34504  1.79051  0.96408   9.91728  0.06343     0.01816  4813.16614   5982.68522  1.79106         3758.60296     21.08411  0.67427  57950.76878  1.37051  0.01845   34307.54002  47.98175  16.91255     57989.82    51.04234       44.40929    17.6153   36.0266   47.5    0.19037  -20.89614  0.99993 
  -18.64089   0.0982  1.80648     14.40969  1.48495  0.88421   3.93432  0.17575     0.06635  6225.97936   5671.18667   2.0884         4146.57706     20.70655  0.28267  57959.17839  0.90973  0.38634   68204.87789  47.09308  16.89934     57990.82    50.97771       44.38612   16.93955  29.69764   38.0    0.23431  -21.17901  0.99233 
  -12.80977  0.00369  1.48437     14.26912  1.39152  0.82057   5.19245  0.08872     0.03996  5470.54474   5992.41878  2.21766          3784.8122     21.09955  0.69868  57965.00951  0.92696  0.01915   82442.57536   47.1531  16.85864     57989.82    50.95858       44.33365   16.93955  34.08484   36.5    0.28243  -21.60109  0.99971 
  -15.37864  0.00205   1.7048     14.44744  2.04189  1.17729  12.28084  0.04287     0.02448  5464.01178   6150.64447   2.0853         4118.88853      21.0607  0.63889  57962.44064  2.18715  0.02512    70197.4288  47.26921  16.88172  57994.24911    50.99533       44.41225   14.77989  32.71389   36.0    0.26642  -21.62715  0.99973 
  -16.79938  0.00879  3.11067     14.56955  2.00016  0.76758   3.66327  0.14761     0.06348  5567.81136   5656.33075  2.35422         4238.70047     20.83522  0.38014   57961.0199  0.67743  0.03219  130466.37863   46.4687  16.83002  57989.53643    51.39735       44.83202   14.11629  31.45168   37.5    0.25638   -21.3643  0.99869 
   -21.5071  0.00428  0.89828     14.18786  1.58067  1.48934  10.40128  0.06036     0.02562   5544.7222   6229.47765   2.0281         3675.80634     21.16453  0.81144  57956.31217  1.90754  0.04448   49861.02691   47.8631  16.90875  57989.53643    51.14994       44.54631   14.79205   34.6684   42.5    0.22204  -21.31074  0.99984 
  -13.19649  0.00247  2.31162     14.60087  1.85263   0.5811   5.62763  0.09643     0.05086  6138.78767   5750.33027  2.11638         3831.14982     21.00852  0.56657  57964.62279  1.26508   0.0139   57768.99132  47.04711   16.8567      57986.0    51.04292       44.38218   16.93955  39.52561   37.0    0.26507  -21.44744  0.99965 
  -21.89258  0.00564  2.40915     14.63658  2.04633   0.6369   10.5616  0.06352     0.02187  5625.18018   5721.52684  2.21042         3798.87048     20.88637  0.42766   57955.9267  1.99356  0.05961   58797.28607  47.04674  16.85253  57989.53643    50.99512       44.38261   16.93955   33.8791   42.0    0.22076   -21.0403  0.99862 
  -19.24892  0.01925  1.43974      14.3037  1.83975   1.5678     8.862   0.0612     0.01595  5180.92072   5952.62439  2.16282         3987.27751     21.08031   0.6684  57958.57036  1.41897  0.17056   87447.00239  47.27529  16.98248     57990.82    51.03157       44.38475   19.76281  36.70235   39.5     0.2347  -21.52967  0.99847 
  -15.67405  0.00104  0.82154     14.27922   1.0675  0.44611  12.00913  0.03647     0.01257   5142.1361   6303.99356   1.7483         4034.81429     21.16339  0.80931  57962.14523   1.8942  0.01249   18492.48287  48.20096  16.87382     57991.15    51.10709       44.51902   14.11629   32.5209   36.0    0.25999  -21.78725  0.99992 
  -17.81289  0.00392  1.51831     14.25316  1.60459  1.10945   7.82356  0.05989     0.02058  4694.21908   6289.85732  2.43099          4052.1806     21.13095  0.75107  57960.00639  1.02839  0.03071  107048.26593  47.08191  16.73775  57983.39866    51.09864       44.44662   16.93955  37.35682   38.0    0.26077  -21.73175   0.9996 
  -16.29199  0.04897  1.29994      14.1462  1.25784  1.36992   5.02981  0.11621     0.04585  5646.95837   5972.40152  2.05324         4093.73709     20.95467  0.50049  57961.52729  0.95677   0.2463  100666.05423  47.13774  16.76833     57984.14    50.97936       44.34388   19.76281   33.8791   37.5    0.24563  -21.45833  0.99683 
  -20.34689  0.00366  2.17411     14.40294  1.54798  0.77422  12.31287  0.05935     0.02126  6224.18155   5522.98371   2.2986         3857.25709     20.74415  0.30823  57957.47239  2.84545  0.04508  106235.49917  46.75778  16.86269     57987.78    51.00229       44.37093    17.6153   34.6684   40.5    0.23088  -21.13343   0.9987 
   -20.4922    0.026  1.97439     14.42171  1.66559  1.13335  15.83664  0.05003     0.01691  6519.52774   5196.89987   2.2579         3792.96552     20.60217  0.22228  57957.32708  4.01534   0.4118    86461.3988  46.96272  16.86164     57987.78    51.03826       44.41442   19.76281   33.8791   40.5    0.22954  -20.91352  0.99181 
  -18.69481  0.00433  1.80762     14.33953  1.77906  1.29986  11.37239  0.05113      0.0222   5602.3761   5953.86869  2.35401         3851.68226     20.98026  0.53086  57959.12446  2.12923  0.04924  113021.62059  46.95166  16.85874      57986.0    51.11331       44.49236   16.93955  34.53356   38.5    0.24616  -21.42216  0.99923 
  -27.07172  0.00138  2.14393     14.37814  1.58813  0.86329  10.11369  0.06569     0.01783  4977.41539   5413.16919  2.02207         4184.86337     20.61847  0.23078  57950.74756  1.49467  0.01398  118806.43213  46.73247   16.9792  57992.60531    50.84127        44.1723   22.58606  36.70235   44.0    0.20426  -20.70865  0.99962 
  -22.23165  0.00819  1.48975     14.53139  1.88532   0.6389   6.74195  0.09281     0.02802  5353.95657   6033.37848  2.45328         3656.07839     21.08105  0.66954  57955.58763  1.15282  0.05524   33624.22489  47.67135  16.85773     57989.82    51.00442       44.39339   16.93955   33.8791   43.0    0.22342   -21.2583  0.99948 
  -13.85287  0.00394  2.19543     14.26865  1.57918  1.21097   3.65078  0.13888     0.07657  6105.30746    6213.9238  2.66134         3604.70097     20.97389  0.52314  57963.96641  0.81176  0.01437  205114.25254  46.47224  16.89474     57989.82    51.01607       44.37763   14.11629  38.16741   36.5    0.30166  -21.46436  0.99959 
  -19.62474  0.00115  1.80553     14.23037  1.54547  1.51411   4.03639  0.15535     0.06847  5959.61299   5713.13393  2.28086          3936.9952     20.93525   0.4786  57958.19454  0.85518  0.00465  161937.17738  46.73535  16.85843      57986.0    51.28273       44.64989   16.93955  36.70235   39.0    0.23923  -21.34508  0.99991 
  -13.75064  0.00118  0.78722     14.24407    1.594  0.97207  16.68911  0.02657     0.01106  4990.53023   6468.57819  1.79966         3933.44324     21.26558  1.02402  57964.06863  2.47944  0.01969    29810.3827  48.20477  16.81772     57990.82    51.25322       44.68802   14.11629  31.05584   36.0     0.2519  -21.92772  0.99995 
  -16.95454   0.0015  3.22892     14.72689   2.0364  0.51407   6.62805  0.07911     0.03169  5727.52781   5476.24164  2.48295         4004.86322     20.76791  0.32556  57960.86474  1.29702  0.00991   69345.54026  46.71857  17.03325  57992.60531    51.18487       44.58021   14.62998  34.83047   37.0    0.28559  -21.33905  0.99958 
  -23.84579  0.01532  1.11642     14.28981  1.59196  1.17734  10.69038  0.06039     0.01895  4988.38996   5884.02346  1.89854         4250.37913     20.97124  0.51996  57953.97349  1.58687  0.16383   48504.30447  47.68935  16.82955     57987.78    51.21214       44.63078   14.79205  31.03455   43.5    0.20784  -20.96918  0.99904 
  -14.05257  0.03058  0.93867      14.1639   1.4682  1.44691  10.39099  0.03984     0.01168  4548.08409   6514.64514  2.34317         3922.01649     21.19775  0.87594  57963.76671  1.28216   0.3178   56470.26799  47.73878  16.89575     57987.78    51.06531       44.42824   19.76281  35.34416   35.5    0.27547  -21.90793  0.99853 
  -15.52459   0.0082  1.56091     14.33408  1.84201   1.2325  17.52609  0.02867     0.01185  5566.00161   6288.86542  2.21387          3839.2169     21.13926  0.76558  57962.29469  3.23891  0.14367    89475.8218  47.19567  16.88321     57989.82     51.2734       44.69788   14.11629  31.05584   36.5    0.28465  -21.69755  0.99845 
  -17.71629  0.01181  1.88942      14.6304  2.00781  0.60786  16.11349  0.03591     0.01315  5852.90872   5901.40114   2.1209         3749.77833      21.0427  0.61296  57960.10299  3.29276  0.19035   36509.09872  47.45651  16.91371  57992.60531    51.14324       44.56622   14.11629   32.5209   38.0     0.2421  -21.51536  0.99731 
  -17.89497  0.00245  1.95149     14.40666  2.03606  1.53366    5.6467  0.10031     0.04731  5520.19154   5980.17101  2.13849         3959.96354      21.0103  0.56889  57959.92431  1.02643  0.01386  110667.67279  46.95288  16.85164     57987.78     51.0222       44.40122   19.76281   33.8791   38.0     0.2448  -21.49635   0.9998 
   -19.5715  0.02933  1.59349     14.36367  1.69517  1.33108   9.42122  0.06373     0.02165   5061.5771   5687.72486  2.47711         3959.65108     20.90224  0.44357  57958.24778  1.43981  0.27629   74882.54959  47.21898  16.98111     57991.15    51.00183       44.35986   19.76281  36.20075   40.5     0.2142  -21.14748  0.99667 
  -13.27931  0.00112  1.99614     14.61055  2.17139  0.69132   4.97627  0.09557     0.05365  5410.68989   6130.00952  2.27687         3882.28433     21.15329  0.79071  57964.53997  0.86903  0.00557   48287.36941  47.32137   16.8948     57991.15    50.98008       44.36949   16.93955  33.37749   36.0    0.27521   -21.6801  0.99992 
   -17.7138  0.00493  1.44073     14.71022  1.84429  0.43936  14.49625  0.03597     0.01314  4569.53415   6144.21004  2.36463         4072.76951     21.07701  0.66335  57960.10548  1.80562  0.07147   13501.27363  48.08714  16.86263  57989.53643    51.06567       44.44975   16.93955   33.8791   39.5    0.22275  -21.62106  0.99938 
  -20.74846  0.00487  1.77482     14.47721  1.66202  0.70083  18.19195   0.0334     0.01479  5506.55562   5711.61766  2.10338         4079.11044     20.91267  0.45436  57957.07082  3.29053  0.08858   53992.52688  47.25884  16.85383     57986.77    50.95643       44.30669   19.76281  35.34416   40.0    0.23861  -21.19977  0.99852 
  -21.55635  0.00314  1.52389     14.32517  1.87125  1.42129   7.62302  0.08491      0.0348  5736.86698   6044.02608  1.80298         4006.33229     21.05217  0.62646  57956.26293  1.49659  0.02391   90262.95629  47.21956   16.9164     57990.82    51.15954       44.54546   17.45323  34.83047   41.0    0.22298  -21.24215  0.99976 
  -16.30759  0.00699  1.41558      14.4768   1.9633  0.84662   18.7066  0.02689     0.01051  5380.42041   6215.41122  2.39135         3686.82008     21.12798  0.74595  57961.51169  3.23039  0.13073   40650.22835   47.6509  16.80244  57992.60531    51.09976       44.55527   16.50942  27.30451   37.5    0.26084    -21.748    0.999 
  -14.11476  0.00113  0.88338     14.33383  1.96222  1.51347   12.3928  0.03425     0.01582  4637.08652   6513.06206  2.06515         3879.90743     21.22422  0.93099  57963.70452   1.5896  0.01397   30563.15146   48.1841  16.87047     57990.82    51.11515       44.52304   14.11629   33.8791   35.0    0.23857  -21.96008  0.99997 
  -11.46225  0.05154  0.83586     14.39863  1.77524  1.10135    13.771  0.03622     0.01144  5349.57637   6612.33915  2.52472         3561.02221     21.20043  0.88136  57966.35703  2.35088  0.70982   18368.76489  48.40976  16.88098     57991.14    51.00416       44.39945   16.93955   33.8791   36.5    0.24761  -21.70313  0.99874 
  -20.59971  0.00423  2.00609     14.67123  1.85845  0.49242  14.51634  0.05184     0.02173  6377.90537   5574.88292  2.13546         3676.93602     20.92781  0.47048  57957.21957  3.52241  0.06144   31565.40024  47.43408  16.95365     57991.14    51.28859       44.69752   14.11629   33.8791   41.0    0.22359  -21.17374  0.99888 
  -19.17671  0.00171  2.08655     14.25656  1.63966  1.35101   4.86452  0.12231     0.04917  5610.35828   5939.12754   2.2524         3889.46414     20.97009  0.51858  57958.64257  0.91337  0.00834  203375.75744  46.53644  16.91029  57989.53643    51.03035        44.3962   19.76281  35.34416   40.0    0.24414  -21.34178   0.9998 
  -19.41527  0.01508  1.96922     14.53377  1.50402  0.54685  14.41842  0.03684     0.01351  5120.11028   5680.87039  2.09818          4294.9084     20.81513  0.36296  57958.40401  2.25478  0.21749   46357.92859  47.19138  16.91329     57989.82    51.16046        44.5606   14.11629   33.8791   38.5    0.24282  -21.21933  0.99473 
  -18.55439  0.02031  2.36245     14.30652  1.43907  0.88535   3.57508  0.16159     0.05799  5591.63037   5544.46363  2.54096         3942.57858     20.78157  0.33597  57959.26489  0.66679  0.07262  181798.81231  46.42061  16.93275     57992.79    51.19575       44.60119   14.11629  34.08484   39.0    0.25637  -21.26903  0.99722 
  -26.07989  0.01112  2.24454     14.27629  1.49144  1.22899  16.52178  0.04517     0.01225   5903.9077    5256.3125  2.08332         4089.41018     20.35149   0.1248  57951.73939  3.43529  0.18365  195479.76274  46.44909  16.96365     57991.15    51.10154       44.51418   14.11629   32.5209   42.5    0.22104  -20.72474  0.99407 
  -13.31108  0.00162  1.06336     14.43169  1.56422  0.63003   9.34263  0.05907     0.03309  5924.85754   6288.52137  2.51363         3414.57738     21.17888  0.83871   57964.5082  1.95638  0.01513   22495.68386  48.05768  16.92176     57992.79    51.12856       44.55663   16.93955  29.69764   37.0    0.27396  -21.76962  0.99991 
  -10.89625  0.01359  1.17419     14.66772  1.77989  0.45286  22.56582  0.01926     0.01011  5429.21005   6340.01076  2.21421          3977.4994     21.19562  0.87166  57966.92303  3.96782   0.3067   10525.70461  48.35751  16.88517     57989.82    51.15114       44.55284   14.79205  33.20334   33.5    0.28871  -21.87163   0.9983 
  -15.10916  0.02273  1.12219     14.54356  1.90714  0.65541   8.00827  0.05962     0.02348   4878.0158   5952.46516  2.06648         3749.38823      21.1628  0.80822  57962.71011  1.13672  0.18203    18248.1033  48.18788  16.80683  57989.53643    50.96933        44.3623   16.93955   32.5209   38.5    0.26562  -21.72495  0.99919 
  -12.29406   0.0023  1.27408     14.61201  1.74192  0.44553  13.72282  0.03039     0.01141  4795.23424   6510.67433   2.1858         3960.35842     21.22623  0.93532  57965.52521  1.88231  0.03163   15675.48556  48.10426  16.90829     57989.82    51.04214       44.40997   16.93955  35.34416   35.5     0.2721  -21.83913  0.99976 
  -15.99419  0.03523  1.17158     14.61357  1.99497  0.74611  13.30065  0.04218     0.01395   5422.9031   5975.51244  2.22111         3867.34523     21.05333  0.62814  57961.82509  2.33326  0.46858    15071.1538  48.25309  16.90994  57992.60531    51.37504       44.81689   11.96879  33.20334   38.0    0.25235  -21.54924  0.99823 
  -20.43305  0.00563  2.37452     14.29195  1.61763  1.32604  10.42186  0.05538      0.0215  5482.10723   5380.92167  2.17125         4083.83611     20.73722  0.30335  57957.38623  1.86839  0.05863  220773.34501  46.38263  16.90771     57992.79    51.15842       44.58976   14.79829  30.57958   39.5    0.24872  -21.12396  0.99811 
   -21.2198  0.00156  1.57914     14.24846  1.59746  1.28855  13.27574  0.04477      0.0178  5457.83802   6032.91764  2.12365         3867.99383     21.01619  0.57666  57956.59948    2.359  0.02066  117805.43371  47.00427  16.89185     57989.82    51.31832         44.763   14.62998  31.19662   41.0    0.22912  -21.21733  0.99971 
    -8.7365  0.00438  2.18439     14.36178  1.64406  0.88322  15.43512  0.02764     0.01675  6422.38531   6052.57144  2.40824         3797.05672     21.11032  0.71622  57969.08277  3.79778  0.06768  137671.65957  46.66726  16.93204     57990.82    51.12027       44.49932    17.6153   34.6684   33.0    0.33838  -21.66508   0.9982 
  -19.69194  0.00432  1.22816     14.26124  1.59399  1.01562   7.91608  0.05849     0.01931  4718.90262   6320.49658   1.9115         4083.19196     21.10899  0.71404  57958.12734  1.05152   0.0342   67038.48851   47.4665  16.98057     57991.15    51.01655       44.36916   19.76281  36.20075   39.5    0.24055  -21.47413  0.99972 
  -10.49208  0.00786   3.4413     14.56677  1.85827  0.66319   2.81422  0.15596     0.09579  6306.84129   5690.60781  2.41362         4123.22084     20.89551  0.43676   57967.3272  0.66774  0.02213  150252.03887  46.28769  16.82652     57989.82    51.19175       44.62744   14.11629  31.05584   34.0    0.32378   -21.4245  0.99876 
  -19.65181  0.00357  1.83218     14.23011  1.58223  1.54953   9.56973  0.06298     0.02441  5606.31742   5891.29931  2.23429         4051.20794     20.98285  0.53404  57958.16747  1.79425  0.03412  170924.81009  46.70937  16.94189     57992.79    51.31554       44.76299   14.11629  29.69764   39.5    0.24735   -21.3787  0.99933 
  -17.93535  0.02475  2.84311     14.42222  1.87564  1.44456  10.98806   0.0567     0.02452   6354.3887   5496.24432  2.63647         3794.11549      20.6257  0.23465  57959.88393  2.64665  0.27199  201428.39076  46.33029  16.98222  57992.60531    51.02415       44.40411   19.76281  33.37749   37.5    0.27746  -21.24233  0.99003 
  -15.20002  0.00748  1.29544     14.30302  1.52591  0.90246  12.36311  0.04369     0.01757   5446.1994   6318.33219  1.95861         4020.90588     21.12289  0.73726  57962.61926  2.18747  0.09253   58904.11138  47.45739  16.83947     57987.78    51.02291       44.39769   17.45323  34.83047   38.0    0.25964  -21.63628  0.99911 
  -14.48298  0.00762  1.04164       14.467  1.79912  0.65265  12.32813  0.03393     0.01279  4719.52038   6828.94957  1.99081         3930.70992      21.2547  0.99869   57963.3363  1.63802  0.09397    21101.9197  48.16415  16.94526  57992.60531    51.37638       44.82638   14.11629  31.05584   36.5    0.27145  -21.84875  0.99959 
   -16.8173  0.00876  2.34905     14.54656   1.6939  0.65726  10.50975  0.05574     0.02533  5838.95342   5629.22826  2.48447         3754.71237     20.81957  0.36669  57961.00198  2.13742  0.09201   70044.18893  46.91057  16.87419  57992.60531    51.02798       44.44446   16.97758  31.22355   38.0    0.25179  -21.26656  0.99731 
  -11.41005  0.01661  1.25038      14.3229   1.7374   1.1585  13.68402  0.03211     0.01378  5079.67966   6278.14441  2.47999         3634.52594     21.21189  0.90494  57966.40923  2.10627  0.22734   57016.59808  47.55866  16.88884     57991.14    51.05755       44.43612   16.93955   33.8791   35.5    0.26237  -21.73258  0.99843 
    -12.282  0.00545  1.58572     14.32121  1.84264  1.55042   8.64605  0.04856     0.01837  4749.29256   6512.58699  2.29843         4118.95825       21.149  0.78295  57965.53728  1.16333  0.04709   98013.09194  47.14255   16.8834     57990.82    51.29493       44.73641   14.11629  31.05584   35.5    0.28502  -21.74843  0.99948 
   -20.5504  0.00269  2.22425     14.35538  1.77769  1.16801  11.36443  0.04879     0.01826  5296.39144   5613.09784  2.13986         4168.75613     20.89844  0.43972  57957.26887  1.90167  0.03052  158953.31872  46.62306  16.83599     57991.15    51.15984       44.58351   16.93955  29.69764   39.5    0.25197  -21.23366  0.99925 
  -15.32659  0.04206  0.74967     14.47607  1.92181  0.86312  12.29901  0.03724     0.01211  4775.82719   6683.22191  2.15074         3808.24767     21.21544  0.91235  57962.49269  1.67338  0.51727   11197.39766   48.7537  16.92633     57990.82    51.04458       44.42186   16.93955  34.08484   37.5    0.26459  -21.83733  0.99941 
  -12.44726  0.00259  1.70023      14.2834  1.70981  1.53341  21.34934  0.02279     0.01153  5499.65872   6472.17653  2.44908         3823.85835     21.11293  0.72054  57965.37202  3.85197  0.05522  124447.63553  46.94579  16.92352  57992.60531    51.18815       44.62033   14.11629  31.05584   36.0    0.28508  -21.64133  0.99919 
  -17.10205  0.00389  1.10006      14.3212  1.71098  0.97391  13.07047  0.03537     0.01316  4796.83888    6312.0582   2.0711         4029.76629     21.18676  0.85405  57960.71722  1.79403  0.05089   43800.99736  47.77778  16.86611     57991.15    50.92844         44.323   17.60315  32.71389   37.0    0.26275  -21.84921  0.99973 
   -7.34278  0.00229  1.04833     14.27872  1.54011  0.91053   14.7674  0.02226     0.01037  4429.97012   6896.48988  2.55257         3670.46954      21.2448  0.97618   57970.4765  1.72875  0.03387   43544.11554  47.77647  16.99943     57991.15    51.08173       44.45355   16.93955  36.20075   32.5    0.30748  -21.91522   0.9998 
  -13.68392  0.02151  1.11517     14.13162  1.32432  1.43747   7.32445  0.06122     0.02622  5159.54222   5931.79965  1.96089         4093.85152     21.11941  0.73137  57964.13536  1.16312  0.15756   83416.81413   47.3749  16.91442  57992.60531    51.17361        44.6107   14.11629  31.05584   34.5    0.26244  -21.65461  0.99867 
  -17.30686   0.0301  1.57395     14.35685  1.70244    1.052   5.48124   0.1146     0.03822  5416.07939   6225.99021  2.29106         3840.50721     21.06374  0.64339  57960.51242  0.95913  0.16497   75711.25456  47.22677   16.8639  57994.24911    51.30964         44.785   13.68617  28.66271   40.5    0.20588  -21.48341  0.99798 
   -18.3325  0.04051  2.60662     14.50896  1.89859  0.84436     5.664  0.09566     0.03363  5899.99321   5672.04175  2.39538         3945.71469     20.82426  0.37067  57959.48678  1.17612  0.22946  114939.97627  46.65465  16.97625  57989.53643    50.99474       44.34762    17.6153  36.23234   37.0    0.28737  -21.38166  0.99303 
  -27.49765   0.0029  1.80808     14.50787  1.97391  0.87647  24.00484  0.03264     0.01091  5710.75753   5676.64079  1.83186         4048.89919     20.80698  0.35621  57950.32163  4.66996  0.06969   57788.37037   47.2879  16.79271     57987.78     51.1914       44.59158   17.45323  33.36541   44.0    0.21334   -20.7591  0.99909 
  -17.86236   0.0079  2.26659     14.42463  1.94946    1.283  16.25706  0.03417     0.01236  5487.20253   5771.53392  2.65654         3716.52621     20.85438  0.39729  57959.95692  2.91992  0.12847  131590.09038  46.72879  16.85468     57991.15    51.30913       44.75523   14.11629  28.88704   38.5    0.26413   -21.3797  0.99721 
  -22.56737  0.00111  1.90729     14.33831  1.78476  1.27619  15.71363  0.04695     0.01933  5930.85515   5629.83043  1.72475         4051.77944     20.92487   0.4673  57955.25191  3.29715  0.01751  126943.12635  46.85598  16.83521  57989.53643     51.1668       44.56493   16.93955   32.5209   41.5    0.21867  -21.02076   0.9997 
   -15.4714  0.00146  1.73741     14.41755  1.68397  0.78994  13.02846  0.04084     0.02087  5784.15754   5897.41893  2.24469         3861.17797      21.0594  0.63698  57962.34788  2.60016  0.01906    68999.4555  47.17653   16.8874     57991.15    51.03991        44.4354   16.93955   33.8791   36.5    0.27336  -21.59035   0.9997 
  -27.96944  0.00113  1.78751      14.3403   1.8708  1.22709  14.09763  0.04437     0.01033   4827.0549   5475.29678  2.32728         3961.02038      20.8625  0.40478  57949.84984  1.95947  0.01589  115809.56473  46.97263  16.87518     57990.82    50.93879       44.29113   19.76281  36.20075   45.0    0.20532  -20.89315  0.99977 
  -24.55524   0.0025  2.35416     14.28209  1.70155  1.52732   6.39993  0.09296     0.02967  5511.38915   5760.67283  2.39087         3983.09824     20.74996  0.31238  57953.26404  1.15964  0.01601  238865.27409  46.37787  16.92339  57989.53643     50.8915       44.24093    17.6153  36.23234   41.0    0.24299  -21.02176  0.99953 
   -21.6422  0.06605  2.14781     14.53667  1.65194  0.57417   3.80154  0.16479      0.0487  5889.93941   5597.35422  2.14283         3956.60604     20.85923  0.40175  57956.17707   0.7867   0.2511   59766.59148  47.04639  16.85735  57989.53643    51.06594       44.45666   14.79205   34.6684   41.0    0.24305  -21.15325  0.99364 
  -22.13195  0.00173  1.72216     14.59518  1.71155  0.54822  24.23896  0.02794     0.01233  5948.29201   5703.74804  2.03679         3836.41427     20.85296  0.39599  57955.68733  5.11594  0.04182   30408.41975   47.5471  16.89532      57986.0    50.93637       44.26574   19.76281  39.52561   41.0    0.22686  -21.03594  0.99938 
  -23.22875  0.00345  1.70546     14.30917  1.64002   0.9863   5.80205  0.09762     0.04211  5298.87068   5724.54055  2.40378         3721.86674     20.99943  0.55483  57954.59053   0.9718     0.02  106662.66311    46.992  16.84729  57986.46755     51.1856       44.56154   19.76281   33.8791   42.0    0.22195  -21.14876  0.99968 
  -20.30207  0.00763  3.21705     14.50419   2.0378  1.08951  12.61488  0.06374     0.02138  6503.70862   5354.40474  2.41055         3716.83886     20.55062   0.1974  57957.51721  3.18297  0.09628  192094.58897  46.27958  16.89811  57992.60531    51.01443       44.43018   17.60315  30.59798   40.5    0.22041  -20.96577  0.99595 
  -16.26362  0.03518  1.45415     14.42449  1.78712  1.40732  12.87819  0.04594     0.01461  5401.71972   5872.15969  2.27909         4177.11939     20.92358  0.46592  57961.55566  2.24154    0.453   49683.23674  47.49957  16.82915  57989.53643     51.0337       44.41729    17.6153   34.6684   37.5    0.25118  -21.46199  0.99629 
  -20.94843  0.01794  1.35153     14.63926  1.97774   0.7675  20.29273  0.03907     0.01586  6177.36432   5787.80151  1.67177         4252.39383      20.8308   0.3763  57956.87085  4.61928  0.36401   17664.98028  48.05625  16.92351     57992.79    51.41159       44.86029   14.11629  31.05584   41.0    0.21236  -20.92951  0.99804 
  -26.51558  0.00314  0.96868       14.254  1.37954  0.69939   9.49723  0.06521     0.01531  4936.94889   6403.18915  1.91365         4000.02033     21.13781  0.76303   57951.3037  1.38083  0.02985   37318.12593   47.8643  16.83488     57990.82    50.91427       44.29985   19.76281  33.37749   46.0    0.19671  -21.12729  0.99982 
  -14.66589  0.02267  1.02994     14.29318  1.73616  1.45023   6.82203  0.06936     0.02901  5095.71972   6476.20166  2.15134         3962.60536     21.15857  0.80038  57963.15339   1.0567  0.15463   44327.36011  47.83614  16.82989      57986.8    51.13417         44.497   16.93955  36.70235   34.5    0.26192  -21.83681  0.99937 
  -17.53137  0.05101  1.11484     14.60029  1.84878  0.61171  10.59591  0.05744     0.01438  5524.64726   6184.76482  1.75833         3841.75405     21.09784  0.69593  57960.28791  1.92919  0.54051   13444.88687  48.31275   16.9624     57994.78    51.03281       44.44144   17.62155  32.69549   40.5    0.22627  -21.46096  0.99773 
  -17.73207  0.01318  1.43546     14.60389   1.7316  0.50434   9.96511  0.05159     0.01693  4916.26196   5944.70931  2.32291         3813.29834     21.07363   0.6582  57960.08721  1.43674  0.13135   20533.50944  47.88085  16.82598     57989.82    51.28049       44.71493   14.11629  31.05584   39.0    0.23628  -21.57785  0.99872 
  -19.15287  0.00351  0.74099     14.38945  1.84627  0.87961   14.1058  0.03428     0.01206  4815.81512   6546.74311   1.6667         4170.32502     21.19978  0.88005  57958.66641  1.95148  0.04951   15661.34067  48.60069  16.89183     57987.78    51.29442       44.69155   14.11629  34.53356   39.0    0.23977  -21.57847  0.99993 
  -10.12047  0.05822  1.30025     14.50123  1.74475  1.07167  10.93007  0.05778     0.02168  6596.70103    5790.3733  2.54299         3863.55543      20.9817  0.53263  57967.69881  2.83729  0.63631   27235.76749  47.84738  16.83998     57991.15    51.12361        44.5376   14.11629   32.5209   34.5     0.2939  -21.56054  0.99637 
  -18.11173  0.00286  1.53322      14.3318  1.84116  1.41377  13.38647  0.04003     0.01906  5382.30339   6052.40719  1.93851         4180.70147     21.07795  0.66478  57959.70755  2.31329  0.03834   87197.97526  47.22222  16.81725  57986.46755    51.13715       44.50585   16.93955  35.34416   37.5    0.24995  -21.59356  0.99961 
  -20.14058  0.00149  2.33659     14.41818  1.96766  1.16694   6.85968  0.09226     0.03726  5859.05203   5762.79985  2.05168         3873.19361     20.89941  0.44069   57957.6787  1.40471   0.0102  145404.55643  46.66305  16.87291     57990.82    51.06235       44.46308   16.93955  31.05584   40.0    0.23485  -21.20026  0.99976 
  -18.95071  0.10374  1.22678     14.22022  1.46035  1.53146   5.26006    0.101     0.02339  5051.45024   6016.00213   2.4672         3988.04099       21.037  0.60496  57958.86856  0.80066  0.54566   74021.43915  47.38641  16.94948  57994.24911    51.09316        44.4968   16.93955  31.26158   39.5    0.24845   -21.4378   0.9953 
  -18.58942  0.00708  2.06117      14.3956  1.74076  0.98134  16.95422  0.03369     0.01412  5557.22705   5766.17867  2.38077         3968.86346     20.92908  0.47185  57959.22986  3.12336  0.12001  111064.69541  46.83578  16.86648     57990.82    51.17317       44.58403   14.11629   33.8791   38.5    0.24732  -21.40479  0.99743 
  -17.70106  0.00504  2.20756     14.37455  1.83045  1.07149   5.27814  0.10809     0.04392  5729.87111   5756.81617   2.1253          3719.7159     20.96518  0.51275  57960.11822  1.03371  0.02661  147605.52965  46.67448  16.90351  57992.60531    51.23496       44.66682   14.11629  31.05584   39.0    0.25032  -21.38106  0.99939 
  -13.96611  0.00379  2.13209     14.36185  1.71825  1.15736  19.74939  0.02519     0.01312  5293.03046   5911.53966  2.29777         4122.86397     20.96535  0.51295  57963.85317  3.30058  0.07484  137032.18413   46.7095  16.88047      57986.0    51.10994       44.47932   19.76281   33.8791   36.5    0.27366  -21.44281  0.99825 
  -14.01517  0.00146  0.95196     14.38933  1.64021  0.74365  12.44561  0.03327     0.01196  4070.26108    6212.4891  2.24571         3921.79798     21.21261  0.90644  57963.80411  1.22995  0.01811   22976.61674  48.16522  16.92383     57989.82    51.06764       44.44795   16.93955   33.8791   38.0    0.23284  -21.73917  0.99993 
  -14.13676  0.00209  0.76295     14.36016  1.64298  0.79427  16.15461  0.02685     0.01165  4667.90462   6601.33967  2.17266         3761.65067     21.23153   0.9468  57963.68252  2.09975   0.0337   16909.05787  48.49137  16.89014     57987.78    50.93279       44.27747   19.76281  36.90809   35.5    0.24494  -21.96393  0.99993 
   -18.3134  0.00377  2.25866     14.34201  1.72169   1.3205  18.61044  0.02866     0.01286  5096.56315   5725.85327  2.19074         4337.33642     20.85259  0.39565  57959.50588  2.88362  0.07013  168834.30294  46.56964   16.8598     57992.79    51.30244       44.73692   14.11629  31.05584   38.0    0.24234  -21.34578  0.99815 
  -13.48261   0.0038   1.7271     14.14255  1.28382  1.12063   4.13505  0.11898     0.06071  5725.94156   5886.45464  2.20038         3978.16221     21.03704  0.60502  57964.33667  0.80873  0.01572  184438.36246  46.63686  16.91221     57987.78    51.06941       44.44535   16.93955  34.53356   36.0    0.28554  -21.51584  0.99962 
  -19.83333  0.01047   1.1886     14.19585  1.45537  1.03994   5.39795  0.10811     0.04056  5857.61227   5936.16058  1.71287         3932.73579     21.10114  0.70124  57957.98595  1.10483   0.0565   77474.28736  47.39259  16.81438  57989.53643    51.23013       44.65166   14.11629  31.05584   39.5    0.24821  -21.45678   0.9995 
  -18.00218  0.00633  1.32994     14.25681  1.73367  1.53446  11.79064   0.0476     0.01992  5722.81386   6400.46172  2.15923          3740.6282     21.13326  0.75507   57959.8171  2.30348  0.07461   87263.21978  47.31932  16.77074     57989.82     51.3104       44.75245   14.11629  31.05584   38.5    0.24755  -21.69091  0.99938 
  -14.90392  0.00581  1.49448     14.39203  2.07263   1.3109  13.56423  0.04251     0.02452  6106.48497   6266.09351  2.01785         3693.71864     21.16755  0.81711  57962.91536   3.0172  0.07882   70673.54587  47.38713  16.94449      57986.0    51.27772       44.64386   16.93955  36.70235   37.0    0.27254  -21.70036  0.99937 
   -20.5164  0.03778  1.97596     14.47235   1.9797   1.0087    4.9466   0.1439     0.04918  6149.70995   5818.30255  2.02584         3891.75301     20.93871  0.48243  57957.30288  1.11595  0.18688   81519.74051  47.06262  16.87039     57989.82    50.91195       44.28012   16.93955  34.08484   40.5    0.22215  -21.19151  0.99705 
  -15.59456  0.01719  2.53618     14.35044  1.81104  1.51024   6.12989  0.08154     0.04451  5907.11639   5810.57492  2.45872         3795.78431     20.91419  0.45595  57962.22472  1.27594  0.10538  215393.47773  46.38518  16.92546     57992.79     51.1377       44.56902   14.15432  31.01781   36.0    0.27839  -21.40211  0.99673 
  -17.54172   0.0043  1.19928     14.28954  1.63129   1.0957  14.02941  0.03406     0.01589  4954.33747   6400.43875  2.31542         3829.71523      21.1144  0.72299  57960.27756  2.05418  0.06037   57426.45809  47.56442  16.86518     57991.15    50.91299       44.28806   19.80083  33.84107   37.0    0.24221  -21.74128  0.99957 
   -22.5673  0.00167  1.83692     14.44141  1.89314  0.95448  24.79591  0.02875     0.01044  5891.98751   5976.20333  2.08252         3876.78336     20.95377  0.49946  57955.25198  5.13489  0.04138   77686.80288   47.1275  16.88865     57990.82    51.29015       44.72006   14.11629   32.5209   41.5    0.21333  -21.08965  0.99939 
  -14.96428  0.00913  0.82205     14.15453  1.42349  1.43743   10.3463  0.04122     0.01649  4296.65887   6453.65825  2.28279         3930.78834     21.18794  0.85638    57962.855  1.13939   0.0945    43843.8877  47.95049  16.87968     57990.82    51.18798       44.61093   14.11629  31.05584   37.0    0.24664  -21.75697  0.99969 
  -14.20013  0.01279   1.3979     14.26391   1.5802  1.25223   9.54285  0.05611     0.02776  5900.87867   6190.69087  2.13164         3805.69132      21.0973  0.69506  57963.61915  1.98216  0.12201   85045.91759  47.24695  16.89679     57989.82    51.08122       44.47496   16.93955   32.5209   36.0    0.26755  -21.62236   0.9987 
  -11.78955  0.00187  1.39466     14.22206  1.30745  0.81235   9.53616  0.04656     0.02179  5337.10895    6201.9217  2.53508         3776.54289      21.1662  0.81457  57966.02973  1.62037   0.0178   84930.22269  47.16727  16.91407     57987.78    51.10352       44.48597   16.93955   33.8791   36.0    0.29153  -21.72936  0.99973 
  -15.90422  0.01577  0.86762     14.32985  1.59471  0.85757  13.19249  0.03274     0.01406  4766.42787   6592.37897  1.93905          3976.1215     21.19878  0.87803  57961.91506  1.78789  0.20799   24403.96573   48.2074  16.88294     57994.78    51.07799       44.53475    15.3237  27.23091   36.5    0.27109  -21.78594  0.99935 
  -19.71286  0.00184  1.39594     14.31668  1.59738  0.98501  10.93265  0.05825      0.0234  5522.10996   5879.29289  1.91987         3967.18729     21.02653  0.59055  57958.10642  1.98867  0.02015   67236.81166  47.35491  16.85449     57987.78    51.24136       44.65458   16.93955   31.7103   40.5    0.21795   -21.2967  0.99979 
   -21.2614  0.00157   2.2146     14.35447  1.85471  1.24073  14.54298   0.0442     0.01288  5388.78848   5771.15504  1.80438         4181.15839     20.91722  0.45914  57956.55788   2.5192  0.02285  165097.27934  46.62879  16.85792     57994.78    50.90275       44.32333   18.14696  29.84843   42.0    0.21383  -21.12014  0.99948 
  -14.81031  0.00693  1.45749     14.55778  1.75401  0.56618  16.54291  0.02505     0.01037  4843.48952   5964.20165  2.35885         3849.56865     21.11027  0.71614  57963.00897  2.31503  0.11461   26515.02654  47.76218  16.85249  57989.53643    51.05158       44.42862   19.76281   33.8791   36.0    0.29886  -21.71265  0.99886 
  -11.71363  0.00912  0.90046     14.48297  1.57756  0.54836  13.06092  0.02942     0.01013  4382.83331   6442.74161   2.1861          3821.8914     21.22736  0.93775  57966.10565  1.49662  0.11914   12846.62193  48.44911  16.84312  57989.53643     50.8813       44.25538   16.93955  34.08484   35.5    0.27189  -21.83009  0.99957 
   -16.4878  0.00633  2.00447     14.25461  1.61598   1.4907  12.07558  0.04749     0.01925  5552.49941   6044.53985  2.17482         3934.41753     20.99417  0.54815  57961.33148  2.22081  0.07642  186648.01604  46.60226  16.93903     57992.79    51.16991       44.57779   14.11629   33.8791   38.5    0.23725  -21.40224  0.99826 
  -21.53577  0.00445  2.10235     14.58907  1.83108  0.59877   9.17976  0.06374     0.02423  5395.60093   5550.74785  2.09043         4075.63558     20.85971   0.4022  57956.28351  1.59418  0.04081   49864.00071  47.18836  16.93984     57991.15    51.35259       44.79355   14.11629  31.05584   40.0    0.23896  -21.14395  0.99916 
  -13.58201  0.00193  0.96197     14.29263   1.9005  1.46423  11.78342  0.03367     0.01364  4520.99578   6621.47175  1.92732         3936.26783     21.25286  0.99447  57964.23726   1.4367  0.02279   42436.09642  47.95366  16.95102     57991.15    50.92951       44.31186   19.76281  33.37749   36.0    0.29359  -21.90853  0.99993 
  -13.21736  0.00337   2.1426      14.4681  1.97699  1.09116  16.79528  0.03075     0.01468   5700.9934   5976.57213   2.5948         3710.60282     20.96621  0.51396  57964.60192  3.25623  0.05663    97609.2575  46.91348  16.98014  57992.60531    51.22701       44.66559   14.11629  29.69764   35.5    0.26465  -21.47996  0.99894 
   -18.7295   0.0194  1.77005     14.51017  1.81252   0.7541  10.82076  0.05872     0.01975  5745.68056   5750.73487  1.89563         4228.13654     20.97843  0.52864  57959.08978  2.13092  0.20991   50319.18319  47.32943   16.8568  57992.60531    51.16818       44.59756   14.15432  31.01781   39.0    0.23282  -21.38815    0.997 
  -14.74257  0.00364  1.12874     14.49447  1.67068   0.5603  13.20021  0.03589     0.01574  5450.07759   6397.67431  2.08019          3798.6943     21.21056  0.90217  57963.07671  2.33891    0.048   20274.75347  48.07959  16.86553     57987.78    51.00478       44.38088    17.6153   34.6684   35.5    0.27929  -21.84522  0.99971 
  -13.37167  0.00846  1.23358     14.25764  1.57249  1.32812   11.2999   0.0429     0.02076  5145.84297   6176.23884  2.42731         3887.04728     21.11009  0.71584  57964.44761   1.7849  0.09557    67836.6707  47.45163  16.87957  57989.53643    51.33619       44.77581   11.29303   31.7103   36.0    0.26901  -21.69988  0.99925 
  -18.56783   0.0238  1.77981     14.30608  1.66969   1.2673   5.33858  0.11758     0.04013  5702.44009   5833.05536  2.32195         3751.43865     20.95938  0.50595  57959.25145  1.03556  0.12707  119961.33987  46.91169  16.90083     57992.79    51.11862       44.54091   14.77989  30.59798   39.5     0.2342  -21.35154  0.99788 
  -10.84628  0.08215  1.06444      14.4021  1.66732  0.93813   6.85946  0.06565     0.02083  4961.08178   6317.66389   2.5226         3818.60401     21.17953  0.83995    57966.973  1.00709   0.5635   27534.00505  47.99675  16.84703  57989.53643    51.28572        44.7086   14.79205  33.20334   35.5    0.24597  -21.73283   0.9975 
  -14.07078  0.03141  0.79516     14.62388  1.90285  0.51673   8.91022  0.05427     0.02064  5187.57578   6546.00605  1.92337         3729.83053     21.22433  0.93124   57963.7485  1.43036  0.27989    6314.98522  48.94697  16.87697  57989.53643    50.93465       44.30259   19.76281   33.8791   37.0    0.25814  -21.96189  0.99955 
  -14.60739  0.01992  2.61397     14.40681  1.87733  1.43669   6.75067  0.07936      0.0349  5769.61227   5864.47209  2.52905         4063.53113     20.87869  0.42016  57963.21189   1.3405  0.13448  182953.44621  46.44544  16.93532     57990.82    51.11055       44.50913   16.93955   32.5209   36.5    0.27477  -21.40361  0.99583 
  -21.38236   0.0301  1.40159     14.15706  1.24063  1.03554   3.16754  0.23133     0.09191  6318.22815   5707.59989  1.91984         3765.29522     20.88038   0.4218  57956.43692  0.75429  0.09536  109795.33715  47.02866  16.86896     57989.82    51.14149       44.55464   14.79205  33.20334   40.5    0.22668  -21.09524  0.99847 
  -18.33952  0.01003   1.6225     14.62102  1.83729  0.51422   6.48058  0.08707     0.03402  5631.35777   6077.77597  2.06944         3912.63662     21.07967  0.66742  57959.47976  1.22593  0.06503   25723.66071  47.70232  16.93899     57991.15    51.27422       44.69615   14.11629  31.05584   38.5    0.24445  -21.55532  0.99923 
  -19.67319  0.00733  2.25921     14.55003   1.8566  0.66117   6.02604  0.08223      0.0246  4762.60599   5824.95066  2.51648          4058.5375     20.95388  0.49958  57958.14608  0.81536  0.04419   69884.72375  46.98527  16.90587     57987.78    51.00038       44.36908    17.6153   36.0266   39.5    0.24107  -21.34705  0.99896 
  -20.01615  0.00378   2.2317     14.54293   2.0142   0.8378  18.68312   0.0408     0.02106  6457.46223   5638.92667  2.00866         3706.43412     20.88952  0.43078  57957.80313   4.6473  0.07062   76439.86078  46.99236  16.93499  57992.60531     51.1552       44.57809   16.93955  31.05584   40.0    0.21582  -21.14298  0.99858 
   -15.6558   0.0488  2.25796     14.37133  1.70882  1.08963   4.20545  0.13469     0.06049  5933.44698   5503.41983  2.51257         3879.74434     20.93814   0.4818  57962.16348  0.88319  0.20521  146315.01399  46.62882   16.8725  57989.53643    51.13371       44.51588   16.93955  34.07564   37.5    0.24622  -21.43422  0.99456 
  -18.59099  0.00932  1.54879     14.20416  1.41671  1.17095   5.98935  0.10884     0.04734  6113.88296   5752.27491  2.71256         3464.11919     20.95086  0.49612  57959.22829  1.33549  0.05582  123242.84044  46.94938  16.84986     57987.78    51.04008       44.41558   17.45323  34.83047   39.5     0.2367  -21.40135   0.9991 
  -24.95805   0.0012  2.57765     14.44155  2.00592  1.16108  10.07275  0.06727     0.01998   5663.0531   5505.10773    2.109         3945.86304      20.6688  0.25913  57952.86123  1.92698  0.01211  161986.16402  46.53924  16.90006  57989.53643    51.15933       44.54115   16.93955   33.8791   42.0     0.2309  -20.87354  0.99967 
  -19.37846  0.00231  1.20926     14.27833  1.48858  0.92219   6.66112  0.09742     0.03206   5663.0886   5837.82894   1.9337         3841.41532      21.0535  0.62839  57958.44082  1.27433  0.01537   56100.22718  47.52761  16.82216  57989.53643    51.22041       44.64489   16.93955  31.05584   40.5    0.21628  -21.36375  0.99987 
  -10.94079  0.00269  2.15847     14.40618   1.8225  0.95446   7.80264  0.04845     0.02614  5427.81171   6169.12253  2.31047         4124.40594     21.09993  0.69928  57966.87849  1.37125  0.02101  121454.12021  46.77681  16.85732     57990.82    51.36305       44.80847   14.11629  28.88704   32.5    0.33355  -21.71815  0.99954 
  -14.37756  0.10609  1.41295     14.43999  1.82743   1.0345   4.55694  0.11993     0.04031  5564.09492   5930.40977   2.4418         3858.12138     21.07746  0.66403  57963.44172  0.84157  0.48345     44661.407   47.5805  16.94008  57992.60531    51.24865       44.68329   11.29303   32.5209   38.0    0.25341     -21.62  0.99615 
  -17.21772  0.00126  2.34156     14.35917  1.73819  1.06119   3.86736  0.14451     0.06717  6058.01432   5634.18476  2.10114         4010.79124     20.93105  0.47399  57960.60156  0.84665  0.00489  169269.27595  46.54135  16.94143     57990.82    51.03411       44.39402    17.6153  36.23234   37.0    0.26199  -21.44032  0.99986 
  -17.69636   0.0205  0.92863     14.54479  1.97424  0.72363  16.42135  0.03232     0.01036   4926.0636   6539.58351  1.82112         3998.41783     21.17104   0.8237  57960.12291  2.37704  0.33657   12862.59125  48.51923  16.93492     57990.82    51.02854       44.40129   19.76281  34.08484   39.0    0.22363  -21.71712  0.99924 
  -22.65439  0.00336  2.05253     14.41655  1.79082  0.92137  25.74586  0.02704     0.01034  6143.38541   5425.48253  1.91073         3883.58196      20.8872  0.42848  57955.16489  5.79629  0.08663  102885.19968  46.88497  16.86209  57989.53643    50.96465       44.34239   19.76281   32.5209   41.0    0.22498  -21.06568  0.99824 
  -17.38403  0.01647  0.86918     14.58467  1.72109  0.62917  21.18311  0.02597     0.01073  4892.98507   5891.10565  2.04674         4074.82145     21.06796  0.64966  57960.43525  3.02527  0.34897    8175.14836  48.71394  16.88559     57990.82    50.91705       44.28129   19.76281  33.37749   37.5    0.22561  -21.53984   0.9993 
  -14.97929  0.00245  1.54137     14.58998  1.90967  0.56929  15.01526  0.03459     0.01175  5219.38287   6100.51295  2.14968          3814.3499     21.13343  0.75537  57962.83999  2.44005  0.03678   27837.09188  47.72937  16.82672      57986.0    50.88154       44.21558   19.76281  39.52561   38.0    0.24973   -21.6383  0.99964 
  -14.98622  0.03705  1.61127     14.39994  1.66078  0.88737  13.04635  0.03911     0.01124  5590.91631   5999.61602  2.16506         3819.23892     21.06493  0.64514  57962.83306  2.43266  0.48338   63471.53719  47.27224  16.89351     57991.15    51.25107       44.68188   14.11629   32.5209   37.5    0.27008  -21.50503  0.99356 
   -13.6746  0.00193  1.80805     14.39711  1.78024  0.91687   8.64635  0.05792     0.02676  5868.80976   6071.93381  2.08946         3887.49473     21.10486  0.70727  57964.14467  1.77648  0.01666   86796.17076   47.0664  16.80756  57992.60531    51.25101       44.70764   14.11629  28.23258   35.5    0.26661  -21.62042  0.99974 
  -13.69406  0.01784  0.95584     14.53818   2.0626  0.82083  11.03252  0.03919     0.01442  4392.47115   6540.61823  2.31989         3899.19664     21.21244  0.90608  57964.12522  1.26975  0.19685    14677.4486  48.45584  16.91214     57992.79    51.27057       44.70874   14.11629  29.69764   37.0    0.26467  -21.87687  0.99957 
  -14.93658  0.04791   0.7472     14.28675  1.56131  1.43996  11.81287  0.04247     0.01481  5063.93173   6117.09094  2.23702         3874.10932      21.1195  0.73153   57962.8827    1.807  0.56592   21611.20492  48.38079  16.86098     57989.82    51.21225       44.63898   11.96879  33.20334   37.0    0.25121  -21.64276  0.99911 
