 log(Bfield)      Mns    Pspin  cutoff_power  cutoff_wavelength  fnickel    kappa  kappagamma  mejecta  log(nhhost)  temperature  texplosion  thetaPB      vejecta      A_V        MJD_0   log(KE)      M_Ni  Peak_mag     Peak_MJD 
    13.84843   1.6523  4.40961       1.38616         4050.79195  0.00712  0.09846     0.01711  1.58562     16.68948   6478.03123   -19.29344  0.65007   8491.67274    3e-05  57958.52584   52.2364   0.28509  16.89765     57989.82 
     13.8152  1.81989  3.94562       1.51265         3670.33679  0.03494  0.11874     0.01565  1.41333     18.20697   3423.25514   -17.39374  0.52424   9499.35388  0.00089  57960.42554  52.31538   1.34175  16.89702  57990.01679 
    13.54373  1.86635  3.73581       1.54002         4212.06013  0.00104  0.10399     0.01082  1.45516      18.6178   3657.70821   -16.10555  1.05923   8779.45799   0.0023  57961.71373  52.25167   0.04035  16.87685      57986.0 
    13.72847   1.7475  3.84845        2.0043         4000.88038  0.01018  0.13847     0.01654  1.06187     16.65215   9714.10171   -16.45463  0.67087   8696.55447    2e-05  57961.36465  52.18921   0.34868  16.85655     57987.78 
    13.32192  1.46107  3.01537       1.44101         4132.36444  0.36033  0.13911     0.01329   1.1887     16.86061    4182.7764   -12.51257   1.2593   9403.68094    4e-05  57965.30671  52.27732  12.93589  16.88773     57989.82 
     14.0349  2.00099  5.86237       2.24545          3827.4557  0.00532  0.04812     0.01271  2.99557      19.3446   9621.33634   -22.83698  0.88785   7627.77586  0.01228   57954.9823  52.23298   0.26213   16.7928      57986.8 
    13.56547  1.68989  4.11714       1.67449         4024.02436  0.03836  0.06984     0.01023  2.21956     18.63966   3704.99138   -18.19774  1.51478   8603.98949  0.00242  57959.62154  52.29757   1.72366  16.90045      57986.0 
    13.54111  1.95099  3.91205       1.59346         4097.68065  0.40332  0.11244     0.01133  1.40759      18.8735   6185.01702   -14.38658   1.0451   8917.00855  0.00415   57963.4327  52.25977   15.4651   16.7598  57982.30622 
     13.9989  1.69606  4.19623        1.3498         4142.87015  0.29593  0.06859     0.01026  2.43042     18.10171   5581.63051   -14.53829   0.3499   9845.85851   0.0007  57963.28099  52.42718  13.68487  16.88198     57991.15 
     13.4521  1.93958  3.50611       2.26042          3730.0931  0.00702  0.11128     0.01034   1.3707     18.39663   7596.18163    -15.2042  1.23584   9041.14052  0.00138  57962.61508   52.2674   0.26634  16.79354  57990.01679 
    13.72499  1.80866  3.48095       2.14053         3535.11474  0.00233  0.11905     0.01141  1.13235     20.46828   3537.74313   -16.64113  0.62359   7818.77327  0.16331  57961.17815  52.10842   0.08184  16.75061      57986.8 
    13.72301   1.9771  4.21125        1.5958         4045.03509  0.19979  0.08618     0.01082  1.87741     16.28959   4362.46537    -13.0534  0.77885   9889.06295    1e-05  57964.76588  52.39442   8.49298  16.78038     57987.78 
    13.92373  1.81829  4.67601       1.71303         4069.20923  0.00196  0.11264     0.01982  1.13354     19.45837   5642.13963   -25.42211  0.67126     7090.596  0.01596  57952.39716  52.02369   0.06902  16.83253     57986.77 
    13.57236  1.67437  3.89442       1.79454         3903.22758  0.37111    0.101      0.0137  1.64796     18.09948   7237.24027   -15.78773  0.87211   9242.34937   0.0007  57962.03155  52.31598  15.07609    16.836     57989.82 
    13.56697  1.57932  3.96085       1.61154         4053.34888  0.00234  0.08374     0.01141  1.81621     18.10601   7310.63174   -24.10554  1.32314   7563.59408  0.00071  57953.71374  52.15665   0.09835  16.75948  57978.45093 
    13.37752  1.26981  3.48421       1.62524          3808.9461  0.46657  0.11196     0.01733  1.56553     17.70895   6604.31536    -16.9043  1.51997   9272.07673  0.00028  57960.91498  52.31076  18.60784  16.83932     57989.82 
    13.88239   1.8726  4.74958       1.39862         3991.20485  0.07871  0.09639     0.01584  1.63276     17.37021   7360.02994   -21.75751  0.69898    8215.8177  0.00013  57956.06177  52.21228   3.18701  16.78051     57990.82 
     13.7642  1.76434  4.35558       1.87856         4073.29543  0.00133   0.1171     0.01641  1.00113     16.34174   9255.36521   -24.46696  0.84983   6624.58637    1e-05  57953.35232   51.9419   0.04456  16.93669     57989.82 
    13.67622  1.77623  3.88374       2.08027          3734.1535  0.00327  0.23755     0.02871  0.65508     19.24838   6535.13983   -15.08381  0.70608   8693.05639  0.00984  57962.73547  52.08986   0.08924   16.8171     57991.15 
    13.65669  1.98017  4.27336       1.95918         3685.27511  0.14788  0.07988     0.01041  1.91062     19.21193   5514.70371   -16.91731   1.0215   8997.39153  0.00905  57960.90196  52.31493   6.32363  16.88655     57989.82 
    13.83929  1.96396  4.51325       1.98167         3677.19194  0.00692  0.08823     0.01242  1.87212     16.47675    4795.7747   -13.41283  0.66191   9463.13995    2e-05  57964.40645  52.35577   0.29382  16.89532     57987.78 
    13.47396   1.7832   3.6594       2.14043         3843.21264  0.00936  0.09646     0.01019  1.57082     19.45679   5224.42392   -14.78322  1.50425   8954.39197   0.0159  57963.03606  52.28101   0.37363  16.90199     57989.82 
    13.64309  1.73526  4.32178       1.82105         4072.55027  0.04502  0.07775      0.0121   1.9402     18.71306   5044.13871   -18.13093  1.12608   8510.78841  0.00287  57959.68835  52.26889   1.93507  16.83972     57989.82 
    13.83916  1.79001  4.80879       1.26644         4069.49092  0.00807  0.18672     0.03684    0.799     17.87326   5175.38406   -27.10877  0.98047   7365.31129  0.00041  57950.71051  51.98937   0.24321  16.82307  57990.01679 
    13.56734  1.66015  4.30545       1.66226          4039.5492  0.35058  0.07651     0.01164   1.9014     18.57276    7619.2425   -19.54979   1.4618   8171.71249  0.00208  57958.26949  52.23061  14.96754   16.8072     57991.15 
    13.60065  1.65948  3.77783       1.75761         3941.93838  0.01368   0.1109     0.01371  1.40119     19.53372    7869.3467   -17.22431  0.94331   8735.54632  0.01899  57960.59497  52.24116   0.52346  16.84495     57990.82 
    13.82005  1.78422  4.30589       1.92484         3669.49556  0.00223  0.10929     0.01659  1.46626     19.74689   7116.90347   -20.50238  0.70989   8488.53541  0.03102   57957.3169  52.22363   0.08677  16.79074  57990.01679 
    13.71078   1.6009  4.36479        1.5071         3790.57384  0.02475  0.04775     0.01004  2.80909     17.11241   8039.46639   -29.24113  1.34497   7234.51922    7e-05  57948.57815  52.17873    1.1964  16.86592     57987.78 
    13.58099  1.71344  4.10915       2.07774         3491.80634  0.32506  0.06954     0.01029  1.92323     20.18468   8440.98195   -17.72838  1.37947   8298.06734    0.085   57960.0909  52.24562  13.93134  16.88676  57990.01679 
    13.52437  1.72309  3.69892       1.99279         3684.96081  0.01157  0.09559     0.01085  1.64255     19.95108   7359.92826   -18.30923  1.26641   8568.49187  0.04964  57959.51005  52.24971   0.46962  16.83243     57989.82 
    13.86017   1.7759  4.10777       1.90976         4009.31601  0.00105  0.14318     0.01652  0.88323     16.34234   5866.30978    -18.9683  0.53006   7315.31697    1e-05  57958.85098  52.00384   0.03313    16.905     57990.82 
    13.85082  2.03595  4.05007       1.69375          3992.4556  0.17801  0.12193      0.0136  1.39414     18.30887    4382.6787   -15.85883  0.51734   9481.56254  0.00113  57961.96045  52.31151   6.80098  16.82632      57986.8 
    13.58289  1.59707  3.34618       1.60015         3748.23315  0.00892  0.08156     0.01106  1.73543     20.75122   3151.16148   -20.98566  1.04301   8050.18509  0.31329  57956.83362  52.20395    0.3692  16.86482     57990.82 
    13.71173  1.69459  3.92117       1.84698         3799.94581  0.00862  0.11188     0.01571  1.40394     20.03001   9178.24738   -18.18674  0.72024    8687.4128  0.05953  57959.63254  52.23668   0.33015  16.82125     57987.78 
    13.87236  1.89705  4.76719        1.5582         3905.88796  0.24379  0.06996     0.01097  2.08727     19.66422   3651.89684   -16.49037  0.67279   8424.63521  0.02564   57961.3289   52.2706  10.73701  16.85346     57990.82 
    13.68761  1.68545  4.51604       1.72413         3587.77936  0.00618  0.11188     0.02019   1.2805     19.97624   7994.51753   -19.89451   1.3526   8007.41862   0.0526  57957.92477  52.15053   0.22862  16.82558     57984.14 
    13.56527  1.61937  4.23426       1.98812         3548.58758  0.44623  0.10438     0.01507  1.49671     17.95443    9716.0346   -18.04567  1.27695    8379.4269   0.0005  57959.77361   52.2157  17.50647  16.77637     57989.82 
     13.6447  1.86164  3.83874       2.05041         3897.03149  0.00175  0.14509     0.01344  1.04986     17.36657   9612.43564   -17.01256  0.84237   8036.21937  0.00013  57960.80672  52.11853   0.05975  16.81657  57990.01679 
    13.53082  2.02799  4.02746       2.01163         3814.49674  0.00143  0.09869     0.01146  1.80086     17.29593   3677.87765   -12.25998  1.38933  10145.32783  0.00011   57965.5593  52.41045   0.05976  16.84476     57987.78 
     13.5507  1.44238   3.9449       1.84641         3708.76731  0.02137   0.0981     0.01732  1.63606     17.41997   9687.53946   -17.70528  1.18536   8897.81529  0.00015    57960.114  52.28186   0.86576  16.79405     57987.78 
    13.64891  1.67305  4.05668       1.78653         3700.96926  0.16931  0.10974     0.01734  1.50124     17.90009   6599.99887   -21.10762  1.01073   8944.88419  0.00044  57956.71166   52.2729   6.64991  16.87312     57989.82 
    13.58928  1.61063  3.46056       1.84918         3453.36452  0.21826  0.10724     0.01128  1.60663     16.48022   8435.96852   -20.15892  0.80378   8740.52443    2e-05  57957.66036  52.26354   8.78657  16.84294     57987.78 
    13.70103  1.81035  4.59413       2.39781         3691.98234  0.01555  0.20547     0.03071  0.69187     17.98304   9466.87121   -18.65719  1.14722   7612.07589  0.00053  57959.16209  51.98692   0.43649  16.89599  57990.01679 
    13.58838  1.99038  4.32847       1.80252         4009.68918   0.0895   0.1037     0.01357  1.45258     18.22413   4064.46805   -12.31923  1.28105   9128.09277  0.00093  57965.50005  52.28521   3.47267    16.771      57986.0 
    14.05549  1.82829  4.35427       2.07484         3485.80618  0.00251  0.13976     0.02151  0.98479     16.36798   5091.81003   -23.71997  0.39997   7841.16933    1e-05  57954.09931  52.08524   0.08343  16.81327     57989.82 
    13.37545  1.20747  3.23012       1.44488         3995.18036  0.05931  0.07985      0.0112  1.76596     19.28454   6948.91972   -19.07429   1.3991   7738.38121   0.0107  57958.74499  52.17228    2.4689  16.81886     57987.78 
     13.7108  1.88364  4.52842       1.49953         3888.90103  0.23052  0.08411     0.01243   2.0385     17.11363   7802.69059   -22.77902  1.14736   8563.70667    7e-05  57955.04026  52.28143  10.07392  16.79184     57991.15 
    13.72639  2.13543  4.73257        1.9201          4233.1591  0.07325  0.08073     0.01028  1.83658     16.74983   6494.14743   -16.86119  1.18919   8474.58513    3e-05  57960.95809  52.25709   3.09043     16.85      57986.0 
    13.62166  1.84653  4.02637       1.28838         4355.57692  0.00112  0.09367     0.01237  1.66782     19.93839   3991.99574   -20.77294  1.12644   8595.97912  0.04821  57957.04634  52.25485   0.04586  16.84166  57990.01679 
    13.57523  1.49378  2.90964       1.68196         4000.83276  0.00528  0.12933     0.01302  1.51001     20.12451   6746.33461   -14.75415  0.56397   10345.3762    0.074  57963.06513  52.40018   0.20775  16.84713     57984.14 
    13.49156  1.62456  3.57611       1.50778         3819.12659  0.00266   0.1242     0.01565  1.30205      18.9613   3963.84759   -14.48392  1.05826   9561.31704  0.00508  57963.33536  52.30741   0.09902  16.89509     57990.82 
    13.78795  1.83707  4.52187        1.9125         3814.49833  0.04913  0.10503     0.01573  1.49645     17.13824   4162.11654   -17.28402  0.79189   8461.88316    8e-05  57960.53526  52.22418   1.92742  16.84077     57989.82 
    13.83392  1.96292   4.4404        1.0558         4024.35597  0.00196    0.063     0.01048  2.52395     20.35598   3446.92086   -28.51393  0.98826   7928.03091   0.1261  57949.30535   52.2441    0.0917  16.88798     57987.78 
    13.82597  1.64452  4.45443       1.25757         4026.57624  0.08931  0.07885     0.01563  2.09751     18.86305   7076.41098   -24.12662  0.75442   8690.79484  0.00405  57953.69266  52.29831    3.9396  16.81535     57987.78 
    14.05851  1.83874  4.76955        1.3574         3983.15854  0.10134  0.07568     0.01357  2.15741     18.84403   5336.99879   -19.74362  0.42301   8744.00026  0.00388  57958.07566   52.3076   4.51162  16.82804     57987.78 
    13.63882  1.64572  3.37601       1.86595         3904.66933  0.12009  0.13007     0.01299  1.26894     16.62525   5414.72333   -15.51221  0.60167   8980.59314    2e-05  57962.30707  52.24861   4.42477  16.84323     57992.79 
    13.86937  2.09077  5.14076       1.62818         3852.91003  0.00112  0.10392     0.01745  1.57852     18.09231   6207.48115   -19.72261  0.86895   8598.53095  0.00069  57958.09667  52.24655   0.04463   16.8493      57986.8 
    13.89521  1.88569  4.82458       1.49466         4039.13771  0.01473  0.11998     0.01931  1.16201     16.67505   4340.22682   -20.80853  0.70664   7695.45249    3e-05  57957.01075   52.0992   0.52413  16.80897     57991.14 
    13.58796  1.52462   3.6996       1.71452         4079.68285   0.0033  0.09437     0.01207  1.57753     17.03444   8683.00142   -15.58878  0.86135   8619.65401    6e-05   57962.2305  52.24859   0.13208  16.70494      57986.0 
    13.77861   1.4624  4.11457       1.26551         3613.02215  0.00103  0.05283     0.01045  2.59885     17.71065   7497.49437   -22.72412  0.70286   7843.12031  0.00029  57955.09516  52.23866   0.04842  16.80696  57982.30622 
    13.79924  1.71302  3.68647        1.9965         3840.10446  0.00367  0.10183     0.01213  1.55793     17.16331   8246.23331   -13.25046  0.46209   9378.25706    8e-05  57964.56882  52.31988   0.14611  16.77663      57986.0 
    13.76186  1.86021  4.10106       2.17413         3834.50991  0.18469  0.09685      0.0115  1.46057     19.31427   8548.57891   -14.13921  0.66227   8613.68192  0.01146  57963.68007  52.23572   7.18042  16.83179   57986.1615 
    14.04735  1.82959  5.09345       1.50125         3850.99634  0.00134  0.06196     0.01343  2.49627     18.96615    9021.5032   -20.34124  0.51764   8353.96952  0.00514  57957.47804  52.28808   0.06257  16.73837     57990.82 
    13.68577  1.57988  3.98308       1.39428         3951.46693  0.00175   0.0728     0.01302  2.38938     20.38847   5262.81029   -16.91465   0.8551    9404.9342  0.13589  57960.90462  52.38507   0.08052  16.88026     57987.78 
    13.75397  1.56896   4.0878       1.28166         3931.92309  0.00792  0.06925     0.01196  2.22377     16.12208   3903.77065   -20.65224  0.70723   8638.93453    1e-05  57957.16704  52.30136   0.35628  16.88689     57987.78 
    13.51461  1.48839  3.55636       1.56299         3793.62857  0.00152   0.1052     0.01431  1.44301      16.7717   5469.03755   -21.35243   1.1398   8370.27771    3e-05  57956.46685  52.20886   0.05892  16.83763     57987.78 
    13.74776  1.65973  3.79622       2.07759         3782.17435  0.05076  0.09438     0.01162  1.53707     16.81382   7170.35803   -16.56043  0.57319   8537.65787    4e-05  57961.25885  52.23618    2.0109   16.6874     57986.77 
     13.5723  1.70569  4.12682        2.1737          3938.6433  0.05804   0.1019      0.0139  1.40919     17.91064   8958.42103   -14.67809  1.19279   8712.88914  0.00045  57963.14119  52.23984   2.22633  16.89843     57992.79 
    13.71001  1.52127  3.10596       1.66891         3762.02348  0.01249  0.18886     0.01858   0.7711     19.82909    6878.1163   -17.36352  0.44099   8348.31974  0.03748  57960.45576  52.09071   0.37008  16.84069     57989.82 
    13.62821  1.90852  4.46183       2.08157         3876.21251  0.38761  0.09363     0.01281    1.481     17.25294   9418.84494   -15.19879  1.09828   8347.14359   0.0001  57962.62049  52.21065  15.14779   16.9585     57986.77 
    13.44512  1.58916  3.69156       2.29316         4196.27498  0.00119  0.08973     0.01117   1.4917     16.21981   8731.78083   -13.39268  1.43019    8229.3712    1e-05   57964.4266  52.19946   0.04667  16.94406     57989.82 
    14.12216  1.65389  4.44467       1.55512         4072.35865  0.05318  0.06886     0.01306  2.17564     18.74547   3020.05803   -16.95653  0.32114   8768.16158  0.00309  57960.86275  52.31118   2.37426  16.91468     57991.14 
    13.79807  1.58195  3.62617       2.06557         3632.31814  0.00873  0.11835     0.01421    1.192     16.11088   6838.12862   -19.86068  0.48265   7967.02451    1e-05   57957.9586   52.1338   0.31387  16.69181      57986.0 
    13.78446  1.62876  4.17989       2.14162         3858.81865  0.03678  0.07915      0.0122  1.82106     18.67857   4343.79351   -18.78715  0.69237   7896.28803  0.00265  57959.03213  52.19443    1.5471  16.72824     57987.78 
    13.65702   1.8749  4.12804       2.60725         3595.50146  0.06769  0.11995     0.01465  1.32477      16.3698   8143.05256   -15.75232  0.94448   8787.93454    1e-05  57962.06696  52.23705   2.53628  16.78635     57989.82 
    13.46158  1.85853  3.40294       1.77067         3761.58462  0.00171  0.12824     0.01115  1.25564     16.59141   5697.18531   -16.83035   1.3434   8960.11943    2e-05  57960.98893  52.24483    0.0626  16.78995     57987.78 
    13.78481  1.89289  4.20792        1.5213         3874.76457  0.28878  0.12466     0.01535  1.37915     17.09227   3645.70637    -18.5668   0.6886   8894.79018    7e-05  57959.25248  52.25424  10.98784  16.88453     57992.79 
    13.63947  1.83646  4.29168       1.73189         3813.65676  0.02613  0.09682     0.01495   1.5058     19.57469   3426.60628   -17.45416  1.13174   8814.12179  0.02086  57960.36512  52.26059   1.02745  16.77168     57989.82 
     13.7702  1.84426  4.00551       2.08114         3348.63789  0.00223  0.11183     0.01411  1.51806     19.64004   8069.27338   -20.05428  0.64963   8699.95475  0.02425    57957.765  52.25056   0.08791  16.81812     57987.78 
    13.90601  2.14688  4.73494       1.67908         3860.07112  0.01823  0.10105     0.01412  1.47851     16.90544   5529.41919   -17.52548  0.62157   8771.27102    4e-05   57960.2938  52.25343   0.71194  16.86516     57983.44 
    13.45582  1.60715  3.47583       2.04477         3775.94744  0.08504  0.09496     0.01085  1.50136     19.07541   6318.06916   -14.68917  1.12325   8668.96201  0.00661  57963.13011   52.2457   3.34023  16.89731     57987.78 
    13.48594  1.72739   3.7546       1.87496         3862.23756  0.00188  0.11908     0.01503  1.38169     19.54554   4239.46373   -15.22944  1.42616   9438.34002  0.01951  57962.58984  52.30607   0.07171  16.79477     57987.78 
    13.34276  1.49502  3.20672       2.21739         3884.26445  0.03952  0.10509     0.01135  1.48857     19.57321   4693.58859   -12.53198  1.39571    9119.5947  0.02079   57965.2873  52.28835   1.54737  16.81863      57986.8 
    13.68691  1.86054  4.01363       1.90431          3902.6478  0.00198  0.15677     0.02112  1.07306     18.83496   4453.81207   -14.68573  0.74347   9838.04176   0.0038  57963.13354  52.29825     0.068  16.81903  57978.45093 
    13.51875  1.68459  3.55975       1.84318         3983.41344  0.00248  0.13994     0.01639  1.19555     16.35811   3332.80007   -15.31016  0.96026   9371.55268    1e-05  57962.50912  52.27535   0.08939  16.90591     57987.78 
    13.46516  1.56784  3.66502       2.48336         3405.21676  0.00678   0.1164     0.01525  1.37726     18.29873   4131.69739   -18.56649  1.41676   8827.18199  0.00111  57959.25279  52.24739   0.25793   16.8047     57987.78 
    13.47915  1.61661  3.83166       2.25352         3806.19722  0.00287  0.08377     0.01011   1.6946     16.49193   7359.30966   -15.68667  1.55293   7979.07042    2e-05  57962.13261  52.19261   0.11778  16.85408      57986.8 
     13.5655  2.02814  3.91428       1.89018         3817.30316  0.21433  0.09483     0.01038  1.61298     19.28779   4253.86353   -14.15889  1.06568   9356.89098  0.01078  57963.66039  52.32335   8.64052  16.79392     57989.82 
    13.78972  1.50116  3.40577       1.94387         3824.85253  0.27396  0.10537     0.01164  1.48119     19.71156    6915.1536   -14.20319  0.39083   8724.85916  0.02859  57963.61609  52.24911  10.70653  16.83461      57986.0 
     13.4456  1.45732  3.43119       1.44585         3929.38795  0.05401  0.09849     0.01315  1.66593     19.37155   4665.66512   -20.03979  1.26602   8812.47111  0.01307  57957.77949  52.27628   2.20272  16.86731     57987.78 
    13.61495  1.79239  3.87889       1.20128         3991.24028  0.02965  0.08501     0.01121  2.35648     17.93396   3077.60662   -16.26541  0.88616  10548.18669  0.00048  57961.55387  52.48281   1.35799  16.94618  57990.01679 
    13.55923  1.53534  4.02555       1.76468         4089.32948  0.01147  0.08946     0.01487  1.68712     19.61701   7176.12713   -17.88118  1.33985   8762.15612    0.023   57959.9381  52.27325   0.46974   16.8499     57987.78 
    13.55466  1.46804   3.0549       2.16266         3579.82041  0.13907  0.14853     0.01563  1.14631     17.83907   9549.50035   -13.02212  0.59655   9524.41173  0.00038  57964.79716    52.282   4.91967  16.94994     57987.78 
    13.66254  1.68172  4.55368       1.40481          3773.3479  0.08544  0.10635     0.01945  1.54161      16.6529   6349.81769   -18.38258  1.32958   9051.81771    2e-05   57959.4367  52.28745   3.38835   16.9086     57990.82 
    13.71324  1.63506  4.04416       1.65438         4034.55504  0.11026  0.13456     0.02055  1.30703     19.33949   5086.73016   -15.84854  0.76745   9558.17814  0.01214  57961.97074  52.30776   4.10976  16.90557      57986.8 
      13.769   2.0329  4.76023       1.88769         3758.95672  0.01147  0.11364     0.01614  1.32576     17.10666   4042.29621    -25.1811  1.21545   7698.92096    7e-05  57952.63818  52.12226   0.42977  16.92474     57989.82 
    13.53426  1.51631  3.79007       1.82293          3912.1327  0.00104  0.09736      0.0134  1.44865     17.10764   5350.73541   -15.52195  1.07045   8463.87751    7e-05  57962.29733  52.21915   0.04047  16.81309     57989.82 
    13.72202  1.89749   4.7224       1.68988         4048.71424  0.09886  0.07518     0.01103  1.97723     17.79822   9691.57916   -22.37511  1.11557   7651.78987  0.00035  57955.44417  52.17923   4.27658  16.72627     57987.78 
    13.88907  1.94356   4.5634       1.82211         3957.80338   0.0496  0.08285     0.01221  1.74805     16.98738   7745.85117   -19.19079  0.60231   8165.24722    5e-05  57958.62849  52.21737   2.05737  16.79426     57991.15 
    13.89672    2.064  5.34914       2.03261         3637.79108  0.00126  0.10067     0.01934   1.6787     18.47725   7156.91935   -17.92607  0.88659   9116.26312  0.00167  57959.89321  52.30689    0.0515  16.81245     57984.14 
    13.50289  1.44975  3.64226       1.57385         3914.73736  0.00382  0.09206     0.01508  1.71649     16.16798   5827.91366   -19.53861  1.23062   9156.42562    1e-05  57958.28067  52.31412   0.15741  16.82717     57987.78 
    13.85057  1.45821  4.08676       1.34403         3539.34329  0.00691  0.07477     0.01573  2.15235     17.12268   9815.16817   -24.37576  0.60288   8639.85587    7e-05  57953.44352  52.29686   0.30746  16.90341  57990.01679 
    14.32912  1.65951  4.84068       1.65129         3973.18373  0.03406  0.06167     0.01383  2.57576      16.7607   5248.87468    -15.2306  0.23742   9260.20277    3e-05  57962.58868  52.38173   1.60375  16.89342     57990.82 
    13.52664  1.49033   3.9062       1.51343         4112.54062  0.11354  0.09731       0.016  1.64386     17.80945    3464.8653   -18.08329   1.3232   8786.94131  0.00036  57959.73599   52.2717   4.60826  16.79609     57987.78 
    13.46477  1.77046  3.49307       2.20079         3678.87705  0.43102  0.12502     0.01227  1.27851     18.82652   7686.55275   -13.51587  1.09207   9171.66987  0.00373  57964.30341  52.26818   15.9275  16.84708     57987.78 
    13.48056  1.43196  3.22426       1.88311         3852.50454  0.22852  0.09612     0.01105  1.55341     18.01106   7701.83574   -17.80341  0.88105   8643.37571  0.00057  57960.01587  52.24855   9.08823  16.81111     57991.14 
    13.80083  1.55766  3.25272       2.15893          3732.5449  0.00702  0.10219     0.01036   1.5265     19.05171   5962.34242   -17.14971  0.38391   8552.70454  0.00626  57960.66957  52.23662    0.2774  16.80929  57982.30622 
    13.86927  1.70696  4.08779       1.51189         4026.99724  0.00191   0.1155     0.01505  1.24447     17.29729   3451.62444   -21.01221  0.55095   7697.15607  0.00011  57956.80707  52.11133   0.06982  16.90858  57990.01679 
    13.73403   2.1819  5.02615       1.84095         3946.42696   0.0086  0.18277     0.02827  0.88048     18.61992   5475.69698   -16.42885  1.37179   9211.61988  0.00232  57961.39042  52.20343   0.27136  16.82547     57984.14 
    13.58226   1.4255  3.71404       1.21086         3665.29794  0.01739  0.09328     0.01758  1.75786     18.02938   8485.84225   -30.12428  1.45444   8283.25504  0.00059    57947.695  52.23068   0.72268   16.9031  57990.01679 
    13.51034  1.40902  3.20628       1.63977         3990.46088  0.00179  0.11031     0.01267  1.49372     17.31819   3972.34069   -14.81003  0.74038   9114.22463  0.00012  57963.00925  52.28839   0.07031  16.80754     57983.44 
    13.98778  2.18424  4.70479        1.5677         3885.46206  0.13543  0.08689     0.01105  1.72155      17.5677   8446.03151   -23.19089  0.54154   7985.28313  0.00021  57954.62839   52.1957   5.58732  16.82495     57989.82 
    13.73545  1.69666  3.84974       1.86808          4104.5706  0.00195  0.13353     0.01785   1.1934     17.19507   7735.87198   -15.53347  0.61412   9332.53213    9e-05   57962.2858  52.27141   0.07005  16.96421     57989.82 
    13.66979  2.11906  4.32897       1.51822         4172.87957  0.00141  0.08428     0.01055  1.71337     17.57281   9363.69917   -14.57679  1.05251   8997.16971  0.00021  57963.24249   52.2986   0.05804  16.84053     57992.79 
    13.55513  1.73293  3.74508       2.16028         3700.65215  0.03401  0.09259     0.01135  1.72475     19.37505   9820.85032   -13.52847  1.00472   9411.72145  0.01318  57964.29081  52.33874   1.40397  16.83636  57990.01679 
    13.52018  1.60285  3.59981       2.32441         3761.02782  0.01409  0.08818     0.01052  1.63577     19.64866   9364.16289   -19.98579   1.1801   8104.96482  0.02474  57957.83349  52.20077   0.57078  17.00517      57986.8 
    13.74187  1.74085  4.69024       2.27371          3518.2714  0.01541  0.07564     0.01426  1.88006     17.02486   6177.87725   -26.37597  1.37873   7403.64564    6e-05  57951.44331  52.14321    0.6554  16.85534     57991.15 
    13.51876  1.42228  3.73311        2.1521         3795.02871  0.00187   0.0829     0.01235  1.70692     18.48082   3771.16038   -21.06596   1.3376   7691.29493  0.00168  57956.75331  52.16181   0.07681  16.81476  57990.01679 
    13.97029  2.04089  4.50907       1.90073          3459.5064  0.00458  0.10617     0.01394  1.53049     16.32219   8634.04793   -20.87792  0.53157   8645.39425    1e-05  57956.94136   52.2464   0.18113  16.97658     57989.82 
    13.48427  1.71333  3.72789       2.44562         4031.32234  0.16072  0.10935     0.01228  1.32925     17.08507   3524.96115   -12.04127  1.21352   9022.41904    7e-05  57965.77801  52.26049   6.02943  16.91516     57991.14 
    13.80232  1.91946  5.26866       1.33418         4192.89357  0.01525  0.06795     0.01449  2.29861     17.61528   9993.60314   -21.17873  1.38226   8452.66288  0.00023  57956.64055  52.28702   0.69287  16.91419     57987.78 
    13.71626  1.77725  4.45602       1.63324         3986.20925  0.00127   0.1243     0.01693  1.14925     18.56148   4449.50798   -19.63678  1.02167   7454.88446  0.00202   57958.1825  52.06966   0.04515  16.80984      57986.0 
    13.80797  1.83813  4.14764       1.59272          4031.5707  0.00577  0.09351     0.01128  1.69536     18.89627   5848.22461   -19.07379  0.63319   8288.54437  0.00438  57958.74549  52.22573   0.23675   16.8567     57987.78 
    13.83235  1.81829  4.53318       1.74269         4343.61617  0.40866  0.07609     0.01057  2.04194     17.25921   9650.25733   -19.45503  0.71252   8272.94245   0.0001  57958.36425  52.25167  17.86853  16.84427  57990.01679 
    13.81972  2.00105  4.83206       1.73561         3804.20223   0.4329   0.0924      0.0127  1.76629     18.32717   7344.57771   -13.26967  0.77346   9250.39513  0.00118   57964.5496  52.32732  18.02052   16.8837     57987.78 
    13.52904  1.83691  3.86677       1.37467         4025.59373  0.15836  0.12096     0.01362  1.33906      19.6925   6336.56531   -17.34587  1.54111   8848.07662  0.02737  57960.47341  52.24477   5.95784  16.90645  57990.01679 
    13.73936  1.80706  4.74272       1.45983         4124.54111  0.00539  0.06694     0.01089  2.11158     16.15434   6082.45958   -22.92163  1.05331   7371.60782    1e-05  57954.89764  52.15627   0.23807  16.77404     57991.14 
    13.98371  1.67883  4.20771       1.37737         3745.34509   0.0015  0.14624     0.02427  1.17929     19.99138   3748.63971   -18.89596  0.41914   9218.68985  0.05446  57958.92332  52.25867   0.05367  16.87659  57990.01679 
    13.51941  1.62916  3.95342       1.49839         3998.46899  0.00593  0.07896     0.01177  1.86776     16.11885    9846.7991   -15.62854  1.39449   8788.07794    1e-05  57962.19074  52.29114   0.25176  16.85264   57986.1615 
    13.57762  1.64953  4.00712       1.25781         4137.09064  0.00314  0.17525      0.0246  0.83426     18.99949   9268.70983   -20.49101  1.42725   8268.84131  0.00555  57957.32827  52.09878   0.09659  16.91747     57987.78 
    13.74319  1.77293  4.11443       2.08636         3933.93059  0.00515  0.08109     0.01056  1.94261     19.17446    3656.6512   -20.95111  0.80184   8224.27198   0.0083  57956.86817  52.23932   0.22126  16.78985     57987.78 
    13.45568   1.6929  3.63445       1.84645         3968.40923  0.00335  0.11462     0.01299  1.36925     16.93804   3062.75097   -12.48818  1.32264   9176.00993    5e-05   57965.3311  52.28009   0.12702  16.90199     57987.78 
      13.698  1.96047  4.29682        2.0168         3845.36844  0.00188  0.12843     0.01562  1.15056     19.24051   9257.77062   -17.20916  0.94854   8378.04623  0.00967  57960.61012  52.17126   0.06668  16.94414     57989.82 
    13.84259   1.7165  4.19102       1.51453         3803.32123  0.07281  0.09004     0.01342  1.84891     17.69465   4145.41387   -20.59051   0.6047   8702.26116  0.00028  57957.22877  52.28111   3.07918  16.90111     57989.82 
    13.58295  1.94289  4.09694       1.91117         3737.31655  0.00268  0.10172     0.01189  1.46695     18.06598   5957.88928   -17.66511  1.51186   8635.74788  0.00065  57960.15417  52.23864    0.1045  16.76758      57986.0 
    13.63586  1.74192  4.30125       0.97055         3967.64333  0.03843  0.06755     0.01229  2.79074     16.53904   8236.82556   -18.45727  1.23262  10396.78783    2e-05  57959.36201  52.49286   1.85385   16.8016   57986.1615 
    13.92461  1.85977  4.61001       2.01013         3859.61981  0.33089  0.07088     0.01021  1.96854     17.34845   8930.06308   -18.49379  0.54543   8008.86663  0.00012  57959.32549   52.2182  14.29268  16.85273     57987.78 
    13.56391   1.6872   3.7503       2.06799         3698.65121  0.02347  0.09006     0.01073  1.62734     19.35303   4686.97303   -15.63358  0.93784   8437.82538  0.01252   57962.1857  52.23492   0.94935  16.89369     57992.79 
    13.84191  1.79613  4.28762       1.48026         4155.00673  0.13042  0.08664      0.0114  1.69515     19.04244   4938.75843   -21.72136   0.6806   7710.12232  0.00613  57956.09792  52.16288   5.35135  16.83706     57983.44 
    13.58464  1.64452  3.77968       2.28824         3883.70615  0.23341   0.0894     0.01023  1.53656     19.86451   5246.16858   -14.80565  0.90848   8180.50269  0.04067  57963.01363  52.19902   9.24597  16.89672     57989.82 
    13.78396  1.50881  3.86239       1.53399         4180.54141  0.11232  0.07991     0.01301  2.08998     18.37287   9111.08379   -19.36594  0.53856   9150.02186  0.00131  57958.45334  52.34252    4.9489  16.78789      57986.0 
    13.62984  1.92331  4.01244       1.79067         4016.17311  0.00117  0.09933     0.01198  1.62713     20.16355   3192.79092   -13.57806  1.03723   9379.09775  0.08096  57964.24122  52.32676   0.04748  16.70548     57987.78 
     14.2606  2.12579  5.36033       1.61093         4031.48548  0.05156  0.06532     0.01168  2.01921     18.90526   5360.98015   -22.95691  0.37221   7438.56725  0.00447  57954.86237  52.15772   2.24589  16.79376   57986.1615 
    13.67899  1.53683  3.71531       1.85287         3906.99639  0.03231  0.09111     0.01331  1.79299     19.70887     7130.745   -15.45214  0.65864   9439.16294  0.02842  57962.36714  52.34713   1.35207  16.72002     57989.82 
    13.88797   1.4091   3.6589       0.93032         4037.85018   0.0042  0.15363     0.02581  1.03424     17.56636   3793.63513   -26.35016  0.46137   7992.92819   0.0002  57951.46912  52.11107   0.14247  16.90697     57991.14 
    13.84852  1.32463  3.02959       2.05605         3634.48925  0.00183  0.11747     0.01224  1.40648     18.78189   3061.10109   -15.17131   0.2795   8729.20607  0.00336  57962.64797  52.24115   0.07022  16.86017  57990.01679 
    14.02335  1.55693  3.76901       1.35492          4053.2203  0.00457  0.15928     0.02699  1.06844     19.99931   5111.25324    -18.0946  0.30601   9736.73458  0.05547  57959.72468  52.28847   0.15708  16.80696  57982.30622 
    14.05176  1.76473  4.14346       1.83623         3704.52286  0.00597  0.09491     0.01282  1.54388     19.68193   6998.46141   -18.75281   0.3467   8096.69879  0.02671  57959.06647  52.19082   0.23677  16.84818     57984.14 
    13.61648   1.3499  3.51795       2.17688         3815.06321   0.0047  0.09569     0.01334   1.5435     18.45818   7509.28425   -17.05194  0.70234   8265.36769   0.0016  57960.76734  52.20869   0.18658   16.8025     57989.82 
    13.59583  1.81411  3.91341       1.83148         3727.62468   0.0049  0.13567     0.01722  1.34564      17.5637   4411.46274   -15.84045  1.03145  10006.94768   0.0002  57961.97883  52.35249   0.18453  16.78909     57989.82 
