 texplosion  fnickel    Pspin  log(Bfield)      Mns  thetaPB   mejecta    kappa  kappagamma     vejecta  temperature    alpha  cutoff_wavelength  log(nhhost)      A_V         MJD0  kenergy  mnickel             TSD   log(L0)  Peak_mag     Peak_MJD  log(E_rad)  log(Peak_lum)  Rise_Time    E_fold  tau_1  delta_m15     r_peak     frac 
   -14.9815  0.04327  3.21736      13.7242  1.75765   0.9391   5.28749  0.22159     0.01798  6956.57081   6327.71299  0.86037         4174.16861      16.2415    1e-05  59735.46938  1.52639  0.22876   6016691.29631  44.71942  18.77625  59811.39955    51.14598       44.27293   52.14724  55.76361   58.5    0.12726     -21.53  0.98706 
  -16.62893  0.04332  2.90909     13.55237  1.68707   1.1876   8.70451  0.17158     0.01153  7864.80522   5532.15884  0.68815         4021.74748     16.66148    3e-05  59733.82195  3.21179  0.37711  10416598.61555  44.55074  18.74493  59811.39955    51.18734       44.27029   53.84293  63.23824   58.0    0.12918  -21.58527   0.9812 
  -17.58786  0.02104  2.81851     13.84785  1.84486  0.38928    7.9648  0.11579     0.01351  7848.85296   3754.88405  0.13279         5698.71994     18.63422  0.00239  59732.86302  2.92694  0.16755   2742341.26501  45.19665  18.76064  59812.22584     51.1107       44.23917   53.14212  55.42676   67.0    0.11602   -21.5892  0.99267 
  -15.49237  0.40074  3.35439     14.26392  2.11297  0.20916   4.81742    0.314     0.02242  8870.90675     7159.234  1.21689         2863.62222     17.59439  0.00022  59734.95851   2.2614  1.93052    654782.99778  45.72641  18.76787  59812.62494     51.1934        44.3373   51.44533  53.18459   58.5      0.132  -21.60046  0.91212 
  -15.73038   0.2945  2.49064     13.39979  1.52227  0.85227   4.57713  0.15175     0.01076  5927.97267   3236.61968  1.00754         4252.41424     19.14975  0.00784   59734.7205  0.95947  1.34796  13910548.91992  44.51537  18.76382  59813.36703    51.17068       44.30745   52.30957  53.18459   70.5    0.11872  -21.49507  0.94044 
  -17.34367  0.00148  3.31315      13.8267  2.04829  0.90826   4.61769  0.24939     0.01836  6787.67413   7866.48961  0.28188         5322.51316     19.34136  0.01219  59733.10721  1.26909  0.00682    4637461.4264  44.87348  18.77543  59812.22584    51.16183       44.30331   51.44533  53.18459   54.5    0.12838  -21.53944  0.99967 
  -15.32712  0.19588  2.79661     14.18515  1.53426  0.27344   4.89122  0.30708     0.02312  8442.62253   8275.32282  0.04805          5793.4611      18.3077  0.00113  59735.12376  2.07969   0.9581    474975.33848  45.88481  18.76966  59813.36703    51.20232       44.30477   56.71825  58.10584   45.5    0.14758  -21.55422  0.95269 
   -18.5745  0.13154  2.48705     13.32931  1.55151  1.29132   6.41984  0.19979     0.01647  8108.69455   7779.20681  0.77044         2787.78298     18.87213  0.00414  59731.87638  2.51798  0.84447  19557298.13215  44.37692    18.769  59813.36703    51.18205       44.29042   55.04865  59.08782   61.0    0.11415  -21.57339   0.9637 
  -18.06732  0.02788  2.55055     13.90341  1.48625  0.28892   5.32134   0.2826     0.02479  9055.49523   4631.71378  0.41613         3527.72749     16.20339    1e-05  59732.38356  2.60299  0.14834   1400753.68384  45.48131  18.76844  59814.01431    51.22016       44.32252   52.65104  59.41022   59.0    0.12924  -21.60874  0.99284 
  -16.35895  0.00239  2.50423     13.64521  1.90437  0.44579   5.27278  0.11994        0.01  6483.55906   5422.83026  0.53072         4970.78468     17.01024    6e-05  59734.09193  1.32219  0.01262   5681883.99339  44.99675  18.77623  59810.29425    51.21359        44.3719   48.59929  51.88022   73.5    0.11489  -21.53693  0.99955 
  -19.53695  0.02498  2.29721      13.4702   1.7431  0.73432   5.07075  0.26401     0.01157   7729.2348   4114.06133  0.05611         4703.41071     16.15012    1e-05  59730.91393  1.80706  0.12667   9798056.71234  44.79663  18.77338  59813.36703     51.2596       44.40733   49.13406  52.65851   62.5    0.11807  -21.54497  0.99592 
  -15.54384  0.03282  3.40813     13.86077  1.93159   0.5617   9.37019  0.13428     0.01732  7902.35538   4646.83903  1.34297         3764.18501     19.35001  0.01244  59734.90704  3.49051  0.30753   3955659.16225  44.89251  18.73065  59812.22584    51.18232         44.337   48.38783  51.88022   65.5    0.10961  -21.60513  0.98245 
   -13.0546  0.13385  2.81544     14.00886  1.96622  0.53938   5.11586  0.27587     0.02404  8423.67055   6786.80397  0.81318         2643.96583     20.67242   0.2613  59737.39628  2.16545  0.68474   1389356.93173  45.52057  18.75451  59810.29425    51.21058        44.3297   47.34191  57.62525   54.0    0.13214  -21.82973   0.9759 
  -16.35031  0.19243  2.86832     14.26665  1.78541  0.13945   7.02126  0.13422      0.0137  7243.58453   3043.20323  0.53727         4732.42094     19.24953  0.00987  59734.10057   2.1976  1.35108    399496.96236  46.00381  18.74808  59812.62494    51.23674       44.35652   53.84293  57.01261   68.0    0.11453  -21.59741  0.93864 
  -17.06601  0.20537  3.37501     13.97279  2.09941  0.45844   7.71566  0.16309     0.01252  8212.15591   4166.48457  0.19502         4323.19038     18.99285  0.00546  59733.38487  3.10395   1.5846   2517047.56671   45.1335  18.75943  59814.01431    51.17432       44.29142   55.04865  57.01261   59.0     0.1367  -21.56257  0.92651 
   -17.3884  0.02366   2.9388     14.08937  1.66471  0.35188   6.77102  0.21444     0.02863  8366.45843   7550.34999  0.10454         2447.20222     18.41626  0.00145  59733.06248  2.82725  0.16018    884633.64776  45.60708  18.76482  59812.22584    51.20344       44.32508    50.6745  56.03063   55.5    0.11974  -21.59146  0.99188 
  -19.30062  0.00112  1.99101     13.13709  1.44574  1.07323   6.72518  0.13183     0.01261  8322.51073   4672.28307  0.06555         3976.25585     19.13258  0.00754  59731.15026  2.77869  0.00752  28305785.78911  44.37891  18.77803  59811.35206    51.14582       44.28865   52.65104   55.2598   68.0    0.11787  -21.55382  0.99974 
  -18.16489  0.23834  2.76327     13.92499  1.88601  0.36598   7.34559  0.25606     0.01014   8377.2012   5484.33225  0.37535         2751.00297     18.34858  0.00124  59732.28599  3.07505  1.75074   1888957.42161  45.38532  18.76944  59813.36703     51.1697       44.29314   53.08079  54.93741   57.5    0.12439  -21.55588  0.93491 
  -18.33558   0.0536  2.67343     13.65143  1.61758   0.9292   9.48799  0.21828     0.01404  8917.60243   5656.93333  0.03859         3959.39307     19.56194  0.02026   59732.1153  4.50088  0.50857   5345078.06492  44.89562  18.78301  59814.01431    51.19294       44.33054   52.65104   55.2598   55.0    0.13112  -21.65144  0.97792 
  -18.67725  0.00766  2.61882       13.773  1.65284  0.36383   3.29159  0.31798     0.03275   7722.1427   9334.33077  0.51306         4290.00512     17.44916  0.00016  59731.77363  1.17087  0.02522   2994068.72159   45.1746  18.74997  59810.18047    51.15509       44.27988   52.64169  56.13865   55.5     0.1117  -21.56957  0.99884 
  -15.09103  0.09417  3.35656     14.11962  2.00284   0.3778   8.86162  0.13742     0.01305  8018.84253   4718.69979   0.2101         5186.96589     19.56728  0.02051  59735.35984   3.3991  0.83453   1207873.53582  45.43668  18.77978  59812.62494    51.15771       44.28732   52.25459  55.76361   57.5    0.13667  -21.61123  0.95889 
  -18.63501  0.00119  2.10999     13.57853  1.32784  0.51741     6.696  0.27304     0.01255  8402.15839   4803.09749   0.2171          2985.9843     16.20444    1e-05  59731.81587  2.81984  0.00798   3823544.00247  45.16096    18.762  59814.01431    51.19261       44.32695   53.84741  54.06344   57.5    0.12342  -21.58817  0.99969 
  -19.28294  0.02116  2.06835     13.90143  1.72591  0.16582   7.91971  0.15122     0.01028  8337.88183   7982.05191  0.57752         2245.61447     17.37271  0.00013  59731.16794  3.28434  0.16759   1079487.27831   45.8414  18.76935  59811.39955     51.1955       44.33228   51.53874  53.95542   62.5    0.10903  -21.58875  0.99502 
  -17.08632  0.02527  2.66698     13.58776  1.64592  0.91944   8.31153  0.25255     0.01374  8858.38551   6522.07873  0.37928         3593.26073     18.57561  0.00209  59733.36456   3.8906  0.21003   7256878.46548  44.77246  18.77879  59813.36703    51.24628       44.33991   48.31774  63.85087   56.5    0.12518  -21.63218  0.99083 
  -17.95711  0.01093   2.3049     13.62267  1.53051  0.44922   7.68437  0.17484      0.0122  9094.11582   8446.83199  0.03573         4311.43178     16.31875    1e-05  59732.49377  3.79102  0.08396   4291544.73238  45.09576  18.76992  59810.29425    51.25251       44.34189   49.56761  62.49366   50.0    0.13854  -21.59112   0.9967 
  -17.32099  0.01988  2.83448      13.6165  1.64071  0.67953    9.8059  0.14541     0.01105  8041.89978   7511.09463  2.33811          3243.9335     19.02512  0.00589  59733.12989  3.78296  0.19497   7158119.38094  44.72413  18.75596  59814.01431    51.22023       44.26076   56.29303  69.95322   60.0    0.12519  -21.57176  0.98989 
  -16.36348  0.28787  2.78421     14.21799  2.01507  0.16377   8.16687  0.19395     0.01069  8715.55389   7128.07947  2.12133         2162.59895     19.51142  0.01804   59734.0874  3.70061    2.351    531538.87882   45.9582  18.74518  59812.62494    51.20075       44.28578   55.04865  61.16303   60.5    0.12337  -21.63966  0.91765 
  -14.62346  0.00424  2.98126     14.02845  1.76312  0.35604   4.23206  0.28838      0.0296   8241.8668   7793.43493  2.19041         2378.59961     20.16139  0.08056  59735.82742  1.71486  0.01796   1276428.34388  45.46033  18.79026  59812.22584    51.12816        44.2234   55.46169  58.78214   54.5    0.12911  -21.61573  0.99911 
  -17.20285  0.00202  3.12178     13.72715  1.87103  0.92395   6.47257  0.27098     0.01425  8048.71475   7987.36955  1.02495         3435.90966     16.90593    4e-05  59733.24803  2.50125  0.01309   5948526.54616  44.77771   18.7646  59813.36703    51.18459        44.3173   51.44533   55.2598   52.5    0.13593  -21.56478  0.99936 
  -13.79029   0.0322  3.55124     14.17108  2.02271  0.37359   3.80806  0.29691     0.04049  8278.34558    4374.3273  0.18218         5999.37395     16.66996    3e-05  59736.66059  1.55675  0.12262   1077328.20035  45.44167  18.76226  59812.62494     51.2775       44.37816   54.64031  59.41022   57.5    0.12803  -21.59043  0.99314 
  -18.74541  0.00347  2.25289     14.03734  1.58094  0.15603   8.07267  0.19343      0.0127  9267.97021   6505.76072  1.28989         2077.43871      18.6796  0.00266  59731.70547  4.13631  0.02797    627384.41176  45.96475  18.76677  59811.35206    51.20336       44.34444   50.76045  52.65851   62.5    0.12934  -21.62188  0.99897 
  -18.24117   0.0148   3.0409     14.02993  1.91124  0.35624   7.39164   0.2099     0.01357  7782.97156   7561.91377  1.76574         2574.01209     17.60141  0.00022  59732.20971  2.67091  0.10941   1429778.47253  45.42889  18.79503  59812.62494    51.17397       44.30825   51.44533  53.18459   57.5     0.1193  -21.56948  0.99497 
  -18.97621  0.05819  2.50671     13.38388  1.61547   1.3757   7.41373  0.21435     0.01291  8900.12036   9655.61298  0.23469         2604.74509      17.2755   0.0001  59731.47467  3.50313  0.43144  16090197.42102  44.47237  18.77629  59811.39955    51.15253       44.29707   52.64169  51.98823   44.0    0.15128  -21.59909  0.98241 
  -17.11862  0.00436  2.68539     13.69035  1.69987  0.54811   5.24034  0.21388     0.02099   8390.3771   5015.36833  0.22585         3241.42899     19.37018  0.01303  59733.33226  2.20064  0.02286    4737490.2528   44.9657  18.79307  59809.25728    51.07549       44.19188   54.66664  57.50197   62.0    0.12793  -21.59001  0.99898 
  -18.09748  0.06972  2.53814      13.7049     1.73  0.55333   6.04837  0.26716     0.01009   7720.9695   6431.03987  0.32194         3413.39856     16.62814    2e-05   59732.3534  2.15085   0.4217   4028058.79451  45.09276  18.72758  59814.01431    51.19423        44.3442   48.50063  53.18459   58.5    0.12658  -21.52492  0.98424 
  -19.55129  0.36914  1.93314     13.60247  1.24907  0.30413   7.91002  0.21267     0.01101  8432.16133   3659.81773  0.36909         3709.95585     19.15182  0.00788  59730.89959  3.35492  2.91988    2703936.9769  45.36091  18.77389  59809.25728    51.11222       44.25498   53.01673   53.6884   63.0     0.1164  -21.61203  0.89836 
  -15.65342  0.06218  2.78743     13.59716  1.74473  0.58355  10.34106   0.0943     0.01068  7808.98084   6675.45885    0.979         3921.52018      16.8442    4e-05  59734.79746  3.76167  0.64296   8046933.03309  44.71454  18.76826  59814.01431    51.25426       44.32308   52.65104  65.63585   69.0    0.11684  -21.56651  0.96938 
  -16.39869  0.01144  2.79359     13.92768  1.80363  0.49395   5.22242   0.2791      0.0188  8087.52824   4270.85057  0.05071         3791.69379     20.11792  0.07289  59734.05219  2.03766  0.05976   1823599.42429  45.37174  18.77781  59813.26353    51.18403       44.29895   53.84741  58.21386   55.5    0.13611  -21.63034  0.99754 
  -16.79177  0.03515  2.67639     13.71552  1.53647  0.64336    8.9885  0.19484      0.0123  8410.61896   5655.31089  0.39699         4276.88693     18.64252  0.00244  59733.65911  3.79289  0.31598   3787894.89109  45.02188  18.79172  59812.62494    51.20559       44.32926   52.65104   55.2598   56.0    0.13524  -21.61333  0.98483 
   -21.3117  0.02336  2.62573     13.46446    1.752  1.26706   6.90511  0.22403     0.01113  7800.18775   6498.73936  0.06794         5377.69221     16.40079    1e-05  59729.13918  2.50616   0.1613  13211079.32776  44.55294  18.75691  59812.22584    51.20803        44.3241   52.65104  57.33501   59.0    0.12084  -21.54832  0.99361 
  -19.65213  0.12896  2.41062     13.62297  1.78448  0.48789   6.87212  0.24331     0.01242  8707.89862    6276.4473  0.18513         3873.08073     18.01348  0.00057  59730.79875  3.10846  0.88622   5465579.51668  45.01846  18.75576  59813.26353    51.20359       44.26612   55.04865  65.31345   64.0    0.11911   -21.6063  0.96975 
  -17.26396  0.15275  2.60683     14.06216  1.71213  0.27661   5.68071  0.31854      0.0134  8211.15377   4925.26248  0.04027         2603.87352      17.6983  0.00028  59733.18691  2.28475  0.86772    811433.75558   45.7609  18.77248  59812.22584    51.20108       44.34905    49.8962  52.65851   55.0    0.13303  -21.56932   0.9668 
  -16.15398  0.00644   2.6732     13.86414  1.65402   0.4185    4.1616  0.31789     0.01244  6756.79018   4282.62575  0.67959         4796.33015     16.85631    4e-05   59734.2969  1.13336  0.02682   2051824.82052  45.32118  18.76836  59811.39955    51.19475       44.31584   51.88022  56.03063   58.5    0.13172  -21.55288  0.99882 
  -15.91592  0.00891  2.70636      13.5734   1.5132   0.7643    6.1757  0.18572     0.01637  7605.15484   4737.79629  1.66614         2894.75303     16.24014    1e-05  59734.53496  2.13074    0.055   7339882.03464  44.71828  18.77342  59812.62494    51.18759       44.32894   51.88022  53.95542   62.5    0.12721  -21.51768  0.99711 
  -16.66024   0.0022  2.95573     13.71028   1.7566   1.4263   8.43189  0.15689     0.01201    6931.731   5881.29878  0.26253         5966.62987     19.24111  0.00968  59733.79064  2.41677  0.01856   5410719.22154  44.83894  18.77916  59812.22584    51.12508       44.21296   56.90012  60.18105   56.0    0.12519  -21.57064  0.99913 
  -16.95804  0.01604  2.86942     14.28019  1.78438  0.17458   4.23019  0.33528     0.02388  8577.30881   3845.88289  0.17021         2650.71352     16.32221    1e-05  59733.49284  1.85648  0.06786    375415.48435  46.03023  18.75253  59811.35206    51.11897        44.2459   53.97119  55.42676   56.5    0.13604  -21.57087  0.99691 
  -18.18604  0.05369  2.58102     14.11078  1.52999  0.20557   5.79199  0.33398     0.01926   8538.9631   8354.85327  0.82782         3377.53587     17.83893  0.00038  59732.26484  2.51922    0.311     568223.5941  45.87543  18.77125  59812.22584    51.18948       44.29981   52.30957  57.33501   51.5     0.1247   -21.6073  0.98571 
  -20.60092  0.01247  1.88839     14.03076  1.36727   0.1101   5.11557  0.33854     0.01693  8988.12871    3681.9174  0.38435          2953.8666     16.04684    1e-05  59729.84996  2.46524  0.06377    392951.20777  46.25818   18.7761  59809.25728    51.19693       44.33683   49.94413  53.47483   61.0    0.12415  -21.59367   0.9979 
  -19.08299  0.02576  1.78768     13.63484  1.37437  0.26037   4.22575  0.32172     0.01147  7199.77262   5086.25087   0.5981         3330.68164     17.79928  0.00035  59731.36789  1.30668  0.10886   2191914.36174  45.56154  18.76844  59812.22584    51.20614       44.33092   52.65104  57.33501   67.5    0.11147  -21.51149   0.9968 
  -17.07355  0.05582  2.27335     13.79217  1.58682  0.35169   5.87139  0.33853     0.01239  9084.41932   7683.26894  0.19478         3087.87122     17.30654  0.00011  59733.37733  2.89043  0.32771   1983014.27128  45.45871  18.77201  59812.22584    51.17936       44.30285   50.68318   55.2598   53.0    0.13079  -21.59896  0.98865 
   -14.9861   0.0016  2.79536     13.59023  1.59823  0.80469   4.69065  0.21909     0.02286   7812.1926    8553.9392  0.51639         4036.22972     17.70434  0.00028  59735.46478  1.70768   0.0075   7653679.70611  44.69574  18.78448  59812.22584    51.20205       44.33054   50.59062  56.11451   54.0     0.1327  -21.56179  0.99961 
  -12.61477  0.06452  2.86292     14.45099  1.68665  0.21191   8.86744  0.15608     0.03462  8308.14611   8075.10179  0.50676          2252.3443     20.16543  0.08131  59737.83611  3.65118  0.57213    160870.52485  46.37577  18.78208  59811.35206    51.17871       44.35046   49.07988  50.74157   54.0    0.11331  -21.60747  0.97425 
   -14.9823  0.00898  3.42728     13.99849  1.94312   0.7494   5.45757  0.25495     0.09533  8644.99951   6042.58528  0.14572         2096.73565     18.52239  0.00185  59735.46857  2.43308  0.04898   2134234.70127   45.1582  18.75818  59812.22584    51.20745       44.30998   52.65104  59.41022   68.5    0.11463  -21.55478  0.99736 
  -19.79596  0.09997  2.33289     14.01103  1.69443  0.20287   6.54173  0.19048      0.0139  8379.04311   6546.05182  0.00212         3882.25946     20.33254  0.11947  59730.65492  2.73974  0.65401    813894.20244  45.85151  18.76892  59812.62494    51.21712       44.34228   49.91236  56.03063   64.0     0.1226  -21.68328  0.97804 
  -15.43887  0.02282  2.93876     14.28064  1.73939  0.26882  10.37525  0.13933     0.01116  7624.83485    6465.9253  0.17608          4248.2016     19.72157  0.02926  59735.01201  3.59821  0.23676    383061.45295  45.98965  18.77329  59813.26353    51.24158       44.37819   50.59062   54.0393   55.0    0.12939  -21.55713  0.98896 
  -14.75642  0.01359  2.84188     13.90892  1.69886  0.37139   5.98682  0.23139     0.01761   8773.2058   6758.58381  0.97747         3139.99023     16.87178    4e-05  59735.69445  2.74878  0.08139   1937961.56816  45.30445  18.75406  59812.22584    51.20902       44.32206   52.30957  57.33501   57.5    0.14516  -21.59498  0.99604 
  -16.13021  0.18974  2.29008     13.58395  1.38673  0.58841   3.43142   0.3385      0.0159  6985.48928    7267.7531  0.40493         5970.80471     18.81908  0.00366  59734.32067  0.99884  0.65106   4587909.50233  45.02952  18.74494  59815.34318     51.1521       44.25575   56.98834  58.01762   56.5    0.13707  -21.60443  0.97296 
  -15.40421  0.00288  2.72834     13.65319   1.4716  1.17564   9.49219  0.13243     0.01253  6680.74975   7506.74852  0.46976         4832.83804     16.81799    4e-05  59735.04666  2.52723   0.0273   5023774.15055  44.86381  18.79345  59810.29425    51.18143       44.33902   51.10192   50.5833   57.0    0.11768  -21.52282  0.99857 
  -17.56394  0.00169  2.00145     13.96431  1.74097  0.14105   4.60907  0.31681     0.01271   8362.2372    4969.5117  0.52726         3706.65362     16.43625    2e-05  59732.88694  1.92258   0.0078    763281.10766  46.02426  18.76336  59813.26353     51.1971       44.33145   53.50594  54.06344   65.0    0.11981  -21.57032  0.99979 
  -16.45556  0.01635  2.37616     13.39223  1.61476  0.84252  11.04377  0.11877     0.01042  9365.79989   6460.74645  0.10043         4275.20313     16.29557    1e-05  59733.99532  5.77875  0.18057  13906412.53462  44.58199  18.78446  59819.24384    51.28074       44.30356   55.04865  75.68949   61.5    0.12888  -21.64728  0.99293 
  -17.85729  0.02225  3.05483     14.06808   1.8666  0.31689   5.94744  0.22928     0.01482  7196.55495   4437.98374  1.04481          3595.9608     19.73553  0.03022  59732.59358  1.83741  0.13233   1182144.26916  45.49725  18.74308  59811.39955    51.18423       44.30801   53.88098  55.76361   60.5    0.12395  -21.57066  0.99364 
  -16.67318  0.00326  2.55211     14.15015  1.47938  0.18838   8.93657  0.13421     0.01033   7805.4855   4244.85061  0.26689         4126.53912     16.73727    3e-05   59733.7777  3.24786  0.02914    448124.13565  45.97373  18.77945  59810.18047    51.16417       44.33644   49.13406  49.92525   59.0     0.1327   -21.5566  0.99862 
  -16.12772  0.11866  2.70485     13.91212    1.577  0.30336   8.98519  0.09896     0.01043  7222.03992   4006.15833  0.39953         5221.32204     19.02658  0.00591  59734.32316  2.79559  1.06616   1605773.53408  45.39671  18.79387  59811.39955    51.18684       44.33081   51.44533  53.18459   65.5    0.11518  -21.57873  0.94894 
  -16.02806  0.05376  2.84726     14.00804  1.60498  0.31192    3.5068  0.27586     0.02599   6909.5817   4529.31761  0.51546         4277.77259     16.89389    4e-05  59734.42282  0.99872  0.18853    1164277.9726   45.4994  18.76841  59813.36703    51.16045       44.29145   53.08079  54.93741   64.0    0.12032   -21.5163  0.99021 
  -17.07156  0.00306  2.25442     13.77878  1.59515  0.33983   5.59988  0.25649     0.01084  8296.48833   7322.46292  0.12402         4639.22095     18.75437  0.00316  59733.37932  2.29929  0.01713   2085077.31784  45.44646  18.78117  59811.35206    51.20093       44.34806   49.94413  51.39962   56.0    0.13275  -21.57415  0.99941 
   -21.4688  0.00158  2.20308     13.90708  1.63406  0.20973   6.40373  0.27001     0.01447  8823.47994   8685.04027  0.78025         2413.29262     18.09975   0.0007  59728.98208  2.97399  0.01009   1129777.89841  45.74306  18.76035  59814.01431    51.19456       44.29589   53.95542  58.10584   54.5    0.11582  -21.62972  0.99966 
  -17.64005  0.00393  2.76782     13.57099  1.86814  0.73547   4.49709  0.21316     0.01796  7587.49529   6286.11303  0.30742         4683.43382     18.29241  0.00109  59732.81083  1.54439  0.01767   9583356.71726  44.67446  18.76904  59811.35206    51.16593       44.26366   53.78256  60.46126   65.0    0.12014  -21.54793  0.99925 
  -19.47926  0.01509  3.06122     13.83263  1.87745  0.59924   8.62444   0.2044      0.0118  7822.62918   4441.33637  1.39636         2901.97294     17.09709    7e-05  59730.97162  3.14821  0.13013   3531157.09567  45.02271  18.74869  59812.22584    51.21002       44.35159   50.76045  52.65851   60.5    0.12185  -21.55301  0.99382 
  -16.22179    0.134  2.48617     13.78695  1.39475  0.41301   5.21142  0.30792     0.02014  8374.95256   5436.28794  0.68235          3305.9202     17.40845  0.00014  59734.22908  2.18046  0.69835   2135337.97921  45.29281  18.79353  59812.62494    51.17203       44.32175   49.82847   51.9641   56.0    0.13121  -21.58441  0.96669 
  -17.23686  0.00277  3.08508     13.67735   1.8246  0.74849   8.84102  0.15446      0.0113  7374.06535   7934.32762  2.56598         3229.47025     19.45957  0.01601  59733.21402  2.86776  0.02453   7125460.14924  44.69867  18.78308  59810.29425    51.20645       44.31964   52.36081  57.62525   60.5    0.11604  -21.56589  0.99872 
  -16.09948  0.10956  3.30247     14.40591  1.93179  0.19508   8.10134  0.21114     0.01101   7867.2226   8134.42283  0.70043         3909.52481     16.68247    3e-05  59734.35139  2.99107  0.88757    301742.53479  46.03749  18.79811  59811.35206    51.20938       44.34435    50.2856  53.47483   49.5     0.1386  -21.55291  0.95582 
  -19.45578  0.00109  2.45872     13.87789  1.68455  0.26875   5.13053  0.24786     0.02553  9083.17007   9975.88009  0.04593         4011.95007     19.76851   0.0326   59730.9951  2.52501  0.00559    1659356.5922  45.49397  18.76026  59812.22584    51.11641       44.24503   52.53825  53.95542   49.5    0.15787  -21.65736  0.99978 
  -19.02609  0.00799  2.23033     13.50793  1.62493  0.52116   4.46551   0.2483     0.01557  7752.90642   7089.07807  0.33559          3968.1849     18.77033  0.00327  59731.42479  1.60113  0.03569   7236482.45049  44.92341  18.77865  59813.36703    51.21274       44.34756   50.76045  54.73372   65.5    0.11946  -21.54882  0.99874 
  -17.68576  0.00186  2.33481     13.50234  1.68567  0.77946    4.5368  0.23187      0.0104  6853.97219   7760.19166  0.40354         4688.60089     20.21134  0.09038  59732.76512  1.27134  0.00846   8441563.24953  44.83269  18.78497  59810.29425    51.20364       44.32502    49.8962  56.80893   59.0     0.1263  -21.60607  0.99971 
  -17.68602  0.00418  2.80322     13.88482  1.93189  0.41635   3.97208  0.30388     0.01593  7575.09504   8535.38579  0.18312         4212.71946     18.11719  0.00073  59732.76486  1.35963   0.0166   2395915.85469  45.28004  18.78869  59810.18047     51.1987       44.34777    50.2856  53.47483   51.5    0.12793  -21.52966  0.99934 
   -16.2454  0.01805   2.3783     13.45151  1.38032  0.75075   5.53789  0.16934     0.01991  8314.08823    4480.9298  0.34807         3286.18486     19.13359  0.00756  59734.20547   2.2835  0.09998   9063873.04886  44.69898  18.78142  59808.78479    51.24434       44.39816   49.56761  52.11761   63.5    0.12798  -21.56163  0.99525 
  -16.98863  0.05719  3.13632      14.3219  2.00217  0.21039   4.67446   0.2873     0.02784  8611.07284   7848.41358  0.02775         4256.47424     20.15242  0.07891  59733.46225  2.06763  0.26734    415299.20782  45.95914  18.75018  59813.26353    51.20475        44.3449   50.68318  53.18459   53.5    0.13446  -21.65771  0.98809 
  -16.72657  0.17938  2.49771      13.5449  1.79698  0.73632   7.41146  0.29432     0.01165   9970.2151   9573.05338  0.64433         2675.36419     16.91465    5e-05  59733.72431  4.39481  1.32947   8465419.55044  44.80066   18.7658  59813.36703    51.19068       44.31655   53.84741  56.13865   46.5    0.15885  -21.63338  0.95449 
  -15.43867  0.22753  2.88312     14.16574  1.60356  0.21724   8.96285  0.16638     0.01139  8340.41264   6785.34839  0.64385         3319.40141     17.64798  0.00025  59735.01221  3.71919  2.03928    576962.35198  45.79306  18.76991  59814.01431    51.24399       44.31553   53.84741  64.43948   56.0    0.13517  -21.56696  0.90104 
  -17.88306  0.00373  3.12255     14.13633  2.00517  0.42237   7.66604  0.27531     0.01546  8300.95477   4496.68632    0.245         2864.26825     19.06811   0.0065  59732.56782  3.15104  0.02859    969019.64125  45.59565   18.7409  59815.34318    51.17192       44.28736   56.29303  57.50197   54.5    0.12348  -21.59496  0.99876 
  -17.26904   0.0069  2.32439      13.5884  1.40034  0.57631    4.5996  0.30699     0.02275  8838.08727   4754.00248  0.13943         2908.26809     19.62125  0.02323  59733.18184  2.14321  0.03174   4676045.02196  45.01258   18.7737  59810.20747    51.18408       44.30876   51.10192  56.80893   57.0     0.1352  -21.61055  0.99862 
  -15.26943  0.05251  2.80541      13.5451  1.77176  0.80926   4.13675  0.18026      0.0309  8166.08519   3577.23031  0.12766         4140.66146     17.12839    7e-05  59735.18145  1.64556  0.21721  10520084.91541  44.59924  18.78761  59811.35206    51.13012       44.21774   57.08807  60.85734   68.0    0.10961  -21.56256  0.98998 
  -19.07655  0.00176  1.54834     13.34224  1.54349  0.35513   3.15786  0.32304     0.01426  7521.06618   5413.49749  0.21743          5699.2055     18.82308   0.0037  59731.37433  1.06556  0.00555   7105123.12841  45.22604  18.73514  59814.01431    51.21601       44.32354   53.84293  59.08782   71.5    0.10925  -21.58511  0.99988 
  -17.24182   0.4654  2.36602     13.83394  1.85026  0.21553   4.48163  0.26402     0.02424  8633.14104   7341.13888  0.79776          3478.3255     16.62136    2e-05  59733.20906  1.99251  2.08577    2066381.2532  45.47283   18.8027  59812.22584    51.20778       44.34038   51.18409  54.06344   70.0    0.11264  -21.61609  0.92885 
  -19.50272  0.00142  2.21588     13.29503  1.73211  1.03736   6.80888  0.27401     0.01271  9072.54164   7285.30097  0.70055          2722.2924     16.21275    1e-05  59730.94815  3.34319  0.00967  20296801.44315   44.5089  18.77493  59810.29425    51.13125       44.26675   53.81613  53.75325   60.0    0.12115  -21.63354   0.9997 
  -15.54099   0.0042  2.70248     13.88563  1.45476   0.3231   5.21424  0.22586     0.01808  7155.88415   5117.50021  1.88434         3536.38081     16.45948    2e-05  59734.90989  1.59274  0.02191   1670590.51391  45.34524  18.77796  59812.62494    51.18734       44.32135   48.85265   54.0393   63.0    0.12586  -21.53382  0.99877 
  -16.24484  0.00196  3.42474     13.82347  2.07798  0.88183   8.80973  0.14458     0.01145  7423.56267   5537.83918   0.3567         4569.02912     16.27106    1e-05  59734.20603  2.89611   0.0173   5102473.77225  44.80945  18.75956  59811.39955    51.19429        44.2916   53.95542  60.18105   57.5    0.12784   -21.5564  0.99913 
   -20.0358  0.00125  2.27271      13.9141  1.65302  0.23698    6.8465  0.18662     0.01297  8008.21283   8176.44693   1.3594         2291.24886      20.2334  0.09509  59730.41508  2.61919  0.00857   1177550.24403  45.70306  18.76883  59813.36703    51.18778       44.29754   55.04865  57.01261   60.0    0.11523  -21.67571  0.99971 
  -17.07156  0.08594  2.63326     14.15516  1.64168  0.18497   6.71544  0.16209     0.01115  7540.05519   5531.23432  0.25916         4815.07279     19.35454  0.01257  59733.37932  2.27746  0.57709    517342.32983  45.92937  18.76307  59810.29425    51.18449         44.312   51.88022  56.03063   59.5    0.13143  -21.56619  0.97507 
  -16.27787  0.00107  2.94994     13.68611  1.63545  0.93731   5.56402  0.24582     0.02348  8102.12038   4723.29072  0.37146         3386.12901     16.71838    3e-05  59734.17301  2.17878  0.00596    5608750.5784  44.79399  18.77104  59812.62494    51.21496       44.32991   52.30957  57.33501   56.0    0.13017  -21.54449  0.99968 
  -16.98503  0.02899   2.8122     13.63748    1.725  1.12339   5.89982  0.29768     0.01176  7266.81442   8554.12756  0.53815         4245.26871     16.58165    2e-05  59733.46585  1.85846  0.17105   6725701.96088   44.7798  18.80682  59812.22584    51.17903       44.31627   51.88022  53.95542   51.0    0.12917  -21.54083  0.99242 
  -15.14769  0.00412  2.52767     13.92075  1.35459  0.26846   4.27852   0.2607     0.01002  5614.89002   8040.41071   2.7303          3742.3714     18.70705  0.00283  59735.30319  0.80464  0.01762   1157642.71525  45.53164  18.77649  59813.36703    51.19887       44.27002   54.22245  64.06444   59.5    0.12496  -21.47698  0.99904 
   -18.9644  0.04285  2.58476      13.6353  1.81043  0.91935    6.9339  0.32324        0.01  8081.76863   7354.34383  0.07732         3010.61484     16.82886    4e-05  59731.48648  2.70158  0.29713   6023411.29724  44.92194  18.76219  59814.01431    51.20526       44.28653   55.04865  63.23824   53.0    0.12517  -21.56197  0.98956 
  -15.60764  0.07879  3.04034     14.13888  1.69879  0.29277   7.56438  0.20722     0.01865  8572.37347   7404.88446  0.83232         2831.57133     17.92672  0.00047  59734.84324  3.31591    0.596    769188.05755  45.64711  18.73678  59814.01431    51.20299       44.32984    54.1576  53.75325   53.0    0.13082  -21.58561  0.96894 
  -17.97239   0.0021  2.57639     14.31397  1.68506  0.16504   6.71912  0.33558     0.01002   7989.3026   6805.90733   0.3889         4283.26668     16.80116    4e-05  59732.47849  2.55833  0.01409    244630.63803  46.28493  18.80134  59810.18047    51.23152        44.3288   49.56761  60.41845   53.5    0.12549  -21.56157  0.99945 
  -18.67904  0.12824  2.44144     13.69621  1.65724  0.49052   8.65689  0.24698     0.01045  8987.56826   7275.15754  0.54604         2654.64157     19.32254  0.01168  59731.77183  4.17132  1.11017   3715967.53688  45.14287  18.75416  59812.62494    51.15578        44.2734   54.54471  56.31084   55.5    0.12236  -21.61895  0.95957 
  -16.96493  0.30345  2.09564        13.82  1.66201  0.21024   7.76072  0.23666     0.01041  9319.61819   8898.38082  1.58589           2694.112     17.97334  0.00052  59733.48595  4.02092  2.35503   1552663.52329  45.65577  18.76729  59813.36703    51.23982       44.33709   51.82327    60.238   52.5    0.12074  -21.63379  0.93091 
  -13.32086  0.00134   3.0377     13.76472  1.67319  0.66781   7.29218  0.20047     0.01328  7792.72067    8344.4269  1.39381         3733.34623     17.48661  0.00017  59737.13002  2.64157  0.00975   4236640.16867  44.90028  18.76109  59812.22584    51.16164       44.27602   53.08079  57.01261   52.5    0.13908  -21.57166  0.99946 
  -16.51522  0.00968  3.16177     13.67798   2.0532  1.13444   3.87202  0.31844     0.01718  6911.60193   8413.37264  0.36865         5992.78211      18.7414  0.00306  59733.93566  1.10337  0.03747   8397305.95913  44.65728   18.7764  59809.25728    51.18824       44.29808   49.91236  58.10584   52.5    0.12859  -21.59988  0.99834 
   -17.2758  0.02635  2.80131     13.93285  1.61214  0.54169   8.53007  0.21559      0.0137  7866.92433   5305.36648  0.26683         4760.46246     16.94447    5e-05  59733.17508  3.14912  0.22475   1600438.79186  45.37729  18.79188  59812.62494    51.21072       44.35506   50.76045  52.65851   54.0    0.12826  -21.57543  0.98929 
  -16.90156  0.00133  2.78058     13.88127  1.60524  0.48666   4.61381  0.33671      0.0206  7792.82924   8464.73817  0.34185         4364.32024     16.15772    1e-05  59733.54931  1.67139  0.00612    1991076.4322  45.28703  18.78906  59810.29425    51.16944       44.34096   48.31774  49.32441   48.5    0.13339  -21.55636   0.9997 
  -21.00172  0.22451  2.49181     13.69991  1.57342  0.49928   6.28539  0.28298     0.01512  8212.86048   7379.64133  0.74673         2451.94124     18.51609  0.00182  59729.44915    2.529  1.41115   3613082.37432  45.11478  18.78399  59814.01431    51.20701       44.29558   55.04865  61.16303   58.0    0.11477  -21.58809  0.94364 
  -19.50957  0.03375  2.43539     13.49943  1.87106  0.73604   5.72897  0.26871     0.01353  8403.10092    9721.0004   0.0285         2781.71191     16.57018    2e-05  59730.94131  2.41314  0.19337   10332022.2569  44.75361  18.76596  59812.22584     51.1679       44.27263   54.22245  57.83882   47.0    0.14185  -21.59025  0.99363 
  -16.82589  0.01477  2.09573     13.92289  1.46189  0.17959   7.99121   0.1583      0.0102   8763.7976    8157.2048  0.04715         5184.16321     18.80545  0.00355  59733.62499  3.66121  0.11805    850389.20676  45.86147  18.76368  59810.18047    51.23289       44.33527   49.07988  59.70046   54.5    0.13428  -21.59617   0.9958 
  -16.74137  0.25704  2.14204     14.05587  1.36152  0.16039   4.45723   0.2327     0.01057  6787.68071   5330.26168  0.28202         5428.72812     17.53587  0.00019  59733.70951    1.225  1.14568    448494.60182  46.08946  18.78734  59812.22584    51.22219       44.34653   51.10192  56.80893   62.0    0.13005  -21.53753  0.95722 
  -15.61642  0.00717  3.07765     14.03541  1.96405  0.42833   3.69163  0.29859     0.02853  7584.00309   8446.33479  0.20974         3960.90786     20.12025  0.07328  59734.83446  1.26661  0.02646   1467538.98569  45.41897   18.7622  59815.34318    51.17107       44.23247   56.95623  65.58842   53.0    0.12671  -21.61645  0.99883 
  -13.48237  0.35676  3.16166     14.03863  1.72148  0.54308   7.31851  0.18084      0.0124   6944.7885   5825.61401  0.53167         5977.72656      16.8861    4e-05  59736.96851  2.10556  2.61096   1337454.41804  45.37864  18.75886  59812.22584    51.33203       44.50792    46.9515   48.5081   55.0    0.13267  -21.65125  0.87393 
  -13.85487  0.11266  2.74299     13.90159  1.65671  0.30874   4.88894  0.11923     0.01278  6222.65645   5184.12969  0.68083         5076.98688     18.23111  0.00095  59736.59601  1.12926  0.55079   1821081.74426  45.35131  18.74115  59815.34318    51.21827       44.29865   53.84293  63.23824   69.5    0.11781  -21.54522  0.97376 
  -16.46737   0.1935  2.37089     13.57709  1.73783  0.65434   5.38226  0.31461     0.01293  8065.16046   4885.51297  0.88702         3713.36704     20.42615  0.14821  59733.98351  2.08842  1.04147    6360203.6194  44.95556  18.78503  59811.39955    51.18271       44.31381   51.53874  53.95542   60.5    0.12756  -21.74254  0.96626 
  -17.57021  0.06837  2.48757     13.53977  1.52773  0.78422   8.86521  0.21264     0.01209  8955.17181   7378.65978  0.25468         3406.39505      18.6242  0.00234  59732.88067  4.24096  0.60611   7309116.09682  44.79747  18.76306  59815.34318    51.22606       44.33683   51.48179  58.16279   55.5    0.12711  -21.61473   0.9742 
  -12.80138  0.00604  2.88251       13.832  1.68149  0.90825   4.74478  0.24021     0.01455  5536.34046   8858.04895  0.78391          5191.4379     16.02703    1e-05   59737.6495  0.86754  0.02867   2812170.94849  45.12596  18.80169  59813.26353     51.1749       44.29755   53.84741  56.13865   53.0    0.12305  -21.56622  0.99864 
  -15.99522  0.12872  3.11261     14.15857  1.77139  0.33121   4.04286  0.33677     0.01196  5733.23558   8359.35382  1.49872         4018.74719       16.636    2e-05  59734.45566  0.79271   0.5204    767789.35404  45.64567  18.78152  59812.22584    51.21645       44.29691   54.72625  63.56064   55.0    0.12585  -21.48729  0.97354 
  -18.07367  0.00165  2.93467     13.84538  1.96293  0.40739   4.56743  0.22062     0.03503  8811.98433   6824.73904  0.10865         3001.22723     19.67306  0.02617  59732.37721  2.11566  0.00755   3199471.40929  45.12155  18.77957  59813.36703     51.1778        44.2403   54.66664   65.8028   67.5    0.10784  -21.63068  0.99967 
  -17.69212  0.35417  2.51041     14.38608  1.62285  0.09109    6.3345  0.26727     0.01475  8991.31273   7504.71408  0.30382         2201.27049     16.83336    4e-05  59732.75876  3.05482  2.24351    160480.65194  46.47421  18.74092  59812.62494    51.16143       44.28974   53.84293  54.93741   55.5    0.12847  -21.59333  0.91367 
  -17.63258  0.00533  3.14718      14.5824  2.03628  0.11851   7.90169  0.18826     0.01033  8000.20788   5881.64822  0.59677         2325.33862     18.31722  0.00115   59732.8183  3.01682  0.04216    128144.71685  46.47414  18.78301  59811.35206    51.18566        44.2766   52.65104  61.48543   56.0     0.1365  -21.53681  0.99814 
  -17.26276  0.00283  2.43996     14.43554  1.50881  0.09359   4.50058   0.2515     0.01028  5849.60553   9519.92042  0.60603         4915.34393     16.12611    1e-05  59733.18812  0.91865  0.01272    112238.61768  46.62257  18.72664  59812.62494     51.2063       44.30889   52.74971  60.18105   52.0    0.11927  -21.52145  0.99946 
  -19.13492  0.41358  3.10716     13.84072   1.6959  0.58248   4.77734  0.29096     0.06718  8042.58272    3642.8596  0.30372         3578.61386     19.74236   0.0307  59731.31596  1.84334  1.97579   3165975.01176  45.01301  18.78394  59812.62494     51.1769       44.28586   55.04865  57.01261   75.0    0.08632  -21.61875  0.89904 
  -17.07033  0.04565  2.76346     13.69334  1.92469  0.65073    6.6228  0.23428     0.01005  7674.60181   6656.96221  0.75175         3991.90316      19.8805  0.04219  59733.38055  2.32692  0.30233   5602846.08637  44.92189  18.76891  59811.39955    51.19048       44.33227   50.59062   54.0393   59.0    0.12602   -21.6286  0.98841 
  -15.57204  0.08716  2.66388     13.84346  1.56544  0.55159   4.77004  0.31409     0.01472  7450.89991   7676.47344  0.30919         4485.59305     18.36989   0.0013  59734.87883  1.57967  0.41575   2121113.58418  45.28589  18.76626  59813.26353     51.2112       44.31458   51.44533  59.41022   49.5    0.14336   -21.5297  0.98121 
  -16.00826  0.02513  3.37111     14.49366  2.11747  0.16894   7.39179  0.18989     0.01216  7545.34458   5994.18082  1.08214         2976.01745     19.89857  0.04398  59734.44262  2.51035  0.18576    230063.64371  46.17727  18.78639  59812.22584    51.19228       44.31468   51.44533   55.2598   57.0    0.13383  -21.56964  0.99126 
  -15.29648  0.07181  3.05019     13.85242  1.72829  0.59839   7.04014  0.21986     0.01704  8300.76904   6713.24258  0.51754         3612.19632     18.16846  0.00082   59735.1544  2.89364  0.50558   2946144.46572  45.06855  18.76478  59810.20747    51.18898       44.33917   49.94413  53.47483   55.5    0.13269   -21.5786  0.97399 
  -17.49359  0.00284  2.74816     14.10862  1.67152  0.23804   4.92506  0.23616     0.01957  8170.37035   6396.91541  0.04933         5503.00024     18.84195  0.00386  59732.95729   1.9612    0.014    710849.90856  45.76209  18.74361  59812.22584    51.21396       44.29826   56.61023  62.36427   57.5    0.13546  -21.56149  0.99935 
  -18.50724  0.00575  2.85987     13.95672  1.61301  0.38129   6.68413   0.2145     0.02221  8134.63288   6076.21885  0.28568         4274.24478     16.90739    4e-05  59731.94364  2.63845  0.03845   1495241.48865  45.38908   18.7823  59811.39955    51.20163       44.31029   51.88022  58.10584   61.0    0.11772  -21.59233  0.99801 
   -15.9006  0.00107  2.44818     13.61054  1.95229  0.50435   6.89548  0.23082      0.0103   8676.0963   7117.58036  2.16537         2749.02311     18.73479  0.00302  59734.55028  3.09628   0.0074   6530709.97596  44.96674  18.79392  59813.26353    51.16195       44.26672   55.75042  58.38605   61.0    0.12376  -21.59128  0.99976 
  -17.34654  0.16498  3.17324     13.91022  1.95168  0.56456   4.02434  0.28338      0.0205  7116.56851   7478.33792  0.29687          5477.8796     17.42599  0.00015  59733.10434   1.2158  0.66392   2759199.82367  45.11546  18.76599  59813.26353    51.16148       44.28637   53.84293  54.93741   57.0    0.12564   -21.5844  0.96913 
  -15.96892   0.0233  2.85527     13.84771  1.63602  0.80015   7.99393  0.21152     0.01504  7724.63473   8208.82002  0.29902         4181.65495     19.22336  0.00929  59734.48196   2.8454  0.18623   2497310.82934  45.17387  18.78627  59812.62494     51.1447       44.22904   57.76437  60.18105   48.0    0.13514  -21.54251  0.99104 
  -20.37951  0.33975  2.31499     13.50089  1.71034  0.62684   5.91094  0.23983     0.01009  7828.19149   5708.81678  0.20516         4201.02931     16.49672    2e-05  59730.07137  2.16076  2.00827   8476505.01815  44.84462  18.78076  59811.35206    51.12973       44.27172   52.74971  53.95542   64.0    0.12303  -21.55342  0.93534 
  -18.75013  0.11207  3.00323     13.96933  1.95838  0.37437   4.76428   0.2147      0.0144  7047.22352   8140.01054  0.22554         5724.56344     16.73476    3e-05  59731.70074  1.41143  0.53394   1888943.29451  45.32935  18.74605  59813.26353    51.24072       44.32497   53.84741  60.28906   56.0    0.12312  -21.53977  0.97691 
  -13.75463  0.30534   3.1609     13.80563  1.59586  0.83336   7.04431  0.22568     0.01401  7227.84919   7967.12676   1.2139         4115.56063     19.34187  0.01221  59736.69625  2.19525  2.15093   3623858.87023  44.91305  18.78993  59811.35206    51.20717       44.30826   51.88022  60.18105   52.5    0.13267  -21.56996  0.88146 
  -16.76747  0.02494  2.76081     13.95714  1.63221   0.3543   8.33434  0.24448     0.01416  8533.87444   7203.16012  0.97563         3497.70265     17.36085  0.00013  59733.68341  3.62068  0.20785   1407289.78487  45.45116  18.78289  59814.01431    51.18979       44.32033   49.82847  56.11451   56.5    0.12902  -21.62185  0.99015 
  -17.27287  0.44203  2.90612     13.79238  1.61761  0.69036   4.26986  0.32482     0.02861  7974.08412   7907.28101  0.09631         3482.18924     18.84434  0.00388  59733.17801  1.61958  1.88742   3300348.86728  45.03253  18.77491  59813.36703    51.24308       44.40108    49.8962   50.5833   53.0    0.12475   -21.5608  0.91002 
  -17.13652  0.22707  2.49829     13.80243   1.5415  0.33611   6.75453  0.17035     0.01414  8201.79446   8136.39563  0.18085         5967.28264     18.57954  0.00211  59733.31435  2.71044  1.53374   2219090.16692  45.31533  18.76392  59810.29425     51.1848       44.34061    49.8962  52.65851   56.5    0.13035  -21.62073  0.93517 
  -15.55554  0.02459  2.81156     14.02166  1.94249  0.26115   4.66294  0.22088     0.01952  8357.07823   5981.35703  0.34477          2442.0196     16.50685    2e-05  59734.89534  1.94266  0.11466   1290467.55209  45.54856  18.79234  59813.36703    51.20921       44.36422   49.13406   50.5833   63.5    0.13212  -21.57067  0.99534 
  -19.42079  0.05324  2.70647     13.81082    2.008  0.48497   5.03663  0.32827     0.01219  7639.06488   7935.15587  1.68928         2065.36511     17.66255  0.00026  59731.03009  1.75326  0.26815   3263930.55239  45.19306  18.79632  59812.22584    51.19953       44.32264   53.86474  56.80893   56.0    0.11665  -21.53928  0.99072 
  -17.63228   0.0224  2.28723      13.6899  1.68827  0.38893    7.5991  0.20079     0.01123  9080.73727   4565.33784  0.02813         3972.82594     19.50043  0.01759   59732.8186  3.73794  0.17022   3420371.43397   45.2436  18.76447  59813.26353    51.19913        44.2911    54.1576  59.97887   60.0    0.12958  -21.62866  0.99424 
  -18.21145  0.45331  2.39953     13.39758  1.67202  0.69872   4.08888  0.27621     0.02152  7796.31423   8912.32864  0.77588         3934.47669     18.46225  0.00161  59732.23943  1.48255  1.85354  14326841.69201  44.57568  18.77325  59814.01431    51.19651       44.34279   52.30957  53.18459   60.0    0.11416  -21.59144  0.92983 
  -16.02221  0.06105  2.68136     13.80738  1.68505  0.45121   3.66752  0.31716     0.02312  8103.06348   7450.48551  0.07863         4831.03908     18.21412  0.00091  59734.42867  1.43648  0.22391   2731299.00994  45.20238   18.7511  59810.29425    51.14556       44.29437   51.44533  53.18459   54.5    0.13828  -21.56019  0.99026 
  -18.66667   0.1265  2.45698     13.94003  1.84761  0.25829   5.33325  0.29153     0.01202   8218.8734   4725.75747  0.22124         3934.71168     16.26376    1e-05  59731.78421  2.14904  0.67468   1365126.13535  45.61948  18.81118  59812.22584    51.16004       44.27147   53.08079  57.01261   61.0    0.12249  -21.57658  0.97766 
  -18.41485  0.00583  2.20852     13.85368  1.52393  0.33304   6.03915  0.33946     0.01007  8042.64478   6426.84513   0.1457         4366.30366      19.0752  0.00661  59732.03603  2.33024  0.03521   1354008.18341  45.63198  18.78442  59813.26353      51.212       44.36055   49.07988  53.47483   56.5    0.12612  -21.57281   0.9988 
  -16.89895  0.05198   2.8354     13.72737  1.60308  0.51672   9.33505  0.15879     0.01136  7913.88231   6176.49898  1.62847         3632.33472     16.09869    1e-05  59733.55193  3.48757  0.48523   4200085.58283  44.94531   18.7789  59812.22584    51.18276       44.32378    50.6745  53.95542   60.5    0.12385  -21.57345  0.97452 
  -14.48546  0.04122  2.77225     13.72654  1.71217  0.57455   6.11557  0.28733     0.01349  8425.20092   8507.14989  1.44391         3465.04918     17.65774  0.00025  59735.96542  2.58955  0.25208   4304780.63846  44.98278  18.75959  59813.36703    51.15846        44.2626    56.6345  57.50197   51.5    0.14198  -21.59594  0.98854 
  -17.16128  0.25664   3.0962     13.65478  1.84535  0.79944   6.57015  0.19768     0.02047  9071.79214   5650.48216   0.0568         4681.07147     16.82144    4e-05  59733.28959  3.22544  1.68619   8053662.25382  44.64727  18.78683  59811.39955    51.18762       44.27196   55.92262  62.36427   60.0    0.12878  -21.59938  0.91957 
  -17.45882  0.01428  2.63976     13.76952  1.98306  0.45492   4.49199  0.24552     0.01002  6905.40979   5110.95031  0.39433         4737.20742      18.7639  0.00323  59732.99206  1.27775  0.06414   3708860.85048  45.15381  18.81354  59813.26353    51.20802       44.30475   52.65104  61.48543   62.0    0.12493  -21.52797  0.99777 
  -18.78641  0.03449  2.40785     13.84337  1.79075  0.35712    5.4995  0.33001     0.01135  8024.25952   4770.90256  0.32779          3927.2396     19.87044  0.04123  59731.66447  2.11232  0.18968   1983243.20543  45.46125  18.76479  59811.35206    51.16874       44.30676   52.30957   55.2598   58.5    0.12446  -21.61512   0.9938 
  -15.87808  0.03476  3.16901     14.02126  1.77864  0.38815   7.42991  0.15089     0.01631  7740.75883   5353.95625  0.50589         4024.04665      18.3572  0.00126   59734.5728  2.65569  0.25825   1503965.18363  45.33985  18.76678  59812.22584    51.18105       44.30137    51.7722  56.13865   60.5    0.12409  -21.55686  0.98595 
  -16.76559  0.24908  2.51077     13.39005  1.51451  1.09282   6.79575  0.16896     0.01363  8319.09492   7764.43241  0.05302         5258.30569     17.02582    6e-05  59733.68529  2.80554  1.69266  14709740.45824   44.4819  18.80567  59813.26353    51.26941       44.40737   43.57938  56.03063   56.0    0.12767  -21.56207  0.92733 
  -16.78627  0.01253  2.46011     13.76552  1.57659   0.6142   5.81275  0.33781     0.01246  8268.31413   5391.15233  0.17214         2138.68154      18.3093  0.00113  59733.66461  2.37051  0.07282    2608585.7348  45.26825  18.79709  59812.22584    51.24442       44.33917   46.54376  61.36709   53.0    0.13735  -21.55315  0.99717 
  -18.24483  0.03466  2.59689     13.63119  1.69037  0.56238   6.59025  0.20112     0.01881  9142.47842   7500.27735  0.13186         2912.33968     19.31279  0.01142  59732.20605  3.28592  0.22839   5785366.83705  44.90559  18.78957  59812.62494    51.28409       44.40088   51.10192  56.80893   58.5     0.1306   -21.6268  0.99032 
  -20.56634  0.25448  2.38304     13.91559  1.94963  0.21892     6.736  0.22242     0.01122  8435.44008   6135.56978  0.55619          2588.9914     16.49355    2e-05  59729.88454   2.8592  1.71415   1516504.57934  45.62369  18.75588  59810.29425     51.1496       44.28253   51.55913   53.6884   66.5    0.11166  -21.58084  0.94814 
  -15.51477   0.0663  3.22824     13.65267  1.85085  1.56051   6.80335  0.17828     0.01758  8059.85968   6915.54074  0.19396         4352.84726      16.4945    2e-05  59734.93611  2.63636  0.45105    8867068.2484   44.5705  18.77806  59812.22584    51.18541       44.32788   49.82847   54.0393   56.0    0.13278  -21.55419  0.97651 
